sample name	sample
index	1006
start time	 04-19-2021  10:54:07 AM


Wavelength (nm)	Absorbance
494.344910	0.222162
494.563924	0.222162
494.782919	0.222162
495.001897	-0.226863
495.220856	0.086039
495.439797	0.110375
495.658719	0.075557
495.877624	0.054320
496.096510	0.012503
496.315378	-0.057042
496.534227	-0.005459
496.753059	-0.040400
496.971872	-0.048142
497.190667	-0.005640
497.409444	0.002329
497.628203	0.006715
497.846943	0.005700
498.065665	0.007010
498.284369	0.008727
498.503055	0.007742
498.721723	0.007546
498.940372	0.007520
499.159003	0.007612
499.377616	0.007536
499.596210	0.007303
499.814787	0.007628
500.033345	0.008060
500.251885	0.007307
500.470406	0.008630
500.688910	0.009374
500.907395	0.009669
501.125862	0.010319
501.344311	0.010910
501.562742	0.010471
501.781154	0.010972
501.999548	0.010917
502.217924	0.010885
502.436282	0.010364
502.654621	0.009642
502.872942	0.009220
503.091245	0.008882
503.309530	0.008244
503.527797	0.007153
503.746045	0.006722
503.964275	0.006400
504.182487	0.006740
504.400681	0.005635
504.618856	0.004884
504.837013	0.005864
505.055152	0.005848
505.273273	0.006302
505.491376	0.007216
505.709460	0.007422
505.927526	0.007816
506.145574	0.007583
506.363604	0.007848
506.581615	0.008954
506.799608	0.008307
507.017583	0.008179
507.235540	0.007537
507.453478	0.007763
507.671399	0.007910
507.889301	0.007960
508.107185	0.007699
508.325050	0.007703
508.542898	0.007054
508.760727	0.007596
508.978538	0.007841
509.196330	0.007640
509.414105	0.007225
509.631861	0.006988
509.849599	0.006220
510.067319	0.006511
510.285021	0.006688
510.502704	0.006767
510.720369	0.005991
510.938016	0.005591
511.155645	0.005179
511.373255	0.005209
511.590848	0.005194
511.808422	0.004772
512.025977	0.004408
512.243515	0.003575
512.461034	0.004061
512.678536	0.004884
512.896018	0.005706
513.113483	0.005921
513.330930	0.006171
513.548358	0.005542
513.765768	0.006805
513.983160	0.007110
514.200533	0.007142
514.417889	0.006490
514.635226	0.006327
514.852545	0.006055
515.069845	0.006416
515.287128	0.006161
515.504392	0.006122
515.721638	0.005343
515.938866	0.004902
516.156075	0.005237
516.373267	0.005134
516.590440	0.004663
516.807594	0.003415
517.024731	0.003042
517.241850	0.002776
517.458950	0.003557
517.676032	0.003672
517.893095	0.003733
518.110141	0.004314
518.327168	0.004516
518.544177	0.004128
518.761168	0.005193
518.978141	0.005393
519.195095	0.005647
519.412031	0.005307
519.628949	0.005377
519.845849	0.005861
520.062731	0.005379
520.279594	0.005279
520.496439	0.005719
520.713266	0.005563
520.930074	0.005476
521.146865	0.005281
521.363637	0.005377
521.580391	0.005009
521.797127	0.004052
522.013844	0.004462
522.230543	0.004500
522.447224	0.004583
522.663887	0.004262
522.880532	0.004290
523.097158	0.004653
523.313766	0.003837
523.530356	0.003796
523.746928	0.004251
523.963481	0.003734
524.180017	0.004058
524.396534	0.004219
524.613032	0.003994
524.829513	0.003594
525.045975	0.003353
525.262420	0.003727
525.478845	0.003597
525.695253	0.003196
525.911643	0.003517
526.128014	0.003464
526.344367	0.003104
526.560702	0.003618
526.777018	0.003707
526.993316	0.004126
527.209597	0.004234
527.425858	0.004004
527.642102	0.003561
527.858328	0.003589
528.074535	0.003415
528.290724	0.003004
528.506894	0.002986
528.723047	0.003249
528.939181	0.003096
529.155297	0.002883
529.371395	0.002971
529.587475	0.003545
529.803536	0.003202
530.019579	0.003044
530.235604	0.003071
530.451611	0.002456
530.667600	0.001765
530.883570	0.001220
531.099522	0.000834
531.315456	0.000908
531.531372	0.000616
531.747269	0.000648
531.963148	0.000910
532.179009	0.000774
532.394852	0.000856
532.610676	0.001122
532.826482	0.000897
533.042271	0.001046
533.258040	0.001617
533.473792	0.002101
533.689525	0.002221
533.905240	0.001659
534.120937	0.002023
534.336616	0.002414
534.552277	0.002328
534.767919	0.002572
534.983543	0.002452
535.199149	0.001728
535.414736	0.001531
535.630306	0.002068
535.845857	0.002281
536.061390	0.002183
536.276904	0.001606
536.492401	0.001308
536.707879	0.001327
536.923339	0.001760
537.138781	0.001708
537.354204	0.001380
537.569610	0.000756
537.784997	0.000588
538.000366	0.000540
538.215716	0.000252
538.431049	0.000542
538.646363	0.000437
538.861659	0.000083
539.076937	0.000368
539.292196	0.000384
539.507438	-0.000018
539.722661	0.000099
539.937866	0.000071
540.153052	0.000645
540.368221	0.000875
540.583371	0.000907
540.798503	0.000677
541.013617	0.000920
541.228712	0.001037
541.443789	0.001120
541.658848	0.001612
541.873889	0.001188
542.088912	0.001031
542.303916	0.000803
542.518902	0.000600
542.733870	0.000850
542.948820	0.000271
543.163752	0.000240
543.378665	0.000362
543.593560	-0.000077
543.808437	0.000500
544.023295	0.000527
544.238136	0.000523
544.452958	0.000741
544.667762	0.000466
544.882548	0.000984
545.097315	0.000967
545.312064	0.000664
545.526795	0.000711
545.741508	0.000471
545.956203	0.000440
546.170879	0.000661
546.385537	0.000513
546.600177	0.000644
546.814799	0.000012
547.029402	-0.000306
547.243988	0.000057
547.458555	-0.000212
547.673103	-0.000397
547.887634	-0.000384
548.102146	-0.000692
548.316640	-0.000802
548.531116	-0.001004
548.745574	-0.000780
548.960013	-0.000690
549.174435	-0.000712
549.388838	-0.000847
549.603222	-0.000597
549.817589	-0.000559
550.031937	-0.000536
550.246267	-0.000523
550.460579	-0.000210
550.674873	-0.000246
550.889148	-0.000125
551.103405	-0.000378
551.317644	-0.000412
551.531865	-0.000402
551.746068	-0.000372
551.960252	-0.000272
552.174418	-0.000069
552.388566	-0.000016
552.602696	-0.000045
552.816807	-0.000034
553.030900	0.000315
553.244975	0.000094
553.459032	-0.000030
553.673070	-0.000160
553.887091	-0.000096
554.101093	-0.000252
554.315077	-0.000296
554.529042	-0.000374
554.742990	-0.000152
554.956919	-0.000386
555.170830	-0.000195
555.384722	-0.000199
555.598597	-0.000307
555.812453	-0.000573
556.026291	-0.000176
556.240111	-0.000367
556.453913	-0.000277
556.667696	-0.000374
556.881461	-0.000891
557.095208	-0.000813
557.308937	-0.000761
557.522647	-0.000728
557.736339	-0.000638
557.950013	-0.000831
558.163669	-0.000856
558.377307	-0.001194
558.590926	-0.001368
558.804527	-0.000999
559.018110	-0.001138
559.231675	-0.001343
559.445221	-0.001242
559.658749	-0.001247
559.872259	-0.001394
560.085751	-0.001250
560.299225	-0.001277
560.512680	-0.001379
560.726117	-0.001280
560.939536	-0.001124
561.152937	-0.001010
561.366319	-0.001072
561.579683	-0.000984
561.793029	-0.001001
562.006357	-0.000930
562.219667	-0.000642
562.432958	-0.000418
562.646231	-0.000279
562.859486	-0.000276
563.072723	-0.000516
563.285941	-0.000640
563.499141	-0.000777
563.712323	-0.001002
563.925487	-0.001257
564.138632	-0.001372
564.351760	-0.001497
564.564869	-0.001432
564.777960	-0.001496
564.991032	-0.001180
565.204087	-0.001120
565.417123	-0.001406
565.630141	-0.001353
565.843140	-0.001280
566.056122	-0.001387
566.269085	-0.001495
566.482030	-0.001612
566.694957	-0.001825
566.907866	-0.001976
567.120756	-0.001617
567.333628	-0.001292
567.546482	-0.001279
567.759318	-0.001290
567.972135	-0.001559
568.184935	-0.001293
568.397716	-0.001590
568.610478	-0.001023
568.823223	-0.000799
569.035949	-0.001106
569.248657	-0.001411
569.461347	-0.001400
569.674019	-0.001589
569.886672	-0.001369
570.099308	-0.001614
570.311925	-0.001427
570.524523	-0.001706
570.737104	-0.001785
570.949666	-0.002117
571.162210	-0.001621
571.374736	-0.001714
571.587244	-0.001579
571.799733	-0.001443
572.012205	-0.001405
572.224658	-0.001158
572.437092	-0.001379
572.649509	-0.001459
572.861907	-0.001256
573.074287	-0.001237
573.286649	-0.001088
573.498993	-0.001065
573.711318	-0.000854
573.923625	-0.000822
574.135914	-0.001096
574.348185	-0.001190
574.560438	-0.001569
574.772672	-0.001734
574.984888	-0.002152
575.197086	-0.002119
575.409266	-0.002250
575.621427	-0.002275
575.833570	-0.002415
576.045695	-0.002222
576.257802	-0.002050
576.469890	-0.002055
576.681961	-0.002053
576.894013	-0.001842
577.106046	-0.001948
577.318062	-0.001843
577.530059	-0.001718
577.742039	-0.001490
577.954000	-0.001921
578.165942	-0.001677
578.377867	-0.001269
578.589773	-0.001314
578.801661	-0.001717
579.013531	-0.001777
579.225382	-0.001601
579.437216	-0.001933
579.649031	-0.002018
579.860828	-0.001845
580.072606	-0.001845
580.284367	-0.002043
580.496109	-0.001760
580.707833	-0.001219
580.919539	-0.000973
581.131227	-0.000967
581.342896	-0.001027
581.554547	-0.001017
581.766180	-0.001037
581.977795	-0.001243
582.189391	-0.001088
582.400969	-0.001271
582.612529	-0.001484
582.824071	-0.001634
583.035595	-0.001985
583.247100	-0.001727
583.458587	-0.001792
583.670056	-0.001802
583.881506	-0.001855
584.092939	-0.001897
584.304353	-0.001913
584.515749	-0.001663
584.727127	-0.001773
584.938486	-0.001474
585.149828	-0.001560
585.361151	-0.001592
585.572456	-0.001470
585.783742	-0.001526
585.995011	-0.001571
586.206261	-0.001342
586.417493	-0.001629
586.628706	-0.001717
586.839902	-0.001834
587.051079	-0.002011
587.262238	-0.002099
587.473379	-0.002034
587.684502	-0.002020
587.895606	-0.002165
588.106692	-0.002194
588.317760	-0.002123
588.528810	-0.002045
588.739841	-0.001987
588.950855	-0.001916
589.161850	-0.001808
589.372827	-0.001937
589.583785	-0.001773
589.794726	-0.001767
590.005648	-0.001529
590.216552	-0.001769
590.427437	-0.001985
590.638305	-0.002276
590.849154	-0.002434
591.059985	-0.002381
591.270798	-0.002293
591.481592	-0.002342
591.692369	-0.002256
591.903127	-0.002876
592.113867	-0.002798
592.324588	-0.002455
592.535292	-0.002167
592.745977	-0.002090
592.956644	-0.002266
593.167293	-0.002399
593.377923	-0.002767
593.588536	-0.002571
593.799130	-0.002280
594.009706	-0.002423
594.220263	-0.002610
594.430803	-0.002748
594.641324	-0.002625
594.851827	-0.002625
595.062312	-0.002612
595.272778	-0.002112
595.483227	-0.002387
595.693657	-0.002645
595.904069	-0.002340
596.114462	-0.002088
596.324838	-0.002134
596.535195	-0.002355
596.745534	-0.002379
596.955855	-0.002432
597.166157	-0.002639
597.376441	-0.002841
597.586707	-0.002868
597.796955	-0.002951
598.007185	-0.003003
598.217396	-0.002921
598.427589	-0.002877
598.637764	-0.002748
598.847921	-0.002742
599.058060	-0.002848
599.268180	-0.002661
599.478282	-0.002618
599.688366	-0.002665
599.898431	-0.003046
600.108479	-0.002934
600.318508	-0.003002
600.528519	-0.002996
600.738511	-0.002971
600.948486	-0.002775
601.158442	-0.002664
601.368380	-0.002508
601.578300	-0.002560
601.788202	-0.002308
601.998085	-0.002489
602.207950	-0.002300
602.417797	-0.002342
602.627626	-0.002617
602.837436	-0.002714
603.047228	-0.002934
603.257002	-0.002715
603.466758	-0.002799
603.676496	-0.002780
603.886215	-0.002700
604.095916	-0.002644
604.305599	-0.002814
604.515264	-0.002842
604.724910	-0.002889
604.934538	-0.002841
605.144148	-0.003155
605.353740	-0.003309
605.563314	-0.003365
605.772869	-0.003480
605.982406	-0.003596
606.191925	-0.003638
606.401425	-0.003376
606.610908	-0.003581
606.820372	-0.003634
607.029818	-0.003576
607.239246	-0.003277
607.448655	-0.003305
607.658047	-0.003140
607.867420	-0.003290
608.076775	-0.002946
608.286111	-0.002862
608.495430	-0.002719
608.704730	-0.002661
608.914012	-0.002832
609.123275	-0.002998
609.332521	-0.002911
609.541748	-0.003272
609.750957	-0.003174
609.960148	-0.003506
610.169321	-0.003704
610.378475	-0.003775
610.587611	-0.003947
610.796729	-0.003843
611.005829	-0.004104
611.214910	-0.004185
611.423974	-0.004000
611.633019	-0.004060
611.842045	-0.003927
612.051054	-0.003797
612.260044	-0.003509
612.469017	-0.003420
612.677970	-0.003414
612.886906	-0.002983
613.095824	-0.003123
613.304723	-0.002953
613.513604	-0.002807
613.722467	-0.003000
613.931311	-0.003005
614.140138	-0.003240
614.348946	-0.003157
614.557736	-0.003095
614.766507	-0.003268
614.975261	-0.003178
615.183996	-0.003459
615.392713	-0.003519
615.601412	-0.003521
615.810092	-0.003602
616.018754	-0.003755
616.227399	-0.004034
616.436024	-0.004065
616.644632	-0.004035
616.853222	-0.004101
617.061793	-0.004004
617.270346	-0.004111
617.478880	-0.004079
617.687397	-0.004022
617.895895	-0.003958
618.104375	-0.003692
618.312837	-0.003611
618.521281	-0.003546
618.729706	-0.003488
618.938113	-0.003438
619.146502	-0.003313
619.354873	-0.003196
619.563226	-0.003191
619.771560	-0.003037
619.979876	-0.002897
620.188174	-0.003065
620.396453	-0.003016
620.604715	-0.003094
620.812958	-0.003195
621.021183	-0.003179
621.229390	-0.003079
621.437578	-0.003106
621.645748	-0.003116
621.853900	-0.003382
622.062034	-0.003351
622.270150	-0.003508
622.478247	-0.003499
622.686326	-0.003261
622.894387	-0.003187
623.102430	-0.003547
623.310454	-0.003629
623.518461	-0.003560
623.726449	-0.003340
623.934418	-0.003222
624.142370	-0.003245
624.350303	-0.003181
624.558218	-0.003268
624.766115	-0.003393
624.973994	-0.003224
625.181855	-0.002947
625.389697	-0.003008
625.597521	-0.003037
625.805327	-0.003158
626.013114	-0.003004
626.220883	-0.002893
626.428634	-0.003179
626.636367	-0.003078
626.844082	-0.003044
627.051778	-0.003267
627.259457	-0.003295
627.467117	-0.003358
627.674758	-0.003229
627.882382	-0.003078
628.089987	-0.003089
628.297574	-0.002896
628.505143	-0.003241
628.712694	-0.003208
628.920226	-0.003151
629.127740	-0.003008
629.335236	-0.002910
629.542714	-0.003013
629.750174	-0.003240
629.957615	-0.003283
630.165038	-0.003046
630.372443	-0.002723
630.579829	-0.002371
630.787198	-0.002349
630.994548	-0.002451
631.201880	-0.002530
631.409194	-0.002402
631.616489	-0.002322
631.823766	-0.002317
632.031025	-0.002653
632.238266	-0.002642
632.445489	-0.002860
632.652693	-0.002772
632.859879	-0.003034
633.067047	-0.002825
633.274197	-0.002929
633.481329	-0.002863
633.688442	-0.002938
633.895537	-0.002788
634.102614	-0.002713
634.309672	-0.002885
634.516713	-0.003008
634.723735	-0.002663
634.930739	-0.002929
635.137724	-0.002844
635.344692	-0.002853
635.551641	-0.002755
635.758572	-0.002767
635.965485	-0.002847
636.172379	-0.002748
636.379256	-0.002808
636.586114	-0.002904
636.792954	-0.002782
636.999775	-0.002810
637.206579	-0.002874
637.413364	-0.002870
637.620131	-0.002815
637.826880	-0.002841
638.033610	-0.002945
638.240323	-0.002892
638.447017	-0.002933
638.653692	-0.002902
638.860350	-0.002972
639.066990	-0.002853
639.273611	-0.002684
639.480214	-0.002760
639.686798	-0.002723
639.893365	-0.002672
640.099913	-0.002809
640.306443	-0.002906
640.512955	-0.002969
640.719449	-0.003060
640.925924	-0.003136
641.132381	-0.003337
641.338820	-0.003339
641.545241	-0.003227
641.751644	-0.003322
641.958028	-0.003303
642.164394	-0.003228
642.370742	-0.003061
642.577071	-0.002956
642.783383	-0.003032
642.989676	-0.002964
643.195951	-0.002982
643.402207	-0.003229
643.608446	-0.002946
643.814666	-0.002740
644.020868	-0.002845
644.227052	-0.003007
644.433218	-0.003217
644.639365	-0.003494
644.845494	-0.003484
645.051605	-0.003494
645.257698	-0.003377
645.463772	-0.003391
645.669828	-0.003393
645.875866	-0.003086
646.081886	-0.002979
646.287888	-0.002687
646.493871	-0.002320
646.699836	-0.002257
646.905783	-0.002068
647.111712	-0.001971
647.317622	-0.002085
647.523514	-0.002029
647.729388	-0.002105
647.935244	-0.002261
648.141082	-0.002275
648.346901	-0.002214
648.552702	-0.002297
648.758485	-0.002150
648.964250	-0.002231
649.169996	-0.002194
649.375724	-0.002172
649.581434	-0.002080
649.787126	-0.001954
649.992800	-0.002078
650.198455	-0.002192
650.404092	-0.002268
650.609711	-0.002481
650.815311	-0.002417
651.020894	-0.002508
651.226458	-0.002607
651.432004	-0.002715
651.637532	-0.002735
651.843041	-0.002660
652.048532	-0.002733
652.254006	-0.002610
652.459460	-0.002582
652.664897	-0.002622
652.870315	-0.002628
653.075716	-0.002472
653.281097	-0.002524
653.486461	-0.002478
653.691807	-0.002512
653.897134	-0.002451
654.102443	-0.002533
654.307734	-0.002605
654.513006	-0.002716
654.718261	-0.002528
654.923497	-0.002765
655.128715	-0.002729
655.333915	-0.002976
655.539096	-0.002864
655.744259	-0.002874
655.949404	-0.003067
656.154531	-0.002983
656.359640	-0.002910
656.564730	-0.003222
656.769802	-0.003373
656.974856	-0.003339
657.179892	-0.003253
657.384909	-0.003268
657.589908	-0.003141
657.794889	-0.002993
657.999852	-0.003173
658.204797	-0.003116
658.409723	-0.002937
658.614631	-0.002684
658.819521	-0.002760
659.024393	-0.002802
659.229246	-0.002886
659.434081	-0.003032
659.638898	-0.002877
659.843697	-0.002779
660.048478	-0.002910
660.253240	-0.002965
660.457984	-0.003046
660.662710	-0.002937
660.867417	-0.002786
661.072107	-0.002765
661.276778	-0.002690
661.481431	-0.002865
661.686066	-0.002965
661.890682	-0.003067
662.095281	-0.003090
662.299861	-0.003092
662.504422	-0.003166
662.708966	-0.003156
662.913491	-0.003185
663.117999	-0.003136
663.322488	-0.002998
663.526958	-0.002862
663.731411	-0.002810
663.935845	-0.002684
664.140261	-0.002554
664.344659	-0.002540
664.549038	-0.002621
664.753400	-0.002640
664.957743	-0.002722
665.162068	-0.002851
665.366375	-0.002824
665.570663	-0.002630
665.774933	-0.002763
665.979185	-0.002929
666.183419	-0.002987
666.387635	-0.002978
666.591832	-0.002961
666.796011	-0.002942
667.000172	-0.003012
667.204315	-0.003306
667.408439	-0.003317
667.612545	-0.003123
667.816634	-0.003214
668.020703	-0.003287
668.224755	-0.003163
668.428788	-0.003105
668.632803	-0.003169
668.836800	-0.003110
669.040779	-0.002829
669.244739	-0.002899
669.448681	-0.002900
669.652605	-0.002800
669.856511	-0.002773
670.060399	-0.002934
670.264268	-0.002955
670.468119	-0.002961
670.671952	-0.002728
670.875767	-0.002854
671.079563	-0.002943
671.283341	-0.003148
671.487101	-0.003156
671.690843	-0.003096
671.894567	-0.003018
672.098272	-0.002961
672.301959	-0.002889
672.505628	-0.003073
672.709278	-0.002860
672.912911	-0.002765
673.116525	-0.002658
673.320121	-0.002741
673.523699	-0.002631
673.727258	-0.002651
673.930799	-0.002762
674.134322	-0.002850
674.337827	-0.002921
674.541314	-0.003061
674.744782	-0.003133
674.948232	-0.003242
675.151664	-0.002969
675.355078	-0.003089
675.558474	-0.003005
675.761851	-0.003101
675.965210	-0.003080
676.168551	-0.002960
676.371873	-0.003035
676.575178	-0.003060
676.778464	-0.003105
676.981732	-0.003199
677.184981	-0.003215
677.388213	-0.003142
677.591426	-0.002782
677.794621	-0.002781
677.997798	-0.002877
678.200956	-0.002812
678.404097	-0.002642
678.607219	-0.002418
678.810323	-0.002492
679.013408	-0.002546
679.216476	-0.002619
679.419525	-0.002888
679.622556	-0.002754
679.825569	-0.002670
680.028563	-0.002635
680.231540	-0.002613
680.434498	-0.002774
680.637438	-0.002656
680.840359	-0.002523
681.043263	-0.002618
681.246148	-0.002695
681.449015	-0.002962
681.651864	-0.003179
681.854694	-0.003136
682.057506	-0.003374
682.260301	-0.003273
682.463076	-0.003235
682.665834	-0.003221
682.868573	-0.003228
683.071295	-0.003137
683.273998	-0.002975
683.476682	-0.002807
683.679349	-0.002826
683.881997	-0.002824
684.084627	-0.002944
684.287239	-0.003055
684.489833	-0.003029
684.692408	-0.003073
684.894965	-0.003134
685.097504	-0.003211
685.300025	-0.003203
685.502527	-0.003183
685.705012	-0.003108
685.907478	-0.003155
686.109925	-0.003181
686.312355	-0.003257
686.514766	-0.003260
686.717159	-0.003203
686.919534	-0.003151
687.121891	-0.003183
687.324230	-0.003305
687.526550	-0.003334
687.728852	-0.003227
687.931136	-0.003382
688.133401	-0.003491
688.335649	-0.003461
688.537878	-0.003446
688.740089	-0.003490
688.942281	-0.003525
689.144456	-0.003623
689.346612	-0.003674
689.548750	-0.003743
689.750870	-0.003590
689.952971	-0.003419
690.155055	-0.003364
690.357120	-0.003321
690.559167	-0.003244
690.761195	-0.003418
690.963206	-0.003344
691.165198	-0.003262
691.367172	-0.003212
691.569128	-0.003278
691.771065	-0.003401
691.972984	-0.003524
692.174885	-0.003622
692.376768	-0.003583
692.578633	-0.003389
692.780479	-0.003250
692.982308	-0.003456
693.184118	-0.003420
693.385909	-0.003520
693.587683	-0.003641
693.789438	-0.003697
693.991175	-0.003731
694.192894	-0.003771
694.394595	-0.003955
694.596277	-0.004082
694.797941	-0.004057
694.999587	-0.004077
695.201215	-0.003949
695.402824	-0.003829
695.604416	-0.003797
695.805989	-0.003728
696.007543	-0.003695
696.209080	-0.003613
696.410598	-0.003645
696.612099	-0.003518
696.813580	-0.003612
697.015044	-0.003697
697.216490	-0.003607
697.417917	-0.003500
697.619326	-0.003426
697.820717	-0.003404
698.022089	-0.003307
698.223444	-0.003309
698.424780	-0.003348
698.626098	-0.003209
698.827397	-0.003077
699.028679	-0.003142
699.229942	-0.003326
699.431187	-0.003558
699.632414	-0.003705
699.833622	-0.003740
700.034813	-0.003781
700.235985	-0.003780
700.437139	-0.003928
700.638274	-0.004076
700.839392	-0.004226
701.040491	-0.004230
701.241572	-0.004120
701.442635	-0.004198
701.643679	-0.004197
701.844706	-0.004173
702.045714	-0.004142
702.246704	-0.004097
702.447675	-0.004144
702.648629	-0.003976
702.849564	-0.003849
703.050481	-0.003753
703.251380	-0.003739
703.452260	-0.003921
703.653122	-0.003894
703.853966	-0.003846
704.054792	-0.003864
704.255600	-0.004029
704.456389	-0.004245
704.657160	-0.004309
704.857913	-0.004390
705.058648	-0.004337
705.259365	-0.004012
705.460063	-0.004046
705.660743	-0.003958
705.861405	-0.003926
706.062048	-0.003842
706.262674	-0.003708
706.463281	-0.003731
706.663870	-0.003811
706.864441	-0.003831
707.064993	-0.003993
707.265527	-0.004069
707.466043	-0.004326
707.666541	-0.004332
707.867021	-0.004311
708.067482	-0.004235
708.267925	-0.004159
708.468350	-0.004327
708.668757	-0.004359
708.869145	-0.004439
709.069516	-0.004396
709.269868	-0.004344
709.470201	-0.004387
709.670517	-0.004280
709.870814	-0.004488
710.071093	-0.004770
710.271354	-0.004677
710.471597	-0.004784
710.671821	-0.004796
710.872028	-0.004787
711.072216	-0.004665
711.272385	-0.004759
711.472537	-0.004654
711.672670	-0.004668
711.872785	-0.004399
712.072882	-0.004312
712.272961	-0.004327
712.473021	-0.004413
712.673063	-0.004625
712.873087	-0.004900
713.073093	-0.004990
713.273081	-0.005105
713.473050	-0.005112
713.673001	-0.005308
713.872934	-0.005489
714.072849	-0.005564
714.272745	-0.005569
714.472623	-0.005506
714.672483	-0.005526
714.872325	-0.005455
715.072148	-0.005475
715.271954	-0.005421
715.471741	-0.005616
715.671509	-0.005477
715.871260	-0.005467
716.070992	-0.005575
716.270707	-0.005543
716.470403	-0.005615
716.670080	-0.005659
716.869740	-0.005849
717.069381	-0.006006
717.269004	-0.005818
717.468609	-0.005985
717.668195	-0.006102
717.867764	-0.006137
718.067314	-0.006276
718.266846	-0.006145
718.466360	-0.006268
718.665855	-0.006357
718.865332	-0.006517
719.064791	-0.006553
719.264232	-0.006478
719.463655	-0.006519
719.663059	-0.006467
719.862445	-0.006510
720.061813	-0.006772
720.261163	-0.006776
720.460494	-0.006790
720.659807	-0.006747
720.859102	-0.006848
721.058379	-0.007052
721.257638	-0.006983
721.456878	-0.007084
721.656100	-0.007044
721.855304	-0.007112
722.054490	-0.007314
722.253657	-0.007373
722.452806	-0.007449
722.651937	-0.007540
722.851050	-0.007620
723.050145	-0.007871
723.249221	-0.007901
723.448279	-0.008027
723.647319	-0.007898
723.846340	-0.007853
724.045344	-0.007861
724.244329	-0.007883
724.443296	-0.007975
724.642245	-0.008076
724.841175	-0.008088
725.040088	-0.008187
725.238982	-0.008189
725.437857	-0.008391
725.636715	-0.008547
725.835554	-0.008708
726.034376	-0.008813
726.233179	-0.008990
726.431963	-0.008920
726.630730	-0.009001
726.829478	-0.009160
727.028208	-0.009334
727.226920	-0.009426
727.425614	-0.009330
727.624289	-0.009525
727.822946	-0.009564
728.021585	-0.009561
728.220206	-0.009691
728.418808	-0.009623
728.617392	-0.009525
728.815958	-0.009632
729.014506	-0.009611
729.213036	-0.009846
729.411547	-0.009859
729.610040	-0.009893
729.808515	-0.010022
730.006972	-0.010072
730.205410	-0.010233
730.403831	-0.010402
730.602233	-0.010435
730.800616	-0.010552
730.998982	-0.010623
731.197329	-0.010452
731.395658	-0.010700
731.593969	-0.010754
731.792262	-0.010886
731.990536	-0.010934
732.188793	-0.011069
732.387031	-0.011044
732.585250	-0.011040
732.783452	-0.011106
732.981635	-0.011398
733.179800	-0.011263
733.377947	-0.011358
733.576076	-0.011396
733.774186	-0.011531
733.972278	-0.011456
734.170352	-0.011514
734.368408	-0.011715
734.566446	-0.011591
734.764465	-0.011646
734.962466	-0.011755
735.160449	-0.011687
735.358413	-0.011695
735.556360	-0.011708
735.754288	-0.011795
735.952198	-0.012095
736.150090	-0.011943
736.347963	-0.012093
736.545818	-0.012050
736.743655	-0.012190
736.941474	-0.012368
737.139275	-0.012384
737.337057	-0.012336
737.534821	-0.012417
737.732567	-0.012353
737.930295	-0.012513
738.128005	-0.012526
738.325696	-0.012588
738.523369	-0.012484
738.721024	-0.012427
738.918660	-0.012587
739.116279	-0.012666
739.313879	-0.012699
739.511461	-0.012921
739.709024	-0.012850
739.906570	-0.012862
740.104097	-0.012666
740.301606	-0.012711
740.499097	-0.012568
740.696569	-0.012568
740.894024	-0.012551
741.091460	-0.012604
741.288878	-0.012402
741.486277	-0.012552
741.683659	-0.012590
741.881022	-0.012822
742.078367	-0.012854
742.275694	-0.012938
742.473002	-0.012953
742.670293	-0.012839
742.867565	-0.012658
743.064819	-0.012570
743.262054	-0.012227
743.459272	-0.012238
743.656471	-0.012130
743.853652	-0.012100
744.050815	-0.012179
744.247959	-0.011893
744.445085	-0.011985
744.642194	-0.011992
744.839283	-0.011861
745.036355	-0.011931
745.233408	-0.011762
745.430444	-0.011793
745.627461	-0.011804
745.824459	-0.011608
746.021440	-0.011801
746.218402	-0.011652
746.415346	-0.011571
746.612272	-0.011543
746.809180	-0.011637
747.006069	-0.011643
747.202940	-0.011575
747.399793	-0.011464
747.596628	-0.011611
747.793444	-0.011629
747.990243	-0.011626
748.187023	-0.011724
748.383784	-0.011779
748.580528	-0.011732
748.777253	-0.011591
748.973960	-0.011643
749.170649	-0.011543
749.367320	-0.011094
749.563973	-0.010810
749.760607	-0.010856
749.957223	-0.010694
750.153821	-0.010599
750.350400	-0.010495
750.546962	-0.010485
750.743505	-0.010309
750.940030	-0.010248
751.136536	-0.010382
751.333025	-0.010230
751.529495	-0.010191
751.725947	-0.010303
751.922381	-0.010270
752.118796	-0.010122
752.315194	-0.010210
752.511573	-0.010034
752.707934	-0.010054
752.904276	-0.009925
753.100601	-0.010160
753.296907	-0.009985
753.493195	-0.009889
753.689465	-0.009679
753.885716	-0.009801
754.081949	-0.009805
754.278164	-0.009835
754.474361	-0.009638
754.670540	-0.009558
754.866700	-0.009413
755.062843	-0.009649
755.258967	-0.009413
755.455072	-0.009557
755.651160	-0.009392
755.847229	-0.009130
756.043280	-0.009175
756.239313	-0.009147
756.435328	-0.009220
756.631324	-0.009109
756.827302	-0.008618
757.023262	-0.008622
757.219204	-0.008504
757.415127	-0.008446
757.611033	-0.008498
757.806920	-0.008273
758.002788	-0.008393
758.198639	-0.008417
758.394471	-0.008213
758.590286	-0.008429
758.786081	-0.008284
758.981859	-0.008092
759.177619	-0.008021
759.373360	-0.007895
759.569083	-0.007821
759.764788	-0.007662
759.960474	-0.007667
760.156143	-0.007675
760.351793	-0.007478
760.547425	-0.007387
760.743038	-0.007376
760.938634	-0.007358
761.134211	-0.007509
761.329770	-0.007672
761.525311	-0.007516
761.720833	-0.007278
761.916338	-0.007279
762.111824	-0.007276
762.307292	-0.007392
762.502741	-0.007347
762.698173	-0.007198
762.893586	-0.006875
763.088981	-0.006568
763.284358	-0.006670
763.479716	-0.006716
763.675057	-0.006635
763.870379	-0.006605
764.065683	-0.006581
764.260968	-0.006414
764.456236	-0.006260
764.651485	-0.006218
764.846716	-0.006280
765.041929	-0.005961
765.237123	-0.005976
765.432299	-0.005956
765.627457	-0.005841
765.822597	-0.005620
766.017719	-0.005765
766.212822	-0.005753
766.407907	-0.005647
766.602974	-0.005360
766.798023	-0.005427
766.993054	-0.005118
767.188066	-0.005088
767.383060	-0.004991
767.578036	-0.004838
767.772993	-0.004602
767.967933	-0.004500
768.162854	-0.004520
768.357757	-0.004546
768.552642	-0.004427
768.747508	-0.004409
768.942356	-0.004382
769.137186	-0.004388
769.331998	-0.004493
769.526792	-0.004764
769.721567	-0.004713
769.916324	-0.004810
770.111063	-0.004932
770.305784	-0.004941
770.500486	-0.004949
770.695171	-0.004839
770.889837	-0.004853
771.084484	-0.004693
771.279114	-0.004637
771.473725	-0.004741
771.668318	-0.004541
771.862893	-0.004360
772.057450	-0.004417
772.251988	-0.004453
772.446509	-0.004457
772.641011	-0.004366
772.835494	-0.004492
773.029960	-0.004307
773.224407	-0.004272
773.418836	-0.004238
773.613247	-0.004319
773.807640	-0.004231
774.002014	-0.004048
774.196370	-0.004147
774.390708	-0.004102
774.585028	-0.004062
774.779330	-0.004033
774.973613	-0.004030
775.167878	-0.004029
775.362125	-0.003823
775.556354	-0.003804
775.750564	-0.003697
775.944756	-0.003441
776.138930	-0.003426
776.333086	-0.003312
776.527223	-0.003230
776.721343	-0.003249
776.915444	-0.003030
777.109526	-0.003016
777.303591	-0.002910
777.497637	-0.002958
777.691666	-0.002893
777.885676	-0.002658
778.079667	-0.002521
778.273641	-0.002601
778.467596	-0.002418
778.661533	-0.002565
778.855452	-0.002604
779.049352	-0.002751
779.243235	-0.002780
779.437099	-0.002750
779.630945	-0.002689
779.824773	-0.002679
780.018582	-0.002485
780.212373	-0.002394
780.406146	-0.002399
780.599901	-0.002308
780.793638	-0.002054
780.987356	-0.002019
781.181056	-0.001960
781.374738	-0.002220
781.568402	-0.002148
781.762047	-0.002130
781.955674	-0.002201
782.149283	-0.002241
782.342874	-0.002294
782.536447	-0.002371
782.730001	-0.002268
782.923537	-0.002515
783.117055	-0.002443
783.310555	-0.002594
783.504036	-0.002679
783.697499	-0.002778
783.890944	-0.002606
784.084371	-0.002570
784.277780	-0.002582
784.471170	-0.002650
784.664542	-0.002599
784.857896	-0.002473
785.051231	-0.002289
785.244549	-0.002128
785.437848	-0.002193
785.631129	-0.002232
785.824392	-0.002243
786.017636	-0.002337
786.210863	-0.002226
786.404071	-0.002146
786.597260	-0.002120
786.790432	-0.002164
786.983585	-0.002223
787.176721	-0.001949
787.369838	-0.001670
787.562936	-0.001641
787.756017	-0.001438
787.949079	-0.001539
788.142123	-0.001492
788.335149	-0.001464
788.528156	-0.001615
788.721146	-0.001649
788.914117	-0.001716
789.107070	-0.001870
789.300005	-0.001806
789.492921	-0.001830
789.685819	-0.001642
789.878699	-0.001596
790.071561	-0.001608
790.264405	-0.001458
790.457230	-0.001292
790.650037	-0.001242
790.842826	-0.001259
791.035597	-0.001291
791.228349	-0.001266
791.421084	-0.001343
791.613800	-0.001288
791.806497	-0.001385
791.999177	-0.001383
792.191838	-0.001400
792.384481	-0.001202
792.577106	-0.001136
792.769713	-0.001083
792.962301	-0.001086
793.154871	-0.001105
793.347423	-0.001084
793.539957	-0.000981
793.732473	-0.001043
793.924970	-0.000892
794.117449	-0.001170
794.309910	-0.001337
794.502353	-0.001327
794.694777	-0.001270
794.887183	-0.001240
795.079571	-0.001211
795.271941	-0.001206
795.464293	-0.001126
795.656626	-0.001317
795.848941	-0.001341
796.041238	-0.001239
796.233516	-0.001354
796.425777	-0.001407
796.618019	-0.001362
796.810243	-0.001271
797.002449	-0.001182
797.194636	-0.001268
797.386805	-0.001081
797.578956	-0.000899
797.771089	-0.001013
797.963204	-0.000752
798.155300	-0.000848
798.347378	-0.001088
798.539438	-0.001040
798.731480	-0.001241
798.923503	-0.001325
799.115509	-0.001539
799.307496	-0.001683
799.499465	-0.001534
799.691415	-0.001592
799.883348	-0.001517
800.075262	-0.001314
800.267158	-0.001622
800.459035	-0.001495
800.650895	-0.001235
800.842736	-0.001223
801.034559	-0.001119
801.226364	-0.001080
801.418150	-0.001165
801.609919	-0.001147
801.801669	-0.001122
801.993401	-0.000989
802.185114	-0.001178
802.376810	-0.001102
802.568487	-0.001198
802.760146	-0.001213
802.951787	-0.001402
803.143409	-0.001492
803.335014	-0.001401
803.526600	-0.001433
803.718168	-0.001435
803.909717	-0.001351
804.101249	-0.001496
804.292762	-0.001383
804.484257	-0.001537
804.675734	-0.001323
804.867192	-0.001214
805.058632	-0.001178
805.250054	-0.001273
805.441458	-0.001180
805.632844	-0.001025
805.824211	-0.001089
806.015561	-0.001128
806.206891	-0.000929
806.398204	-0.001060
806.589499	-0.001269
806.780775	-0.001360
806.972033	-0.001267
807.163273	-0.001493
807.354495	-0.001438
807.545698	-0.001371
807.736883	-0.001425
807.928050	-0.001374
808.119199	-0.001235
808.310329	-0.001081
808.501441	-0.001066
808.692535	-0.001021
808.883611	-0.000813
809.074669	-0.001067
809.265708	-0.001055
809.456729	-0.001072
809.647732	-0.001242
809.838717	-0.001429
810.029683	-0.001507
810.220632	-0.001655
810.411562	-0.001869
810.602474	-0.001943
810.793367	-0.001792
810.984242	-0.001838
811.175100	-0.001893
811.365938	-0.002107
811.556759	-0.002242
811.747562	-0.002170
811.938346	-0.002275
812.129112	-0.002460
812.319860	-0.002537
812.510589	-0.002698
812.701300	-0.002723
812.891994	-0.002908
813.082668	-0.002834
813.273325	-0.002754
813.463964	-0.002864
813.654584	-0.002802
813.845186	-0.002514
814.035769	-0.002552
814.226335	-0.002551
814.416882	-0.002639
814.607411	-0.002495
814.797922	-0.002702
814.988415	-0.002667
815.178889	-0.002985
815.369345	-0.003152
815.559783	-0.003508
815.750203	-0.003560
815.940605	-0.003619
816.130988	-0.003741
816.321353	-0.003934
816.511700	-0.003716
816.702028	-0.003861
816.892339	-0.003568
817.082631	-0.003538
817.272905	-0.003468
817.463161	-0.003520
817.653398	-0.003680
817.843617	-0.003669
818.033819	-0.003596
818.224001	-0.003702
818.414166	-0.003698
818.604312	-0.003989
818.794440	-0.003926
818.984550	-0.004057
819.174642	-0.004091
819.364716	-0.003970
819.554771	-0.004271
819.744808	-0.004213
819.934827	-0.004160
820.124827	-0.004377
820.314810	-0.004383
820.504774	-0.004627
820.694720	-0.004620
820.884647	-0.005058
821.074557	-0.005469
821.264448	-0.005540
821.454321	-0.005793
821.644176	-0.006146
821.834012	-0.006445
822.023831	-0.006552
822.213631	-0.006659
822.403413	-0.006764
822.593176	-0.006844
822.782922	-0.006750
822.972649	-0.006781
823.162358	-0.006971
823.352049	-0.007120
823.541721	-0.006816
823.731376	-0.006917
823.921012	-0.007067
824.110629	-0.007301
824.300229	-0.007259
824.489811	-0.007325
824.679374	-0.007341
824.868919	-0.007391
825.058445	-0.007304
825.247954	-0.007642
825.437444	-0.008047
825.626916	-0.008028
825.816370	-0.008152
826.005806	-0.008095
826.195223	-0.008403
826.384622	-0.008667
826.574003	-0.008618
826.763366	-0.008904
826.952711	-0.008892
827.142037	-0.008472
827.331345	-0.008631
827.520635	-0.008657
827.709906	-0.008910
827.899160	-0.008877
828.088395	-0.008874
828.277612	-0.008991
828.466810	-0.009296
828.655991	-0.009357
828.845153	-0.009919
829.034297	-0.009770
829.223423	-0.009599
829.412531	-0.009702
829.601620	-0.009767
829.790691	-0.009887
829.979744	-0.010039
830.168779	-0.009788
830.357795	-0.010122
830.546793	-0.010046
830.735773	-0.010282
830.924735	-0.010430
831.113679	-0.010349
831.302604	-0.010302
831.491511	-0.010265
831.680400	-0.010228
831.869271	-0.010031
832.058123	-0.009922
832.246957	-0.009716
832.435773	-0.009875
832.624571	-0.010010
832.813351	-0.010217
833.002112	-0.010409
833.190855	-0.010599
833.379580	-0.010843
833.568287	-0.011416
833.756975	-0.011617
833.945645	-0.011938
834.134297	-0.012112
834.322931	-0.012173
834.511547	-0.012304
834.700144	-0.012459
834.888723	-0.012388
835.077284	-0.012435
835.265826	-0.012130
835.454351	-0.011977
835.642857	-0.011639
835.831345	-0.011311
836.019815	-0.011421
836.208266	-0.011324
836.396699	-0.011263
836.585114	-0.011242
836.773511	-0.011112
836.961890	-0.011249
837.150250	-0.011280
837.338592	-0.011590
837.526916	-0.011815
837.715222	-0.011752
837.903510	-0.011865
838.091779	-0.011972
838.280030	-0.012129
838.468263	-0.011870
838.656477	-0.011935
838.844674	-0.011977
839.032852	-0.012108
839.221012	-0.012082
839.409153	-0.012166
839.597277	-0.011944
839.785382	-0.011774
839.973469	-0.011644
840.161538	-0.011949
840.349589	-0.011807
840.537621	-0.011892
840.725635	-0.011737
840.913631	-0.011592
841.101609	-0.011290
841.289568	-0.011317
841.477509	-0.011286
841.665432	-0.011273
841.853337	-0.011384
842.041224	-0.011427
842.229092	-0.011166
842.416942	-0.011219
842.604774	-0.011365
842.792588	-0.011483
842.980383	-0.011591
843.168160	-0.011797
843.355919	-0.012036
843.543660	-0.011905
843.731382	-0.011948
843.919087	-0.012214
844.106773	-0.012435
844.294441	-0.012344
844.482090	-0.012338
844.669722	-0.012196
844.857335	-0.011986
845.044930	-0.011785
845.232507	-0.011673
845.420065	-0.011627
845.607605	-0.011511
845.795127	-0.011289
845.982631	-0.011254
846.170117	-0.011300
846.357584	-0.011455
846.545033	-0.011309
846.732464	-0.011271
846.919877	-0.011230
847.107272	-0.010957
847.294648	-0.010584
847.482006	-0.010315
847.669346	-0.010246
847.856667	-0.010253
848.043971	-0.010126
848.231256	-0.009930
848.418523	-0.009800
848.605771	-0.009745
848.793002	-0.009985
848.980214	-0.010123
849.167408	-0.010181
849.354584	-0.010152
849.541742	-0.009873
849.728881	-0.009706
849.916002	-0.009878
850.103105	-0.009887
850.290190	-0.009822
850.477256	-0.009724
850.664304	-0.009637
850.851334	-0.009708
851.038346	-0.009847
851.225340	-0.009929
851.412315	-0.009794
851.599272	-0.009847
851.786211	-0.009824
851.973132	-0.009578
852.160034	-0.009295
852.346918	-0.009328
852.533784	-0.009201
852.720632	-0.008850
852.907462	-0.008533
853.094273	-0.008358
853.281066	-0.008073
853.467841	-0.008064
853.654598	-0.008183
853.841336	-0.008151
854.028056	-0.007770
854.214758	-0.007491
854.401442	-0.007431
854.588107	-0.007518
854.774755	-0.007391
854.961384	-0.007442
855.147995	-0.007051
855.334587	-0.006865
855.521162	-0.006906
855.707718	-0.007089
855.894256	-0.007184
856.080775	-0.007273
856.267277	-0.007126
856.453760	-0.007399
856.640225	-0.007333
856.826672	-0.007422
857.013101	-0.007729
857.199511	-0.007801
857.385903	-0.007620
857.572277	-0.007608
857.758633	-0.007422
857.944970	-0.007601
858.131290	-0.007490
858.317591	-0.007358
858.503873	-0.007335
858.690138	-0.006829
858.876384	-0.006476
859.062612	-0.006306
859.248822	-0.006013
859.435014	-0.005897
859.621188	-0.005784
859.807343	-0.005553
859.993480	-0.005393
860.179599	-0.005451
860.365699	-0.005626
860.551781	-0.005914
860.737846	-0.005934
860.923891	-0.006141
861.109919	-0.006137
861.295929	-0.005934
861.481920	-0.006000
861.667893	-0.006116
861.853848	-0.005856
862.039784	-0.005843
862.225702	-0.005523
862.411603	-0.005550
862.597484	-0.005273
862.783348	-0.005214
862.969193	-0.005111
863.155021	-0.004876
863.340830	-0.004694
863.526620	-0.004440
863.712393	-0.004072
863.898147	-0.004175
864.083883	-0.004177
864.269601	-0.003956
864.455301	-0.003890
864.640982	-0.003959
864.826645	-0.004053
865.012290	-0.003979
865.197917	-0.004193
865.383526	-0.004381
865.569116	-0.003987
865.754688	-0.003874
865.940242	-0.003966
866.125777	-0.004028
866.311295	-0.003789
866.496794	-0.003454
866.682275	-0.003419
866.867737	-0.003677
867.053182	-0.003360
867.238608	-0.003467
867.424016	-0.003543
867.609406	-0.003489
867.794778	-0.003379
867.980131	-0.003435
868.165466	-0.003639
868.350783	-0.003613
868.536082	-0.003073
868.721362	-0.003044
868.906625	-0.003107
869.091869	-0.002804
869.277094	-0.002886
869.462302	-0.002805
869.647491	-0.002713
869.832662	-0.002648
870.017815	-0.002681
870.202950	-0.002781
870.388066	-0.003004
870.573165	-0.002918
870.758245	-0.002969
870.943306	-0.002813
871.128350	-0.002673
871.313375	-0.002672
871.498382	-0.002626
871.683371	-0.002421
871.868342	-0.002382
872.053294	-0.002405
872.238229	-0.002397
872.423144	-0.002327
872.608042	-0.002399
872.792922	-0.002344
872.977783	-0.002355
873.162626	-0.002220
873.347451	-0.002235
873.532258	-0.002135
873.717046	-0.001965
873.901816	-0.001814
874.086568	-0.001996
874.271302	-0.001712
874.456017	-0.001887
874.640715	-0.001788
874.825394	-0.001758
875.010055	-0.001749
875.194697	-0.001629
875.379322	-0.001287
875.563928	-0.001237
875.748516	-0.000908
875.933085	-0.000903
876.117637	-0.000801
876.302170	-0.000712
876.486685	-0.000774
876.671182	-0.000913
876.855661	-0.001064
877.040121	-0.001216
877.224563	-0.001325
877.408987	-0.001244
877.593393	-0.001324
877.777780	-0.001092
877.962150	-0.001402
878.146501	-0.001389
878.330833	-0.001478
878.515148	-0.001480
878.699444	-0.001682
878.883722	-0.001388
879.067982	-0.001595
879.252224	-0.001648
879.436447	-0.001895
879.620653	-0.001650
879.804840	-0.001583
879.989008	-0.001285
880.173159	-0.000959
880.357291	-0.001068
880.541405	-0.001014
880.725501	-0.000726
880.909579	-0.000602
881.093638	-0.000660
881.277680	-0.000747
881.461703	-0.000877
881.645707	-0.000769
881.829694	-0.000874
882.013662	-0.000718
882.197612	-0.000764
882.381544	-0.001038
882.565458	-0.001039
882.749353	-0.000891
882.933230	-0.000730
883.117089	-0.000365
883.300930	-0.000392
883.484753	-0.000410
883.668557	-0.000335
883.852343	-0.000504
884.036111	-0.000205
884.219861	-0.000149
884.403592	0.000155
884.587305	0.000385
884.771000	0.000182
884.954677	0.000401
885.138335	0.000480
885.321976	0.000479
885.505598	0.000530
885.689201	0.000382
885.872787	0.000368
886.056354	0.000106
886.239904	-0.000139
886.423434	-0.000181
886.606947	-0.000420
886.790442	-0.000268
886.973918	0.000152
887.157376	0.000561
887.340816	0.000561
887.524237	0.000673
887.707641	0.000999
887.891026	0.001165
888.074393	0.001314
888.257741	0.001507
888.441072	0.001271
888.624384	0.000816
888.807678	0.000431
888.990954	0.000617
889.174211	0.000475
889.357451	0.000224
889.540672	0.000151
889.723875	0.000264
889.907059	0.000280
890.090226	0.000352
890.273374	0.000505
890.456504	0.000876
890.639616	0.000710
890.822709	0.000959
891.005785	0.000947
891.188842	0.001048
891.371881	0.001460
891.554901	0.001395
891.737904	0.001437
891.920888	0.001536
892.103854	0.001269
892.286802	0.001381
892.469731	0.001275
892.652643	0.001353
892.835536	0.001150
893.018410	0.000836
893.201267	0.000733
893.384106	0.000552
893.566926	0.000652
893.749728	0.000718
893.932511	0.000579
894.115277	0.000555
894.298024	0.000826
894.480753	0.001240
894.663464	0.001205
894.846157	0.001426
895.028831	0.001712
895.211487	0.001586
895.394125	0.001526
895.576745	0.001541
895.759346	0.001512
895.941930	0.001209
896.124495	0.000909
896.307041	0.000734
896.489570	0.000772
896.672080	0.000850
896.854573	0.001002
897.037046	0.001152
897.219502	0.000930
897.401940	0.000959
897.584359	0.001130
897.766760	0.001359
897.949143	0.001364
898.131507	0.001081
898.313854	0.001018
898.496182	0.000957
898.678492	0.000530
898.860783	0.000599
899.043057	0.000941
899.225312	0.000797
899.407549	0.000683
899.589768	0.000376
899.771968	0.000465
899.954151	0.000670
900.136315	0.000571
900.318461	0.000847
900.500588	0.000838
900.682698	0.000492
900.864789	0.000448
901.046862	0.000296
901.228917	0.000622
901.410953	0.000554
901.592971	0.000278
901.774972	-0.000029
901.956953	-0.000060
902.138917	-0.000175
902.320862	-0.000442
902.502790	-0.000519
902.684699	-0.000868
902.866589	-0.000991
903.048462	-0.001077
903.230316	-0.001373
903.412152	-0.001441
903.593970	-0.001394
903.775770	-0.001262
903.957551	-0.001161
904.139314	-0.001180
904.321059	-0.001072
904.502786	-0.001335
904.684494	-0.001459
904.866185	-0.001574
905.047857	-0.001443
905.229510	-0.001534
905.411146	-0.001335
905.592763	-0.001133
905.774363	-0.000841
905.955943	-0.000927
906.137506	-0.000849
906.319051	-0.001131
906.500577	-0.001209
906.682085	-0.001232
906.863575	-0.001747
907.045046	-0.001972
907.226500	-0.002222
907.407935	-0.002798
907.589352	-0.002861
907.770750	-0.002958
907.952131	-0.002824
908.133493	-0.002678
908.314837	-0.002638
908.496163	-0.002412
908.677470	-0.002624
908.858760	-0.003167
909.040031	-0.003379
909.221284	-0.003109
909.402518	-0.003279
909.583735	-0.003260
909.764933	-0.003376
909.946113	-0.003661
910.127275	-0.003610
910.308418	-0.003778
910.489544	-0.003688
910.670651	-0.003428
910.851740	-0.003545
911.032810	-0.003448
911.213863	-0.003735
911.394897	-0.003849
911.575913	-0.003767
911.756911	-0.004177
911.937890	-0.004426
912.118851	-0.004289
912.299794	-0.004688
912.480719	-0.004935
912.661626	-0.005388
912.842514	-0.005448
913.023384	-0.005663
913.204236	-0.006153
913.385070	-0.006214
913.565886	-0.006102
913.746683	-0.006138
913.927462	-0.006044
914.108223	-0.006530
914.288965	-0.006214
914.469690	-0.006369
914.650396	-0.006869
914.831084	-0.006795
915.011754	-0.006573
915.192405	-0.006702
915.373038	-0.006718
915.553653	-0.007148
915.734250	-0.007104
915.914829	-0.007864
916.095389	-0.007769
916.275931	-0.007671
916.456455	-0.007593
916.636961	-0.008123
916.817448	-0.008421
916.997917	-0.008649
917.178368	-0.008713
917.358801	-0.008963
917.539216	-0.008672
917.719612	-0.008891
917.899990	-0.009030
918.080350	-0.009478
918.260692	-0.009754
918.441015	-0.010363
918.621320	-0.010866
918.801607	-0.011361
918.981876	-0.011491
919.162127	-0.012169
919.342359	-0.012534
919.522573	-0.012391
919.702769	-0.012554
919.882947	-0.012393
920.063106	-0.012255
920.243247	-0.012725
920.423370	-0.012754
920.603475	-0.013161
920.783562	-0.013195
920.963630	-0.013325
921.143680	-0.013858
921.323712	-0.014060
921.503725	-0.014611
921.683721	-0.014726
921.863698	-0.015025
922.043657	-0.015187
922.223598	-0.015470
922.403520	-0.015699
922.583424	-0.015908
922.763311	-0.016486
922.943178	-0.016821
923.123028	-0.017754
923.302859	-0.018135
923.482673	-0.017966
923.662467	-0.017945
923.842244	-0.018327
924.022003	-0.018216
924.201743	-0.018870
924.381465	-0.018873
924.561169	-0.019270
924.740854	-0.018762
924.920522	-0.019397
925.100171	-0.020082
925.279802	-0.020858
925.459414	-0.020971
925.639009	-0.021770
925.818585	-0.022085
925.998143	-0.022492
926.177683	-0.022708
926.357205	-0.023262
926.536708	-0.023276
926.716193	-0.023243
926.895660	-0.023630
927.075109	-0.023963
927.254539	-0.024335
927.433951	-0.024798
927.613345	-0.025054
927.792721	-0.025709
927.972079	-0.025932
928.151418	-0.026229
928.330739	-0.026649
928.510042	-0.026452
928.689327	-0.026844
928.868593	-0.027321
929.047841	-0.027694
929.227071	-0.028612
929.406283	-0.029011
929.585476	-0.029389
929.764652	-0.029839
929.943809	-0.030633
930.122948	-0.031483
930.302068	-0.031540
930.481171	-0.031674
930.660255	-0.031447
930.839321	-0.031598
931.018369	-0.031745
931.197398	-0.032347
931.376409	-0.032288
931.555402	-0.032137
931.734377	-0.032182
931.913334	-0.032765
932.092272	-0.033061
932.271192	-0.033725
932.450094	-0.033988
932.628978	-0.034675
932.807844	-0.034887
932.986691	-0.036140
933.165520	-0.036150
933.344331	-0.036513
933.523123	-0.036888
933.701898	-0.036623
933.880654	-0.036748
934.059392	-0.036251
934.238111	-0.036623
934.416813	-0.036872
934.595496	-0.036466
934.774161	-0.037550
934.952808	-0.037725
935.131437	-0.038168
935.310047	-0.039330
935.488639	-0.040084
935.667213	-0.040650
935.845769	-0.040793
936.024306	-0.041076
936.202825	-0.041831
936.381326	-0.042158
936.559809	-0.042810
936.738274	-0.042845
936.916720	-0.043140
937.095148	-0.043201
937.273558	-0.043778
937.451950	-0.043872
937.630323	-0.044440
937.808678	-0.044284
937.987015	-0.044037
938.165334	-0.044761
938.343635	-0.045485
938.521917	-0.046188
938.700181	-0.046499
938.878427	-0.047301
939.056655	-0.048272
939.234864	-0.048886
939.413055	-0.049079
939.591228	-0.050292
939.769383	-0.050429
939.947519	-0.050144
940.125638	-0.049446
940.303738	-0.050547
940.481820	-0.051012
940.659883	-0.051100
940.837929	-0.050882
941.015956	-0.051886
941.193965	-0.051928
941.371955	-0.052103
941.549928	-0.052994
941.727882	-0.054209
941.905818	-0.054058
942.083736	-0.053910
942.261636	-0.054231
942.439517	-0.054762
942.617380	-0.054786
942.795225	-0.054397
942.973052	-0.053763
943.150860	-0.054475
943.328651	-0.054495
943.506423	-0.054219
943.684176	-0.054904
943.861912	-0.054739
944.039629	-0.054505
944.217328	-0.055278
944.395009	-0.055770
944.572672	-0.056321
944.750317	-0.056008
944.927943	-0.056055
945.105551	-0.055672
945.283141	-0.054394
945.460712	-0.054302
945.638265	-0.054328
945.815801	-0.052789
945.993317	-0.052892
946.170816	-0.053170
946.348297	-0.053043
946.525759	-0.053234
946.703203	-0.054793
946.880629	-0.055475
947.058036	-0.055079
947.235425	-0.055086
947.412797	-0.057037
947.590149	-0.058550
947.767484	-0.059050
947.944800	-0.059406
948.122099	-0.059379
948.299379	-0.058207
948.476640	-0.058495
948.653884	-0.058865
948.831109	-0.058623
949.008316	-0.058307
949.185505	-0.056763
949.362676	-0.056929
949.539828	-0.056477
949.716962	-0.056130
949.894078	-0.056959
950.071176	-0.055238
950.248256	-0.056285
950.425317	-0.056332
950.602360	-0.054456
950.779385	-0.054071
950.956391	-0.053660
951.133380	-0.053984
951.310350	-0.052862
951.487302	-0.052701
951.664235	-0.053842
951.841151	-0.051366
952.018048	-0.050825
952.194927	-0.051938
952.371788	-0.051419
952.548631	-0.050939
952.725455	-0.048726
952.902261	-0.047788
953.079049	-0.045838
953.255819	-0.046443
953.432570	-0.048242
953.609303	-0.049121
953.786018	-0.047485
953.962715	-0.048721
954.139394	-0.047782
954.316054	-0.047351
954.492696	-0.047299
954.669320	-0.046955
954.845926	-0.045342
955.022513	-0.044227
955.199083	-0.042565
955.375634	-0.042217
955.552166	-0.039218
955.728681	-0.039690
955.905177	-0.040197
956.081655	-0.040293
956.258115	-0.040078
956.434557	-0.041205
956.610980	-0.040375
956.787385	-0.039594
956.963772	-0.040010
957.140141	-0.040045
957.316492	-0.039362
957.492824	-0.039515
957.669138	-0.036890
957.845434	-0.037371
958.021712	-0.034736
958.197971	-0.034796
958.374212	-0.034107
958.550435	-0.033066
958.726640	-0.032886
958.902826	-0.032040
959.078995	-0.030259
959.255145	-0.030888
959.431277	-0.029632
959.607390	-0.029511
959.783486	-0.027830
959.959563	-0.028392
960.135622	-0.026768
960.311662	-0.024121
960.487685	-0.023028
960.663689	-0.022031
960.839675	-0.021800
961.015643	-0.022421
961.191593	-0.021707
961.367524	-0.021814
961.543437	-0.019293
961.719332	-0.019394
961.895209	-0.019650
962.071067	-0.018470
962.246907	-0.018788
962.422730	-0.018484
962.598533	-0.016505
962.774319	-0.015718
962.950086	-0.012639
963.125835	-0.014763
963.301566	-0.013633
963.477279	-0.014805
963.652973	-0.015218
963.828650	-0.014498
964.004308	-0.014454
964.179947	-0.014473
964.355569	-0.015476
964.531172	-0.016145
964.706757	-0.015249
964.882324	-0.014075
965.057873	-0.013504
965.233403	-0.012277
965.408916	-0.011719
965.584410	-0.010450
965.759885	-0.010125
965.935343	-0.009059
966.110782	-0.008723
966.286203	-0.006191
966.461606	-0.006744
966.636991	-0.006335
966.812357	-0.006919
966.987705	-0.004141
967.163035	-0.003722
967.338347	-0.005386
967.513641	-0.003869
967.688916	-0.003606
967.864173	-0.005950
968.039412	-0.005790
968.214632	-0.005532
968.389835	-0.003505
968.565019	-0.006668
968.740185	-0.007871
968.915333	-0.006732
969.090462	-0.006953
969.265573	-0.007540
969.440667	-0.007691
969.615741	-0.007336
969.790798	-0.005260
969.965836	-0.007145
970.140856	-0.005510
970.315858	-0.004807
970.490842	-0.004047
970.665808	-0.003632
970.840755	-0.003096
971.015684	-0.001993
971.190595	-0.003684
971.365487	-0.005466
971.540362	-0.004429
971.715218	-0.004777
971.890056	-0.004285
972.064875	-0.004364
972.239677	-0.006788
972.414460	-0.004904
972.589225	-0.003341
972.763972	-0.001615
972.938700	-0.002637
973.113411	-0.002435
973.288103	-0.003635
973.462777	-0.005355
973.637432	-0.003546
973.812070	-0.003282
973.986689	-0.005407
974.161290	-0.004877
974.335873	-0.005607
974.510437	-0.002667
974.684984	-0.003199
974.859512	-0.002773
975.034022	0.000018
975.208513	-0.001030
975.382987	0.000118
975.557442	0.001127
975.731879	-0.000830
975.906298	-0.001523
976.080698	-0.003286
976.255080	-0.003029
976.429445	-0.003259
976.603790	-0.004270
976.778118	-0.002828
976.952427	-0.001019
977.126719	-0.003106
977.300992	-0.003431
977.475246	-0.001254
977.649483	0.000967
977.823701	0.003133
977.997901	0.003967
978.172083	0.003381
978.346247	0.004051
978.520392	0.003628
978.694519	0.003587
978.868628	0.003753
979.042719	0.002947
979.216791	0.001415
979.390845	-0.001068
979.564882	-0.000979
979.738899	0.000740
979.912899	-0.000892
980.086880	-0.002525
980.260843	-0.000726
980.434788	0.000641
980.608715	0.002552
980.782623	0.002384
980.956514	0.001093
981.130386	0.000031
981.304240	-0.000702
981.478075	-0.001335
981.651892	0.001859
981.825692	0.002051
981.999472	0.000139
982.173235	-0.001444
982.346980	-0.001896
982.520706	0.001308
982.694414	0.001334
982.868104	-0.000051
983.041775	0.000020
983.215428	-0.002415
983.389064	-0.000966
983.562680	0.001778
983.736279	0.001684
983.909860	0.003138
984.083422	0.003074
984.256966	0.005178
984.430491	0.006785
984.603999	0.007681
984.777488	0.007025
984.950959	0.006036
985.124412	0.003766
985.297847	0.003624
985.471263	0.002299
985.644661	0.002578
985.818041	0.003345
985.991403	0.003901
986.164747	0.005177
986.338072	0.005393
986.511379	0.003709
986.684668	0.006246
986.857938	0.006000
987.031191	0.006852
987.204425	0.005785
987.377641	0.006307
987.550839	0.005940
987.724018	0.004353
987.897179	0.005588
988.070322	0.007055
988.243447	0.006341
988.416554	0.006505
988.589642	0.005704
988.762712	0.006327
988.935764	0.004209
989.108798	0.003615
989.281813	0.004776
989.454811	0.004253
989.627790	0.003999
989.800751	0.004318
989.973693	0.005037
990.146617	0.005766
990.319524	0.006572
990.492412	0.006363
990.665281	0.006597
990.838133	0.005818
991.010966	0.006470
991.183781	0.007544
991.356578	0.007202
991.529356	0.006325
991.702117	0.006452
991.874859	0.006833
992.047583	0.007956
992.220288	0.007689
992.392976	0.008621
992.565645	0.009467
992.738296	0.008371
992.910929	0.009821
993.083543	0.010985
993.256139	0.011496
993.428718	0.010181
993.601277	0.009127
993.773819	0.009083
993.946342	0.007613
994.118848	0.007285
994.291335	0.006436
994.463803	0.003638
994.636254	0.002574
994.808686	0.001126
994.981100	0.002134
995.153496	0.003752
995.325874	0.004213
995.498233	0.004183
995.670574	0.001120
995.842897	0.003652
996.015202	0.005828
996.187488	0.008409
996.359757	0.009445
996.532007	0.009449
996.704239	0.009445
996.876452	0.009168
997.048648	0.010782
997.220825	0.013847
997.392984	0.011964
997.565124	0.010742
997.737247	0.008933
997.909351	0.009527
998.081437	0.008425
998.253505	0.008230
998.425554	0.009047
998.597586	0.009553
998.769599	0.009297
998.941594	0.008644
999.113571	0.008165
999.285529	0.007644
999.457469	0.007328
999.629391	0.006859
999.801295	0.005356
999.973181	0.005489
1000.145048	0.003755
1000.316897	0.003637
1000.488728	0.004759
1000.660541	0.006658
1000.832335	0.008394
1001.004111	0.008245
1001.175869	0.009846
1001.347609	0.010648
1001.519331	0.010239
1001.691034	0.011039
1001.862719	0.011524
1002.034386	0.011349
1002.206035	0.008265
1002.377665	0.008799
1002.549277	0.008293
1002.720871	0.007423
1002.892447	0.009000
1003.064004	0.007782
1003.235544	0.007906
1003.407065	0.007635
1003.578568	0.007398
1003.750052	0.009898
1003.921519	0.008547
1004.092967	0.009184
1004.264397	0.008058
1004.435809	0.006872
1004.607202	0.008382
1004.778577	0.008484
1004.949934	0.006668
1005.121273	0.007124
1005.292594	0.005381
1005.463896	0.003584
1005.635180	0.003113
1005.806446	0.004452
1005.977694	0.004821
1006.148923	0.005872
1006.320135	0.005869
1006.491328	0.006730
1006.662503	0.005528
1006.833659	0.006372
1007.004798	0.009257
1007.175918	0.009724
1007.347020	0.009393
1007.518103	0.009665
1007.689169	0.009202
1007.860216	0.008559
1008.031245	0.010397
1008.202256	0.012034
1008.373248	0.011147
1008.544223	0.010148
1008.715179	0.010227
1008.886117	0.009900
1009.057036	0.008358
1009.227938	0.007629
1009.398821	0.010077
1009.569686	0.008843
1009.740533	0.008627
1009.911361	0.009706
1010.082172	0.009791
1010.252964	0.009425
1010.423738	0.011013
1010.594493	0.012407
1010.765231	0.012876
1010.935950	0.012207
1011.106651	0.013647
1011.277334	0.013888
1011.447998	0.013772
1011.618645	0.012954
1011.789273	0.012738
1011.959882	0.012137
1012.130474	0.010288
1012.301048	0.008364
1012.471603	0.008726
1012.642140	0.006246
1012.812658	0.006342
1012.983159	0.006135
1013.153641	0.007585
1013.324105	0.008139
1013.494551	0.007512
1013.664979	0.008576
1013.835388	0.010259
1014.005779	0.009566
1014.176152	0.009637
1014.346507	0.008448
1014.516843	0.009282
1014.687162	0.008597
1014.857462	0.009454
1015.027744	0.009914
1015.198007	0.010495
1015.368252	0.010884
1015.538480	0.009034
1015.708689	0.010478
1015.878879	0.010334
1016.049052	0.010555
1016.219206	0.011792
1016.389342	0.011127
1016.559460	0.011125
1016.729559	0.010487
1016.899641	0.010008
1017.069704	0.011223
1017.239749	0.011296
1017.409775	0.011070
1017.579784	0.011331
1017.749774	0.010560
1017.919746	0.010548
1018.089700	0.010371
1018.259635	0.009116
1018.429553	0.010081
1018.599452	0.010910
1018.769333	0.009955
1018.939195	0.011092
1019.109040	0.010563
1019.278866	0.010195
1019.448674	0.008878
1019.618464	0.009973
1019.788235	0.010756
1019.957989	0.009907
1020.127724	0.008449
1020.297441	0.009610
1020.467139	0.011833
1020.636820	0.012669
1020.806482	0.013218
1020.976126	0.013569
1021.145752	0.012205
1021.315359	0.013404
1021.484948	0.013331
1021.654519	0.013034
1021.824072	0.011345
1021.993607	0.009156
1022.163123	0.007713
1022.332621	0.006588
1022.502101	0.006214
1022.671563	0.005617
1022.841007	0.005020
1023.010432	0.005254
1023.179839	0.005726
1023.349228	0.006709
1023.518598	0.007153
1023.687951	0.007211
1023.857285	0.007200
1024.026601	0.007752
1024.195899	0.009935
1024.365178	0.010375
1024.534439	0.010958
1024.703682	0.012185
1024.872907	0.011966
1025.042114	0.010885
1025.211302	0.011540
1025.380472	0.012018
1025.549624	0.013066
1025.718758	0.010785
1025.887873	0.011017
1026.056970	0.010785
1026.226049	0.011041
1026.395110	0.012722
1026.564153	0.012747
1026.733177	0.012549
1026.902183	0.011786
1027.071171	0.011265
1027.240141	0.013646
1027.409092	0.013386
1027.578026	0.013920
1027.746940	0.012183
1027.915837	0.010457
1028.084716	0.010355
1028.253576	0.010188
1028.422418	0.013068
1028.591242	0.014369
1028.760048	0.013237
1028.928835	0.014888
1029.097604	0.013765
1029.266355	0.013472
1029.435088	0.014274
1029.603803	0.015629
1029.772499	0.014550
1029.941177	0.013455
1030.109837	0.012436
1030.278478	0.011912
1030.447102	0.011396
1030.615707	0.011401
1030.784294	0.011947
1030.952863	0.012861
1031.121413	0.012197
1031.289945	0.013734
1031.458460	0.012980
1031.626955	0.013388
1031.795433	0.012811
1031.963892	0.012304
1032.132334	0.012549
1032.300756	0.013688
1032.469161	0.010774
1032.637548	0.012247
1032.805916	0.011082
1032.974266	0.012025
1033.142598	0.012956
1033.310911	0.014003
1033.479207	0.013515
1033.647484	0.013329
1033.815743	0.013783
1033.983983	0.015498
1034.152206	0.014961
1034.320410	0.015984
1034.488596	0.016402
1034.656764	0.015632
1034.824914	0.015141
1034.993045	0.014822
1035.161158	0.014414
1035.329253	0.012504
1035.497330	0.012306
1035.665388	0.012376
1035.833428	0.011167
1036.001450	0.010840
1036.169454	0.011235
1036.337440	0.011491
1036.505407	0.010888
1036.673356	0.011278
1036.841287	0.011210
1037.009200	0.011808
1037.177094	0.011625
1037.344970	0.013232
1037.512828	0.012855
1037.680668	0.011995
1037.848489	0.012351
1038.016293	0.014956
1038.184078	0.014077
1038.351845	0.015380
1038.519593	0.014796
1038.687324	0.014097
1038.855036	0.013759
1039.022730	0.013114
1039.190406	0.012738
1039.358063	0.010868
1039.525702	0.009413
1039.693323	0.010390
1039.860926	0.009766
1040.028511	0.009542
1040.196077	0.010649
1040.363625	0.011700
1040.531155	0.010619
1040.698667	0.010642
1040.866161	0.012217
1041.033636	0.009713
1041.201093	0.009762
1041.368532	0.009490
1041.535952	0.010159
1041.703355	0.009488
1041.870739	0.008381
1042.038105	0.010029
1042.205452	0.010732
1042.372782	0.009785
1042.540093	0.013265
1042.707386	0.012265
1042.874661	0.012693
1043.041918	0.014167
1043.209156	0.012775
1043.376376	0.013644
1043.543578	0.013269
1043.710762	0.013445
1043.877927	0.012736
1044.045074	0.012086
1044.212203	0.012295
1044.379314	0.012318
1044.546407	0.010703
1044.713481	0.010791
1044.880537	0.010692
1045.047575	0.011083
1045.214595	0.011287
1045.381596	0.012000
1045.548579	0.011984
1045.715544	0.014340
1045.882491	0.013953
1046.049420	0.013941
1046.216330	0.014069
1046.383222	0.013731
1046.550096	0.012185
1046.716951	0.010847
1046.883789	0.012076
1047.050608	0.010953
1047.217409	0.008961
1047.384192	0.009744
1047.550956	0.010711
1047.717703	0.010013
1047.884431	0.009182
1048.051140	0.010185
1048.217832	0.009228
1048.384505	0.010386
1048.551161	0.011249
1048.717798	0.012677
1048.884416	0.012091
1049.051017	0.010084
1049.217599	0.011265
1049.384163	0.011964
1049.550709	0.012432
1049.717237	0.012624
1049.883746	0.012048
1050.050237	0.010281
1050.216710	0.010140
1050.383165	0.009911
1050.549601	0.011390
1050.716019	0.011267
1050.882420	0.009267
1051.048801	0.008310
1051.215165	0.009299
1051.381510	0.008532
1051.547837	0.011568
1051.714146	0.010928
1051.880437	0.011394
1052.046709	0.010919
1052.212964	0.011431
1052.379200	0.011951
1052.545417	0.013587
1052.711617	0.012987
1052.877798	0.011937
1053.043961	0.008958
1053.210106	0.007789
1053.376233	0.009306
1053.542341	0.009762
1053.708432	0.009992
1053.874504	0.011101
1054.040557	0.010425
1054.206593	0.013058
1054.372610	0.013844
1054.538609	0.014944
1054.704590	0.014960
1054.870553	0.011626
1055.036497	0.010631
1055.202424	0.011314
1055.368331	0.011021
1055.534221	0.009524
1055.700093	0.007102
1055.865946	0.008266
1056.031781	0.009082
1056.197598	0.010296
1056.363397	0.010065
1056.529177	0.010256
1056.694939	0.009373
1056.860683	0.010366
1057.026409	0.010800
1057.192116	0.011646
1057.357806	0.010184
1057.523477	0.010806
1057.689130	0.009017
1057.854764	0.010191
1058.020381	0.009424
1058.185979	0.007762
1058.351559	0.008521
1058.517120	0.008013
1058.682664	0.007575
1058.848189	0.007200
1059.013696	0.006007
1059.179185	0.005888
1059.344656	0.004236
1059.510108	0.006121
1059.675542	0.006460
1059.840958	0.004061
1060.006356	0.005246
1060.171735	0.004478
1060.337096	0.004932
1060.502439	0.005079
1060.667764	0.006719
1060.833071	0.007839
1060.998359	0.006440
1061.163629	0.007100
1061.328881	0.007687
1061.494115	0.007371
1061.659330	0.007790
1061.824527	0.009517
1061.989706	0.009044
1062.154867	0.007275
1062.320010	0.008978
1062.485134	0.008793
1062.650240	0.008520
1062.815328	0.007372
1062.980398	0.007834
1063.145449	0.009474
1063.310482	0.007015
1063.475497	0.007119
1063.640494	0.008530
1063.805473	0.008739
1063.970433	0.011101
1064.135375	0.012490
1064.300299	0.014627
1064.465204	0.013071
1064.630092	0.011264
1064.794961	0.011551
1064.959812	0.011979
1065.124645	0.011988
1065.289459	0.009940
1065.454256	0.008016
1065.619034	0.006273
1065.783793	0.003318
1065.948535	0.004377
1066.113258	0.004787
1066.277964	0.004805
1066.442651	0.003230
1066.607319	0.000779
1066.771970	-0.001225
1066.936602	-0.000816
1067.101216	-0.001296
1067.265812	0.000167
1067.430389	-0.000859
1067.594949	-0.000438
1067.759490	-0.001211
1067.924013	-0.000716
1068.088518	0.001752
1068.253004	0.006162
1068.417472	0.003843
1068.581922	0.003851
1068.746354	0.004090
1068.910768	0.003033
1069.075163	0.002522
1069.239540	0.004923
1069.403899	0.005440
1069.568240	0.004174
1069.732562	0.001500
1069.896866	0.002910
1070.061152	0.005698
1070.225420	0.006119
1070.389670	0.008056
1070.553901	0.006686
1070.718114	0.005279
1070.882309	0.004619
1071.046486	0.006178
1071.210644	0.006097
1071.374784	0.007369
1071.538906	0.003265
1071.703010	0.002300
1071.867096	0.002944
1072.031163	0.001670
1072.195212	0.000868
1072.359243	0.000656
1072.523256	-0.000628
1072.687250	-0.000792
1072.851226	-0.002121
1073.015184	0.001355
1073.179124	0.001058
1073.343045	0.000637
1073.506949	0.003851
1073.670834	0.003531
1073.834701	0.004702
1073.998549	0.005306
1074.162380	0.006385
1074.326192	0.006324
1074.489986	0.006795
1074.653761	0.007937
1074.817519	0.006966
1074.981258	0.005360
1075.144979	0.006721
1075.308682	0.004903
1075.472367	0.004619
1075.636033	0.004595
1075.799681	0.005142
1075.963311	0.003885
1076.126923	0.004067
1076.290516	0.005568
1076.454092	0.007042
1076.617649	0.007776
1076.781187	0.008194
1076.944708	0.007179
1077.108210	0.007069
1077.271695	0.005443
1077.435160	0.005280
1077.598608	0.004096
1077.762038	0.001463
1077.925449	-0.000600
1078.088842	-0.002244
1078.252217	-0.003453
1078.415573	-0.002480
1078.578912	-0.001761
1078.742232	0.000305
1078.905534	0.001085
1079.068817	0.001693
1079.232083	-0.000006
1079.395330	0.001740
1079.558559	0.000092
1079.721770	-0.000239
1079.884962	-0.000915
1080.048136	-0.000755
1080.211293	-0.000400
1080.374430	-0.002251
1080.537550	-0.002357
1080.700651	0.001263
1080.863735	0.000623
1081.026800	0.003843
1081.189846	0.005004
1081.352875	0.004968
1081.515885	0.003836
1081.678877	0.001831
1081.841851	0.001955
1082.004807	0.003283
1082.167744	0.003700
1082.330663	0.003046
1082.493564	0.001927
1082.656447	0.002823
1082.819312	0.002191
1082.982158	0.002946
1083.144986	0.001244
1083.307796	-0.000245
1083.470587	-0.002852
1083.633361	-0.004150
1083.796116	-0.004975
1083.958853	-0.005399
1084.121571	-0.006353
1084.284272	-0.005761
1084.446954	-0.007464
1084.609618	-0.003433
1084.772264	-0.001194
1084.934892	-0.002110
1085.097501	-0.001542
1085.260092	0.000854
1085.422665	0.001729
1085.585220	0.001174
1085.747756	0.002349
1085.910274	0.004352
1086.072774	0.002453
1086.235256	0.000947
1086.397720	0.002996
1086.560165	0.002370
1086.722592	0.002421
1086.885001	0.001341
1087.047392	0.004745
1087.209764	0.003105
1087.372119	0.001495
1087.534455	0.001036
1087.696772	0.000704
1087.859072	0.001720
1088.021353	0.001052
1088.183616	-0.002071
1088.345861	-0.003765
1088.508088	-0.009794
1088.670296	-0.007811
1088.832486	-0.007227
1088.994658	-0.009049
1089.156812	-0.008571
1089.318948	-0.010965
1089.481065	-0.009042
1089.643164	-0.007549
1089.805245	-0.005851
1089.967308	-0.001288
1090.129352	-0.004024
1090.291378	-0.005591
1090.453386	-0.005130
1090.615376	-0.002986
1090.777347	-0.001389
1090.939301	-0.003240
1091.101236	-0.003013
1091.263153	-0.003099
1091.425051	-0.002263
1091.586932	-0.001001
1091.748794	0.001173
1091.910638	0.001209
1092.072463	-0.002445
1092.234271	-0.004182
1092.396060	-0.004994
1092.557831	-0.003793
1092.719584	-0.002463
1092.881319	-0.003895
1093.043035	-0.005289
1093.204733	-0.003478
1093.366413	-0.001914
1093.528075	0.000977
1093.689718	0.001668
1093.851343	0.002830
1094.012950	0.001169
1094.174539	0.001039
1094.336110	0.001601
1094.497662	0.003430
1094.659196	0.000503
1094.820712	-0.002098
1094.982210	-0.004510
1095.143689	-0.003369
1095.305151	-0.003690
1095.466594	-0.005101
1095.628018	-0.006508
1095.789425	-0.006297
1095.950813	-0.009972
1096.112183	-0.009379
1096.273535	-0.005962
1096.434869	-0.002427
1096.596184	-0.002674
1096.757482	-0.002368
1096.918761	0.003794
1097.080021	0.004773
1097.241264	0.005498
1097.402488	0.009314
1097.563694	0.009596
1097.724882	0.008373
1097.886052	0.007005
1098.047203	0.009303
1098.208336	0.008878
1098.369451	0.002332
1098.530548	-0.000677
1098.691627	-0.001133
1098.852687	-0.002552
1099.013729	-0.001054
1099.174753	-0.000561
1099.335758	-0.002751
1099.496746	-0.004521
1099.657715	-0.006009
1099.818666	-0.004873
1099.979599	-0.002097
1100.140513	-0.004946
1100.301409	-0.004241
1100.462287	-0.008145
1100.623147	-0.008790
1100.783989	-0.007415
1100.944812	-0.010811
1101.105617	-0.010253
1101.266404	-0.006186
1101.427173	-0.008575
1101.587923	-0.008194
1101.748656	-0.008167
1101.909370	-0.005320
1102.070066	-0.006486
1102.230743	-0.006994
1102.391403	-0.004859
1102.552044	-0.003117
1102.712667	-0.007728
1102.873271	-0.009104
1103.033858	-0.007566
1103.194426	-0.005259
1103.354976	-0.008474
1103.515508	-0.005489
1103.676021	-0.005642
1103.836517	-0.006657
1103.996994	-0.010420
1104.157453	-0.008354
1104.317893	-0.003150
1104.478316	-0.005635
1104.638720	-0.009292
1104.799106	-0.008201
1104.959474	-0.012858
1105.119823	-0.014619
1105.280155	-0.014455
1105.440468	-0.009411
1105.600763	-0.013686
1105.761039	-0.016351
1105.921298	-0.012782
1106.081538	-0.008961
1106.241760	-0.007550
1106.401964	-0.000611
1106.562149	0.001727
1106.722316	0.004802
1106.882465	0.002983
1107.042596	0.006219
1107.202709	0.005257
1107.362803	0.004765
1107.522879	0.001587
1107.682937	-0.000576
1107.842977	-0.003520
1108.002999	-0.004729
1108.163002	-0.004176
1108.322987	-0.006501
1108.482954	-0.007118
1108.642902	-0.006687
1108.802833	-0.005860
1108.962745	-0.005069
1109.122639	-0.003411
1109.282515	-0.001562
1109.442372	0.002154
1109.602211	-0.002806
1109.762032	-0.000732
1109.921835	0.002276
1110.081620	0.003372
1110.241386	0.002076
1110.401134	0.000376
1110.560864	0.003796
1110.720576	-0.001187
1110.880269	-0.005473
1111.039945	-0.002768
1111.199602	-0.003410
1111.359240	-0.003211
1111.518861	-0.000171
1111.678463	-0.002285
1111.838047	0.001255
1111.997613	-0.005053
1112.157161	-0.004255
1112.316690	-0.004587
1112.476202	-0.006625
1112.635695	-0.003791
1112.795169	-0.005441
1112.954626	-0.006968
1113.114064	-0.003321
1113.273484	-0.008552
1113.432886	-0.001888
1113.592270	-0.000267
1113.751635	-0.002324
1113.910983	-0.006849
1114.070312	-0.009539
1114.229622	-0.011798
1114.388915	-0.015422
1114.548189	-0.020636
1114.707445	-0.020861
1114.866683	-0.025758
1115.025903	-0.028564
1115.185104	-0.025174
1115.344287	-0.016609
1115.503452	-0.017201
1115.662599	-0.018895
1115.821727	-0.016770
1115.980838	-0.015329
1116.139930	-0.009957
1116.299004	-0.006601
1116.458059	-0.007971
1116.617097	-0.010009
1116.776116	-0.016367
1116.935117	-0.014047
1117.094099	-0.013993
1117.253064	-0.014441
1117.412010	-0.015626
1117.570938	-0.018917
1117.729848	-0.026246
1117.888740	-0.019217
1118.047613	-0.022837
1118.206468	-0.017798
1118.365305	-0.015686
1118.524124	-0.009573
1118.682924	-0.012059
1118.841707	-0.010480
1119.000471	-0.008421
1119.159216	-0.003288
1119.317944	-0.004672
1119.476653	0.004937
1119.635344	0.003480
1119.794017	0.001285
1119.952672	0.001269
1120.111308	0.004966
1120.269927	0.003280
1120.428527	0.000099
1120.587108	0.001818
1120.745672	0.002739
1120.904217	-0.002776
1121.062744	-0.007337
1121.221253	-0.009514
1121.379744	-0.013952
1121.538216	-0.015111
1121.696671	-0.012520
1121.855107	-0.009110
1122.013524	-0.014359
1122.171924	-0.020599
1122.330305	-0.018344
1122.488668	-0.015042
1122.647013	-0.011167
1122.805340	-0.012038
1122.963648	-0.012167
1123.121938	-0.011558
1123.280210	-0.014279
1123.438464	-0.010100
1123.596700	-0.007100
1123.754917	-0.004846
1123.913116	-0.006236
1124.071297	-0.008949
1124.229459	-0.006000
1124.387604	-0.004597
1124.545730	-0.004109
1124.703838	-0.005344
1124.861928	-0.007597
1125.019999	-0.001418
1125.178052	-0.003503
1125.336088	-0.002056
1125.494104	0.002221
1125.652103	-0.001755
1125.810083	-0.003798
1125.968045	-0.005650
1126.125989	0.000308
1126.283915	-0.001037
1126.441823	-0.010709
1126.599712	-0.009248
1126.757583	-0.009425
1126.915436	-0.015563
1127.073270	-0.014262
1127.231087	-0.009999
1127.388885	-0.012103
1127.546665	-0.013693
1127.704426	-0.015579
1127.862170	-0.011143
1128.019895	-0.016465
1128.177602	-0.011364
1128.335291	-0.009706
1128.492961	-0.007296
1128.650614	-0.011415
1128.808248	-0.007114
1128.965864	-0.010945
1129.123461	-0.003611
1129.281041	0.003896
1129.438602	0.006741
1129.596145	-0.002713
1129.753670	-0.007931
1129.911176	-0.009184
1130.068665	-0.012183
1130.226135	-0.009317
1130.383587	-0.005617
1130.541020	-0.004832
1130.698436	-0.011607
1130.855833	-0.009776
1131.013212	-0.007920
1131.170573	-0.010222
1131.327915	-0.006201
1131.485239	-0.002449
1131.642545	-0.006124
1131.799833	-0.008655
1131.957103	-0.012748
1132.114354	-0.013111
1132.271588	-0.013933
1132.428803	-0.011597
1132.585999	-0.010729
1132.743178	-0.014320
1132.900338	-0.011390
1133.057480	-0.007197
1133.214604	-0.004550
1133.371710	0.001197
1133.528797	0.000106
1133.685866	-0.000287
1133.842917	-0.003650
1133.999950	-0.001412
1134.156964	-0.001736
1134.313960	-0.006369
1134.470938	-0.007947
1134.627898	-0.005044
1134.784840	-0.007170
1134.941763	-0.009842
1135.098668	-0.010674
1135.255555	-0.009756
1135.412424	-0.007645
1135.569274	-0.006410
1135.726107	0.001675
1135.882921	-0.004685
1136.039716	-0.010882
1136.196494	-0.017276
1136.353253	-0.010942
1136.509995	-0.012839
1136.666717	-0.010858
1136.823422	-0.009036
1136.980109	-0.012274
1137.136777	-0.018285
1137.293427	-0.017138
1137.450059	-0.017020
1137.606672	-0.012209
1137.763267	-0.014662
1137.919844	-0.005933
1138.076403	-0.006028
1138.232944	-0.000246
1138.389466	0.001116
1138.545971	0.001690
1138.702457	0.007188
1138.858924	0.012192
1139.015374	0.014258
1139.171805	0.014798
1139.328218	0.005954
1139.484613	0.002685
1139.640990	-0.002786
1139.797348	-0.006452
1139.953688	-0.005111
1140.110010	-0.012242
1140.266314	-0.016758
1140.422600	-0.022860
1140.578867	-0.030190
1140.735116	-0.030989
1140.891347	-0.031322
1141.047559	-0.029293
1141.203754	-0.021507
1141.359930	-0.018940
1141.516088	-0.015520
1141.672228	-0.016770
1141.828349	-0.016274
1141.984452	-0.014224
1142.140537	-0.015480
1142.296604	-0.011115
1142.452653	-0.021515
1142.608683	-0.032047
1142.764695	-0.041394
1142.920689	-0.045552
1143.076665	-0.039042
1143.232622	-0.038646
1143.388562	-0.038576
1143.544483	-0.035414
1143.700385	-0.036405
1143.856270	-0.032300
1144.012136	-0.030107
1144.167985	-0.029778
1144.323814	-0.031156
1144.479626	-0.036679
1144.635420	-0.036504
1144.791195	-0.029150
1144.946952	-0.027548
1145.102691	-0.026271
1145.258411	-0.020356
1145.414113	-0.013535
1145.569798	-0.013622
1145.725463	-0.005738
1145.881111	-0.006992
1146.036741	-0.006970
1146.192352	-0.006930
1146.347945	-0.002537
1146.503519	-0.002020
1146.659076	-0.006146
1146.814614	-0.007520
1146.970134	-0.001973
1147.125636	-0.006092
1147.281120	-0.013475
1147.436585	-0.020279
1147.592032	-0.025449
1147.747461	-0.032072
1147.902872	-0.039366
1148.058265	-0.040714
1148.213639	-0.037117
1148.368995	-0.041506
1148.524333	-0.036818
1148.679653	-0.031793
1148.834954	-0.018517
1148.990237	-0.020420
1149.145502	-0.022845
1149.300749	-0.010073
1149.455977	-0.010429
1149.611188	-0.014405
1149.766380	-0.008480
1149.921553	-0.012809
1150.076709	-0.001456
1150.231846	-0.005841
1150.386966	-0.001490
1150.542066	0.006127
1150.697149	0.001215
1150.852214	0.013174
1151.007260	0.013066
1151.162288	0.016247
1151.317298	0.010484
1151.472289	0.008715
1151.627263	0.010521
1151.782218	0.013359
1151.937155	0.007444
1152.092073	0.009371
1152.246974	0.001279
1152.401856	0.000395
1152.556720	-0.008989
1152.711566	-0.008158
1152.866393	-0.017211
1153.021203	-0.026324
1153.175994	-0.028088
1153.330767	-0.025740
1153.485521	-0.029711
1153.640258	-0.032801
1153.794976	-0.030489
1153.949676	-0.024407
1154.104358	-0.026827
1154.259021	-0.020993
1154.413667	-0.010897
1154.568294	-0.007372
1154.722903	-0.005886
1154.877493	-0.010792
1155.032066	-0.012638
1155.186620	-0.013482
1155.341156	-0.023360
1155.495674	-0.018764
1155.650173	-0.020950
1155.804654	-0.021243
1155.959118	-0.019327
1156.113562	-0.017077
1156.267989	-0.012064
1156.422397	-0.000681
1156.576788	0.005467
1156.731160	0.010526
1156.885513	0.019322
1157.039849	0.022617
1157.194166	0.019967
1157.348465	0.017791
1157.502746	0.007509
1157.657009	0.012258
1157.811253	0.005846
1157.965479	-0.010618
1158.119687	-0.012404
1158.273877	-0.018793
1158.428048	-0.023822
1158.582201	-0.028539
1158.736337	-0.036079
1158.890453	-0.027478
1159.044552	-0.028755
1159.198632	-0.029070
1159.352694	-0.018395
1159.506738	-0.012736
1159.660764	-0.014282
1159.814771	-0.017286
1159.968761	-0.018173
1160.122732	-0.009811
1160.276685	-0.014279
1160.430619	-0.019298
1160.584535	-0.019081
1160.738434	-0.023385
1160.892313	-0.023379
1161.046175	-0.017170
1161.200019	-0.008328
1161.353844	0.001077
1161.507651	-0.004052
1161.661440	-0.000008
1161.815210	-0.008168
1161.968962	-0.005258
1162.122697	-0.010745
1162.276412	-0.020318
1162.430110	-0.031203
1162.583789	-0.033100
1162.737451	-0.044481
1162.891094	-0.051753
1163.044718	-0.042248
1163.198325	-0.035794
1163.351913	-0.042620
1163.505483	-0.041107
1163.659035	-0.028272
1163.812569	-0.020853
1163.966084	-0.033603
1164.119581	-0.022424
1164.273060	-0.007005
1164.426521	-0.024558
1164.579964	-0.029264
1164.733388	-0.020484
1164.886794	-0.021423
1165.040182	-0.032414
1165.193551	-0.032982
1165.346903	-0.024838
1165.500236	-0.028990
1165.653551	-0.038408
1165.806848	-0.033592
1165.960126	-0.018518
1166.113386	-0.021379
1166.266628	-0.024248
1166.419852	-0.017621
1166.573058	-0.021021
1166.726245	-0.028766
1166.879414	-0.033321
1167.032565	-0.033505
1167.185698	-0.044474
1167.338812	-0.056860
1167.491909	-0.066596
1167.644987	-0.062828
1167.798046	-0.058713
1167.951088	-0.049712
1168.104111	-0.039238
1168.257117	-0.018739
1168.410103	-0.025995
1168.563072	-0.031786
1168.716023	-0.028870
1168.868955	-0.014975
1169.021869	-0.005184
1169.174765	0.000010
1169.327642	-0.015911
1169.480501	-0.029158
1169.633343	-0.061254
1169.786165	-0.047862
1169.938970	-0.040392
1170.091757	-0.046007
1170.244525	-0.048147
1170.397275	-0.053319
1170.550007	-0.067146
1170.702720	-0.060915
1170.855415	-0.031915
1171.008092	-0.029725
1171.160751	-0.050324
1171.313392	-0.052006
1171.466014	0.173083
1171.618619	-0.119290
1171.771205	-0.119290
1171.923772	-0.119290
