sample name	sample
index	562
start time	 03-16-2021  02:24:42 PM


Wavelength (nm)	Absorbance
494.344910	-0.005386
494.563924	-0.005386
494.782919	-0.005386
495.001897	0.035586
495.220856	-0.035360
495.439797	-0.059691
495.658719	-0.065179
495.877624	-0.074136
496.096510	-0.077237
496.315378	-0.074023
496.534227	-0.088535
496.753059	-0.100303
496.971872	-0.095935
497.190667	-0.021814
497.409444	0.008294
497.628203	0.014169
497.846943	0.022407
498.065665	0.022552
498.284369	0.022612
498.503055	0.023239
498.721723	0.024592
498.940372	0.026693
499.159003	0.026746
499.377616	0.027750
499.596210	0.029576
499.814787	0.027721
500.033345	0.028688
500.251885	0.028122
500.470406	0.030300
500.688910	0.031101
500.907395	0.030338
501.125862	0.031114
501.344311	0.030185
501.562742	0.028784
501.781154	0.029923
501.999548	0.030427
502.217924	0.031658
502.436282	0.030411
502.654621	0.029366
502.872942	0.029595
503.091245	0.028925
503.309530	0.029412
503.527797	0.030078
503.746045	0.028853
503.964275	0.027429
504.182487	0.027558
504.400681	0.027271
504.618856	0.027637
504.837013	0.028248
505.055152	0.029158
505.273273	0.029192
505.491376	0.029364
505.709460	0.030676
505.927526	0.031637
506.145574	0.032071
506.363604	0.032245
506.581615	0.032568
506.799608	0.031650
507.017583	0.030908
507.235540	0.030821
507.453478	0.030429
507.671399	0.030599
507.889301	0.030927
508.107185	0.030623
508.325050	0.030353
508.542898	0.032403
508.760727	0.032883
508.978538	0.033451
509.196330	0.033252
509.414105	0.033275
509.631861	0.033010
509.849599	0.032200
510.067319	0.031748
510.285021	0.032439
510.502704	0.030877
510.720369	0.029704
510.938016	0.029570
511.155645	0.029348
511.373255	0.029678
511.590848	0.030107
511.808422	0.029873
512.025977	0.030252
512.243515	0.030196
512.461034	0.029218
512.678536	0.030059
512.896018	0.029237
513.113483	0.029997
513.330930	0.029566
513.548358	0.028775
513.765768	0.030393
513.983160	0.030606
514.200533	0.030062
514.417889	0.030851
514.635226	0.031282
514.852545	0.032027
515.069845	0.032093
515.287128	0.031656
515.504392	0.032220
515.721638	0.031849
515.938866	0.032063
516.156075	0.033030
516.373267	0.033052
516.590440	0.032587
516.807594	0.032097
517.024731	0.031129
517.241850	0.032057
517.458950	0.031421
517.676032	0.030682
517.893095	0.030340
518.110141	0.030248
518.327168	0.030135
518.544177	0.030699
518.761168	0.031242
518.978141	0.031478
519.195095	0.031040
519.412031	0.031234
519.628949	0.031473
519.845849	0.031797
520.062731	0.031827
520.279594	0.032162
520.496439	0.031908
520.713266	0.031647
520.930074	0.031291
521.146865	0.031561
521.363637	0.032412
521.580391	0.032546
521.797127	0.032634
522.013844	0.032211
522.230543	0.032125
522.447224	0.032416
522.663887	0.033333
522.880532	0.034500
523.097158	0.033996
523.313766	0.033393
523.530356	0.033670
523.746928	0.033288
523.963481	0.033478
524.180017	0.033599
524.396534	0.033945
524.613032	0.033822
524.829513	0.033493
525.045975	0.034087
525.262420	0.034202
525.478845	0.034206
525.695253	0.034357
525.911643	0.034274
526.128014	0.034113
526.344367	0.033178
526.560702	0.032791
526.777018	0.032686
526.993316	0.032396
527.209597	0.031826
527.425858	0.031336
527.642102	0.031302
527.858328	0.031845
528.074535	0.031841
528.290724	0.032395
528.506894	0.033052
528.723047	0.033618
528.939181	0.034074
529.155297	0.034455
529.371395	0.034579
529.587475	0.034459
529.803536	0.034169
530.019579	0.034516
530.235604	0.034595
530.451611	0.034750
530.667600	0.034610
530.883570	0.034605
531.099522	0.034738
531.315456	0.034736
531.531372	0.035066
531.747269	0.034812
531.963148	0.035204
532.179009	0.035379
532.394852	0.034534
532.610676	0.034432
532.826482	0.034478
533.042271	0.034681
533.258040	0.034617
533.473792	0.034790
533.689525	0.034942
533.905240	0.034613
534.120937	0.034739
534.336616	0.035023
534.552277	0.035018
534.767919	0.035017
534.983543	0.035271
535.199149	0.035567
535.414736	0.035963
535.630306	0.036017
535.845857	0.036004
536.061390	0.036392
536.276904	0.036018
536.492401	0.035942
536.707879	0.036063
536.923339	0.035483
537.138781	0.035271
537.354204	0.034923
537.569610	0.035328
537.784997	0.035354
538.000366	0.035143
538.215716	0.035701
538.431049	0.035762
538.646363	0.035938
538.861659	0.036205
539.076937	0.037005
539.292196	0.037353
539.507438	0.037259
539.722661	0.037115
539.937866	0.036534
540.153052	0.037011
540.368221	0.036998
540.583371	0.037342
540.798503	0.037571
541.013617	0.037052
541.228712	0.036707
541.443789	0.036675
541.658848	0.037302
541.873889	0.037810
542.088912	0.037671
542.303916	0.037848
542.518902	0.037556
542.733870	0.037543
542.948820	0.037833
543.163752	0.037851
543.378665	0.037904
543.593560	0.036925
543.808437	0.036629
544.023295	0.036679
544.238136	0.036918
544.452958	0.036819
544.667762	0.037014
544.882548	0.037118
545.097315	0.037006
545.312064	0.036909
545.526795	0.037269
545.741508	0.037972
545.956203	0.037491
546.170879	0.037428
546.385537	0.037816
546.600177	0.037519
546.814799	0.037592
547.029402	0.038266
547.243988	0.038762
547.458555	0.039297
547.673103	0.038592
547.887634	0.038951
548.102146	0.038539
548.316640	0.038115
548.531116	0.038516
548.745574	0.038322
548.960013	0.038092
549.174435	0.038061
549.388838	0.037677
549.603222	0.038434
549.817589	0.038341
550.031937	0.038357
550.246267	0.038277
550.460579	0.038425
550.674873	0.038691
550.889148	0.038476
551.103405	0.038275
551.317644	0.039081
551.531865	0.039330
551.746068	0.039619
551.960252	0.039747
552.174418	0.039952
552.388566	0.039659
552.602696	0.039263
552.816807	0.039806
553.030900	0.040192
553.244975	0.040087
553.459032	0.039600
553.673070	0.039628
553.887091	0.040101
554.101093	0.040416
554.315077	0.040052
554.529042	0.040445
554.742990	0.040243
554.956919	0.040229
555.170830	0.039809
555.384722	0.039859
555.598597	0.039305
555.812453	0.039250
556.026291	0.038943
556.240111	0.039318
556.453913	0.039667
556.667696	0.039546
556.881461	0.039315
557.095208	0.039127
557.308937	0.039265
557.522647	0.039918
557.736339	0.039929
557.950013	0.040070
558.163669	0.039921
558.377307	0.039603
558.590926	0.039614
558.804527	0.039470
559.018110	0.039604
559.231675	0.038992
559.445221	0.039263
559.658749	0.039000
559.872259	0.039042
560.085751	0.039497
560.299225	0.039394
560.512680	0.039340
560.726117	0.039296
560.939536	0.039147
561.152937	0.039876
561.366319	0.039410
561.579683	0.039625
561.793029	0.039632
562.006357	0.039747
562.219667	0.039694
562.432958	0.039834
562.646231	0.039929
562.859486	0.040261
563.072723	0.040306
563.285941	0.040231
563.499141	0.040429
563.712323	0.040696
563.925487	0.040523
564.138632	0.040659
564.351760	0.040577
564.564869	0.040896
564.777960	0.041308
564.991032	0.041236
565.204087	0.041400
565.417123	0.041630
565.630141	0.041434
565.843140	0.041640
566.056122	0.041792
566.269085	0.041706
566.482030	0.041619
566.694957	0.041288
566.907866	0.041041
567.120756	0.041006
567.333628	0.040718
567.546482	0.040774
567.759318	0.040618
567.972135	0.040328
568.184935	0.040711
568.397716	0.040836
568.610478	0.041017
568.823223	0.040972
569.035949	0.041057
569.248657	0.041406
569.461347	0.041376
569.674019	0.041402
569.886672	0.041787
570.099308	0.041511
570.311925	0.041365
570.524523	0.041586
570.737104	0.041906
570.949666	0.042000
571.162210	0.041413
571.374736	0.041423
571.587244	0.041631
571.799733	0.041834
572.012205	0.041888
572.224658	0.041795
572.437092	0.041430
572.649509	0.041236
572.861907	0.041436
573.074287	0.042094
573.286649	0.042225
573.498993	0.042037
573.711318	0.041990
573.923625	0.042337
574.135914	0.042543
574.348185	0.042406
574.560438	0.042370
574.772672	0.042285
574.984888	0.041606
575.197086	0.041990
575.409266	0.042136
575.621427	0.041644
575.833570	0.041735
576.045695	0.041750
576.257802	0.042060
576.469890	0.042532
576.681961	0.042467
576.894013	0.042864
577.106046	0.042754
577.318062	0.042904
577.530059	0.043049
577.742039	0.042833
577.954000	0.042901
578.165942	0.043222
578.377867	0.043138
578.589773	0.043332
578.801661	0.043349
579.013531	0.043382
579.225382	0.043577
579.437216	0.043704
579.649031	0.043782
579.860828	0.043691
580.072606	0.043184
580.284367	0.043202
580.496109	0.043061
580.707833	0.043218
580.919539	0.043226
581.131227	0.042731
581.342896	0.042746
581.554547	0.042965
581.766180	0.043435
581.977795	0.043461
582.189391	0.043340
582.400969	0.043301
582.612529	0.043231
582.824071	0.042850
583.035595	0.042950
583.247100	0.043238
583.458587	0.043012
583.670056	0.042630
583.881506	0.042964
584.092939	0.043324
584.304353	0.043561
584.515749	0.043468
584.727127	0.043964
584.938486	0.044206
585.149828	0.044166
585.361151	0.043984
585.572456	0.043825
585.783742	0.044067
585.995011	0.043875
586.206261	0.043404
586.417493	0.043655
586.628706	0.043261
586.839902	0.043353
587.051079	0.043433
587.262238	0.043848
587.473379	0.044181
587.684502	0.044132
587.895606	0.043895
588.106692	0.044467
588.317760	0.044349
588.528810	0.044743
588.739841	0.044522
588.950855	0.044246
589.161850	0.043798
589.372827	0.043827
589.583785	0.043784
589.794726	0.043796
590.005648	0.043586
590.216552	0.043928
590.427437	0.043800
590.638305	0.044008
590.849154	0.044459
591.059985	0.044951
591.270798	0.045008
591.481592	0.044845
591.692369	0.044917
591.903127	0.045259
592.113867	0.044959
592.324588	0.044794
592.535292	0.044616
592.745977	0.044429
592.956644	0.044330
593.167293	0.044489
593.377923	0.044382
593.588536	0.044546
593.799130	0.044483
594.009706	0.044396
594.220263	0.044737
594.430803	0.044698
594.641324	0.044727
594.851827	0.044795
595.062312	0.044730
595.272778	0.044637
595.483227	0.044812
595.693657	0.044854
595.904069	0.045011
596.114462	0.045335
596.324838	0.045727
596.535195	0.045790
596.745534	0.045575
596.955855	0.045377
597.166157	0.045689
597.376441	0.045745
597.586707	0.045501
597.796955	0.045395
598.007185	0.044966
598.217396	0.044939
598.427589	0.044998
598.637764	0.045056
598.847921	0.045319
599.058060	0.045284
599.268180	0.045517
599.478282	0.045917
599.688366	0.046413
599.898431	0.046381
600.108479	0.046251
600.318508	0.046345
600.528519	0.046360
600.738511	0.046006
600.948486	0.046232
601.158442	0.045836
601.368380	0.045513
601.578300	0.045177
601.788202	0.045184
601.998085	0.045237
602.207950	0.045149
602.417797	0.045456
602.627626	0.045980
602.837436	0.046103
603.047228	0.046142
603.257002	0.046280
603.466758	0.045946
603.676496	0.046091
603.886215	0.046267
604.095916	0.046222
604.305599	0.046084
604.515264	0.045855
604.724910	0.045764
604.934538	0.045906
605.144148	0.045942
605.353740	0.046529
605.563314	0.046359
605.772869	0.046108
605.982406	0.046264
606.191925	0.046304
606.401425	0.046661
606.610908	0.046639
606.820372	0.046529
607.029818	0.046664
607.239246	0.046638
607.448655	0.046708
607.658047	0.046656
607.867420	0.046458
608.076775	0.046351
608.286111	0.046168
608.495430	0.045990
608.704730	0.046195
608.914012	0.045848
609.123275	0.045898
609.332521	0.046068
609.541748	0.046540
609.750957	0.046692
609.960148	0.046800
610.169321	0.046577
610.378475	0.046999
610.587611	0.047006
610.796729	0.047037
611.005829	0.047062
611.214910	0.046982
611.423974	0.046620
611.633019	0.046905
611.842045	0.047101
612.051054	0.047280
612.260044	0.047198
612.469017	0.046992
612.677970	0.047364
612.886906	0.047319
613.095824	0.047470
613.304723	0.047721
613.513604	0.047317
613.722467	0.047221
613.931311	0.047181
614.140138	0.047081
614.348946	0.047374
614.557736	0.047075
614.766507	0.047037
614.975261	0.047067
615.183996	0.046987
615.392713	0.047250
615.601412	0.047465
615.810092	0.047560
616.018754	0.047824
616.227399	0.047649
616.436024	0.047940
616.644632	0.048334
616.853222	0.048609
617.061793	0.048663
617.270346	0.048780
617.478880	0.048925
617.687397	0.048985
617.895895	0.048808
618.104375	0.048642
618.312837	0.048388
618.521281	0.048049
618.729706	0.047934
618.938113	0.048096
619.146502	0.048004
619.354873	0.047862
619.563226	0.047883
619.771560	0.047990
619.979876	0.048216
620.188174	0.048401
620.396453	0.048605
620.604715	0.048388
620.812958	0.048296
621.021183	0.048544
621.229390	0.048223
621.437578	0.048205
621.645748	0.048198
621.853900	0.048318
622.062034	0.048391
622.270150	0.048480
622.478247	0.048566
622.686326	0.048690
622.894387	0.048313
623.102430	0.048703
623.310454	0.048868
623.518461	0.048961
623.726449	0.048887
623.934418	0.048816
624.142370	0.048466
624.350303	0.048692
624.558218	0.048386
624.766115	0.048540
624.973994	0.048368
625.181855	0.048274
625.389697	0.048279
625.597521	0.048340
625.805327	0.048527
626.013114	0.048719
626.220883	0.048563
626.428634	0.048510
626.636367	0.048674
626.844082	0.048616
627.051778	0.048532
627.259457	0.048453
627.467117	0.048665
627.674758	0.048546
627.882382	0.048672
628.089987	0.048740
628.297574	0.049026
628.505143	0.049082
628.712694	0.049360
628.920226	0.049331
629.127740	0.049283
629.335236	0.048966
629.542714	0.048853
629.750174	0.048825
629.957615	0.048648
630.165038	0.048881
630.372443	0.048650
630.579829	0.048563
630.787198	0.048874
630.994548	0.049183
631.201880	0.049381
631.409194	0.049743
631.616489	0.049681
631.823766	0.049798
632.031025	0.049631
632.238266	0.049758
632.445489	0.049489
632.652693	0.049563
632.859879	0.049459
633.067047	0.049521
633.274197	0.049511
633.481329	0.049718
633.688442	0.049694
633.895537	0.049786
634.102614	0.049783
634.309672	0.050174
634.516713	0.050090
634.723735	0.049963
634.930739	0.049858
635.137724	0.049860
635.344692	0.049645
635.551641	0.049476
635.758572	0.049470
635.965485	0.049412
636.172379	0.049317
636.379256	0.049474
636.586114	0.049517
636.792954	0.049649
636.999775	0.049757
637.206579	0.050024
637.413364	0.050351
637.620131	0.050265
637.826880	0.050267
638.033610	0.050244
638.240323	0.049944
638.447017	0.050090
638.653692	0.050350
638.860350	0.050271
639.066990	0.050544
639.273611	0.050464
639.480214	0.050772
639.686798	0.050859
639.893365	0.051006
640.099913	0.051160
640.306443	0.051271
640.512955	0.051216
640.719449	0.051337
640.925924	0.051043
641.132381	0.051353
641.338820	0.051206
641.545241	0.051603
641.751644	0.051629
641.958028	0.051659
642.164394	0.051774
642.370742	0.051811
642.577071	0.051800
642.783383	0.051769
642.989676	0.051848
643.195951	0.051929
643.402207	0.051755
643.608446	0.051866
643.814666	0.051811
644.020868	0.051502
644.227052	0.051560
644.433218	0.051491
644.639365	0.051500
644.845494	0.051615
645.051605	0.051616
645.257698	0.051596
645.463772	0.051624
645.669828	0.051815
645.875866	0.051792
646.081886	0.051771
646.287888	0.051870
646.493871	0.052060
646.699836	0.051995
646.905783	0.051931
647.111712	0.052002
647.317622	0.052061
647.523514	0.052132
647.729388	0.052372
647.935244	0.052409
648.141082	0.052234
648.346901	0.052153
648.552702	0.052161
648.758485	0.052333
648.964250	0.052543
649.169996	0.052666
649.375724	0.052664
649.581434	0.052691
649.787126	0.052802
649.992800	0.053168
650.198455	0.053319
650.404092	0.053322
650.609711	0.053245
650.815311	0.053028
651.020894	0.052961
651.226458	0.052957
651.432004	0.052970
651.637532	0.052885
651.843041	0.052812
652.048532	0.052911
652.254006	0.052899
652.459460	0.053058
652.664897	0.053228
652.870315	0.053184
653.075716	0.053210
653.281097	0.053310
653.486461	0.053337
653.691807	0.053178
653.897134	0.053195
654.102443	0.052931
654.307734	0.052866
654.513006	0.052821
654.718261	0.052813
654.923497	0.052895
655.128715	0.052878
655.333915	0.052842
655.539096	0.053160
655.744259	0.053102
655.949404	0.053604
656.154531	0.053830
656.359640	0.053987
656.564730	0.054212
656.769802	0.054378
656.974856	0.054704
657.179892	0.054915
657.384909	0.054851
657.589908	0.055094
657.794889	0.055029
657.999852	0.055110
658.204797	0.055272
658.409723	0.055191
658.614631	0.055134
658.819521	0.055117
659.024393	0.055018
659.229246	0.055252
659.434081	0.055303
659.638898	0.055195
659.843697	0.055197
660.048478	0.055053
660.253240	0.055181
660.457984	0.055148
660.662710	0.054930
660.867417	0.055024
661.072107	0.054796
661.276778	0.054696
661.481431	0.054900
661.686066	0.054777
661.890682	0.054823
662.095281	0.054880
662.299861	0.055198
662.504422	0.055224
662.708966	0.055319
662.913491	0.055588
663.117999	0.055481
663.322488	0.055260
663.526958	0.055244
663.731411	0.055090
663.935845	0.055209
664.140261	0.055082
664.344659	0.055091
664.549038	0.054965
664.753400	0.054806
664.957743	0.054982
665.162068	0.055323
665.366375	0.055646
665.570663	0.055956
665.774933	0.055880
665.979185	0.055847
666.183419	0.056075
666.387635	0.056120
666.591832	0.056166
666.796011	0.056374
667.000172	0.056294
667.204315	0.056196
667.408439	0.056164
667.612545	0.056126
667.816634	0.056197
668.020703	0.056123
668.224755	0.056235
668.428788	0.056707
668.632803	0.056429
668.836800	0.056355
669.040779	0.056424
669.244739	0.056482
669.448681	0.056680
669.652605	0.056850
669.856511	0.057010
670.060399	0.057137
670.264268	0.056893
670.468119	0.056904
670.671952	0.057210
670.875767	0.057184
671.079563	0.057070
671.283341	0.056954
671.487101	0.056791
671.690843	0.056559
671.894567	0.056491
672.098272	0.056449
672.301959	0.056669
672.505628	0.056474
672.709278	0.056463
672.912911	0.056731
673.116525	0.056855
673.320121	0.057052
673.523699	0.057355
673.727258	0.057360
673.930799	0.057512
674.134322	0.057551
674.337827	0.057820
674.541314	0.057892
674.744782	0.057917
674.948232	0.057890
675.151664	0.057890
675.355078	0.057965
675.558474	0.058345
675.761851	0.058386
675.965210	0.058358
676.168551	0.058140
676.371873	0.058244
676.575178	0.058377
676.778464	0.058649
676.981732	0.058790
677.184981	0.058886
677.388213	0.058660
677.591426	0.058721
677.794621	0.058959
677.997798	0.059238
678.200956	0.059211
678.404097	0.059158
678.607219	0.059026
678.810323	0.058957
679.013408	0.059130
679.216476	0.059438
679.419525	0.059363
679.622556	0.059286
679.825569	0.059320
680.028563	0.059412
680.231540	0.059474
680.434498	0.059499
680.637438	0.059550
680.840359	0.059270
681.043263	0.058999
681.246148	0.059021
681.449015	0.058942
681.651864	0.058852
681.854694	0.058959
682.057506	0.058878
682.260301	0.059177
682.463076	0.059028
682.665834	0.059014
682.868573	0.059160
683.071295	0.059217
683.273998	0.059277
683.476682	0.059406
683.679349	0.059264
683.881997	0.059283
684.084627	0.058997
684.287239	0.059412
684.489833	0.059519
684.692408	0.059554
684.894965	0.059605
685.097504	0.059625
685.300025	0.059581
685.502527	0.059661
685.705012	0.059557
685.907478	0.059733
686.109925	0.059621
686.312355	0.059773
686.514766	0.059766
686.717159	0.059880
686.919534	0.060136
687.121891	0.059898
687.324230	0.060042
687.526550	0.060198
687.728852	0.060083
687.931136	0.059973
688.133401	0.059870
688.335649	0.059847
688.537878	0.059872
688.740089	0.059855
688.942281	0.060362
689.144456	0.060404
689.346612	0.060516
689.548750	0.060654
689.750870	0.060815
689.952971	0.060922
690.155055	0.061045
690.357120	0.061129
690.559167	0.060904
690.761195	0.060695
690.963206	0.060641
691.165198	0.060654
691.367172	0.060662
691.569128	0.060783
691.771065	0.060817
691.972984	0.060723
692.174885	0.060663
692.376768	0.060997
692.578633	0.061164
692.780479	0.061434
692.982308	0.061461
693.184118	0.061465
693.385909	0.061268
693.587683	0.061136
693.789438	0.061433
693.991175	0.061302
694.192894	0.061278
694.394595	0.061019
694.596277	0.060866
694.797941	0.060920
694.999587	0.060818
695.201215	0.060813
695.402824	0.061036
695.604416	0.061001
695.805989	0.061135
696.007543	0.060958
696.209080	0.061254
696.410598	0.061154
696.612099	0.061186
696.813580	0.061553
697.015044	0.061613
697.216490	0.061550
697.417917	0.061705
697.619326	0.061959
697.820717	0.062333
698.022089	0.062517
698.223444	0.062723
698.424780	0.062812
698.626098	0.062832
698.827397	0.063098
699.028679	0.063218
699.229942	0.063055
699.431187	0.062994
699.632414	0.062904
699.833622	0.062598
700.034813	0.062540
700.235985	0.062533
700.437139	0.062322
700.638274	0.062264
700.839392	0.062088
701.040491	0.061894
701.241572	0.061677
701.442635	0.061560
701.643679	0.061868
701.844706	0.061996
702.045714	0.061998
702.246704	0.061879
702.447675	0.061881
702.648629	0.061872
702.849564	0.062013
703.050481	0.062159
703.251380	0.062116
703.452260	0.062057
703.653122	0.061927
703.853966	0.061879
704.054792	0.061878
704.255600	0.061771
704.456389	0.061969
704.657160	0.061908
704.857913	0.061714
705.058648	0.061732
705.259365	0.061618
705.460063	0.061612
705.660743	0.061802
705.861405	0.062049
706.062048	0.062117
706.262674	0.062085
706.463281	0.062035
706.663870	0.062192
706.864441	0.062257
707.064993	0.062179
707.265527	0.062112
707.466043	0.061882
707.666541	0.061802
707.867021	0.061887
708.067482	0.061926
708.267925	0.062183
708.468350	0.062224
708.668757	0.062176
708.869145	0.062332
709.069516	0.062387
709.269868	0.062442
709.470201	0.062500
709.670517	0.062378
709.870814	0.062437
710.071093	0.062140
710.271354	0.062176
710.471597	0.062274
710.671821	0.062224
710.872028	0.062216
711.072216	0.062369
711.272385	0.062518
711.472537	0.062447
711.672670	0.062229
711.872785	0.062362
712.072882	0.062401
712.272961	0.062399
712.473021	0.062412
712.673063	0.062489
712.873087	0.062388
713.073093	0.062238
713.273081	0.062330
713.473050	0.062425
713.673001	0.062445
713.872934	0.062271
714.072849	0.062352
714.272745	0.062235
714.472623	0.062052
714.672483	0.061892
714.872325	0.061951
715.072148	0.061817
715.271954	0.061662
715.471741	0.061497
715.671509	0.061389
715.871260	0.061139
716.070992	0.061423
716.270707	0.061468
716.470403	0.061395
716.670080	0.061260
716.869740	0.061190
717.069381	0.061341
717.269004	0.061477
717.468609	0.061567
717.668195	0.061464
717.867764	0.061083
718.067314	0.061055
718.266846	0.061166
718.466360	0.061154
718.665855	0.061406
718.865332	0.061317
719.064791	0.061279
719.264232	0.061347
719.463655	0.061346
719.663059	0.061483
719.862445	0.061457
720.061813	0.061403
720.261163	0.061174
720.460494	0.061018
720.659807	0.061173
720.859102	0.061282
721.058379	0.061166
721.257638	0.061304
721.456878	0.060997
721.656100	0.061127
721.855304	0.061101
722.054490	0.061144
722.253657	0.061073
722.452806	0.060746
722.651937	0.060462
722.851050	0.060319
723.050145	0.060149
723.249221	0.060346
723.448279	0.060100
723.647319	0.059871
723.846340	0.059717
724.045344	0.059508
724.244329	0.059349
724.443296	0.059421
724.642245	0.059417
724.841175	0.059515
725.040088	0.059519
725.238982	0.059535
725.437857	0.059623
725.636715	0.059598
725.835554	0.059819
726.034376	0.059801
726.233179	0.059782
726.431963	0.059930
726.630730	0.059884
726.829478	0.059668
727.028208	0.059625
727.226920	0.059690
727.425614	0.059823
727.624289	0.059499
727.822946	0.059466
728.021585	0.059332
728.220206	0.059166
728.418808	0.058831
728.617392	0.058974
728.815958	0.058950
729.014506	0.058708
729.213036	0.058620
729.411547	0.058851
729.610040	0.059181
729.808515	0.059291
730.006972	0.059319
730.205410	0.059365
730.403831	0.059039
730.602233	0.058897
730.800616	0.058980
730.998982	0.059106
731.197329	0.058918
731.395658	0.058783
731.593969	0.058866
731.792262	0.058760
731.990536	0.058741
732.188793	0.058949
732.387031	0.059118
732.585250	0.059102
732.783452	0.058858
732.981635	0.058775
733.179800	0.058624
733.377947	0.058401
733.576076	0.058331
733.774186	0.058255
733.972278	0.058071
734.170352	0.057928
734.368408	0.057762
734.566446	0.057881
734.764465	0.057878
734.962466	0.058007
735.160449	0.057896
735.358413	0.057695
735.556360	0.057928
735.754288	0.057922
735.952198	0.057918
736.150090	0.057971
736.347963	0.057920
736.545818	0.058050
736.743655	0.057617
736.941474	0.057502
737.139275	0.057578
737.337057	0.057373
737.534821	0.057254
737.732567	0.057070
737.930295	0.056957
738.128005	0.056771
738.325696	0.056523
738.523369	0.056511
738.721024	0.056601
738.918660	0.056645
739.116279	0.056705
739.313879	0.056699
739.511461	0.056740
739.709024	0.056659
739.906570	0.056661
740.104097	0.056629
740.301606	0.056623
740.499097	0.056499
740.696569	0.056480
740.894024	0.056270
741.091460	0.056339
741.288878	0.056390
741.486277	0.056446
741.683659	0.056466
741.881022	0.056342
742.078367	0.056508
742.275694	0.056232
742.473002	0.056054
742.670293	0.056161
742.867565	0.055879
743.064819	0.055956
743.262054	0.055985
743.459272	0.055868
743.656471	0.056056
743.853652	0.056039
744.050815	0.056057
744.247959	0.055781
744.445085	0.055555
744.642194	0.055722
744.839283	0.055449
745.036355	0.055345
745.233408	0.055500
745.430444	0.055623
745.627461	0.055501
745.824459	0.055813
746.021440	0.055978
746.218402	0.056028
746.415346	0.056026
746.612272	0.055840
746.809180	0.055975
747.006069	0.055658
747.202940	0.055288
747.399793	0.055405
747.596628	0.055258
747.793444	0.055303
747.990243	0.055529
748.187023	0.055487
748.383784	0.055667
748.580528	0.055396
748.777253	0.055610
748.973960	0.055817
749.170649	0.055637
749.367320	0.055728
749.563973	0.055928
749.760607	0.055705
749.957223	0.055691
750.153821	0.055549
750.350400	0.055676
750.546962	0.055710
750.743505	0.055558
750.940030	0.055649
751.136536	0.055488
751.333025	0.055309
751.529495	0.055094
751.725947	0.055109
751.922381	0.055231
752.118796	0.055278
752.315194	0.055123
752.511573	0.055216
752.707934	0.055126
752.904276	0.055193
753.100601	0.055154
753.296907	0.055251
753.493195	0.055204
753.689465	0.055156
753.885716	0.055191
754.081949	0.055285
754.278164	0.055295
754.474361	0.055108
754.670540	0.055076
754.866700	0.055233
755.062843	0.055395
755.258967	0.055218
755.455072	0.055091
755.651160	0.054870
755.847229	0.054772
756.043280	0.054417
756.239313	0.054480
756.435328	0.054521
756.631324	0.054612
756.827302	0.054389
757.023262	0.054405
757.219204	0.054691
757.415127	0.054738
757.611033	0.054597
757.806920	0.054762
758.002788	0.054816
758.198639	0.054639
758.394471	0.054388
758.590286	0.054531
758.786081	0.054649
758.981859	0.054493
759.177619	0.054574
759.373360	0.054639
759.569083	0.054741
759.764788	0.054566
759.960474	0.054424
760.156143	0.054322
760.351793	0.054071
760.547425	0.054142
760.743038	0.054096
760.938634	0.053961
761.134211	0.053835
761.329770	0.053734
761.525311	0.053924
761.720833	0.054196
761.916338	0.054327
762.111824	0.054628
762.307292	0.054595
762.502741	0.054528
762.698173	0.054234
762.893586	0.054279
763.088981	0.054291
763.284358	0.054197
763.479716	0.054168
763.675057	0.054101
763.870379	0.053931
764.065683	0.053760
764.260968	0.053691
764.456236	0.053951
764.651485	0.053983
764.846716	0.054078
765.041929	0.054164
765.237123	0.054047
765.432299	0.053899
765.627457	0.053920
765.822597	0.054023
766.017719	0.054187
766.212822	0.054302
766.407907	0.054177
766.602974	0.054118
766.798023	0.054004
766.993054	0.054046
767.188066	0.054090
767.383060	0.054180
767.578036	0.054160
767.772993	0.054130
767.967933	0.054116
768.162854	0.054092
768.357757	0.054153
768.552642	0.054206
768.747508	0.054076
768.942356	0.054210
769.137186	0.054102
769.331998	0.054074
769.526792	0.054029
769.721567	0.054152
769.916324	0.054417
770.111063	0.054161
770.305784	0.054217
770.500486	0.054206
770.695171	0.054367
770.889837	0.054141
771.084484	0.054102
771.279114	0.054120
771.473725	0.054030
771.668318	0.053801
771.862893	0.053700
772.057450	0.053690
772.251988	0.053881
772.446509	0.053616
772.641011	0.053913
772.835494	0.053887
773.029960	0.054034
773.224407	0.054070
773.418836	0.054134
773.613247	0.054260
773.807640	0.054418
774.002014	0.054208
774.196370	0.054159
774.390708	0.054248
774.585028	0.054263
774.779330	0.054060
774.973613	0.053798
775.167878	0.053820
775.362125	0.053810
775.556354	0.053638
775.750564	0.053843
775.944756	0.054133
776.138930	0.054059
776.333086	0.054061
776.527223	0.054072
776.721343	0.054280
776.915444	0.054376
777.109526	0.054497
777.303591	0.054385
777.497637	0.054351
777.691666	0.054163
777.885676	0.054093
778.079667	0.054303
778.273641	0.054390
778.467596	0.054264
778.661533	0.054094
778.855452	0.054029
779.049352	0.054155
779.243235	0.054475
779.437099	0.054597
779.630945	0.054810
779.824773	0.054728
780.018582	0.054538
780.212373	0.054836
780.406146	0.055034
780.599901	0.055136
780.793638	0.055167
780.987356	0.054723
781.181056	0.054446
781.374738	0.054263
781.568402	0.054205
781.762047	0.054522
781.955674	0.054360
782.149283	0.054214
782.342874	0.054287
782.536447	0.054334
782.730001	0.054475
782.923537	0.054805
783.117055	0.054745
783.310555	0.054886
783.504036	0.054906
783.697499	0.054978
783.890944	0.055330
784.084371	0.055309
784.277780	0.055379
784.471170	0.055316
784.664542	0.055265
784.857896	0.055522
785.051231	0.055411
785.244549	0.055570
785.437848	0.055709
785.631129	0.055449
785.824392	0.055395
786.017636	0.055373
786.210863	0.055582
786.404071	0.055566
786.597260	0.055404
786.790432	0.055408
786.983585	0.055237
787.176721	0.054983
787.369838	0.055136
787.562936	0.055373
787.756017	0.055570
787.949079	0.055401
788.142123	0.055276
788.335149	0.055187
788.528156	0.055350
788.721146	0.055261
788.914117	0.055323
789.107070	0.055199
789.300005	0.055172
789.492921	0.055006
789.685819	0.055141
789.878699	0.055408
790.071561	0.055706
790.264405	0.055807
790.457230	0.055776
790.650037	0.055989
790.842826	0.056063
791.035597	0.055953
791.228349	0.056052
791.421084	0.055968
791.613800	0.055863
791.806497	0.055911
791.999177	0.055648
792.191838	0.055976
792.384481	0.055843
792.577106	0.055964
792.769713	0.056108
792.962301	0.056119
793.154871	0.056392
793.347423	0.056606
793.539957	0.056539
793.732473	0.056756
793.924970	0.056579
794.117449	0.056553
794.309910	0.056386
794.502353	0.056414
794.694777	0.056445
794.887183	0.056401
795.079571	0.056401
795.271941	0.056544
795.464293	0.056465
795.656626	0.056364
795.848941	0.056269
796.041238	0.056675
796.233516	0.056575
796.425777	0.056585
796.618019	0.056384
796.810243	0.056496
797.002449	0.056537
797.194636	0.056561
797.386805	0.056774
797.578956	0.057018
797.771089	0.056812
797.963204	0.056834
798.155300	0.056881
798.347378	0.057064
798.539438	0.056847
798.731480	0.056701
798.923503	0.056974
799.115509	0.056904
799.307496	0.056787
799.499465	0.056858
799.691415	0.057027
799.883348	0.057055
800.075262	0.057183
800.267158	0.057305
800.459035	0.057302
800.650895	0.057373
800.842736	0.057308
801.034559	0.057581
801.226364	0.057728
801.418150	0.057792
801.609919	0.057782
801.801669	0.057582
801.993401	0.057694
802.185114	0.057971
802.376810	0.057800
802.568487	0.057999
802.760146	0.058009
802.951787	0.058074
803.143409	0.058015
803.335014	0.058155
803.526600	0.058361
803.718168	0.058071
803.909717	0.058063
804.101249	0.058059
804.292762	0.058141
804.484257	0.058109
804.675734	0.058074
804.867192	0.058219
805.058632	0.058208
805.250054	0.058342
805.441458	0.058565
805.632844	0.058464
805.824211	0.058879
806.015561	0.058763
806.206891	0.058985
806.398204	0.059007
806.589499	0.058962
806.780775	0.058909
806.972033	0.058947
807.163273	0.059121
807.354495	0.059064
807.545698	0.058888
807.736883	0.059101
807.928050	0.059059
808.119199	0.059244
808.310329	0.059249
808.501441	0.059521
808.692535	0.059458
808.883611	0.059512
809.074669	0.059829
809.265708	0.059916
809.456729	0.060030
809.647732	0.060002
809.838717	0.059891
810.029683	0.059873
810.220632	0.059776
810.411562	0.059951
810.602474	0.059954
810.793367	0.059770
810.984242	0.059648
811.175100	0.059932
811.365938	0.059870
811.556759	0.060033
811.747562	0.060280
811.938346	0.060427
812.129112	0.060534
812.319860	0.060550
812.510589	0.060685
812.701300	0.060722
812.891994	0.060296
813.082668	0.060500
813.273325	0.060483
813.463964	0.060594
813.654584	0.060631
813.845186	0.060735
814.035769	0.060714
814.226335	0.060705
814.416882	0.061031
814.607411	0.061183
814.797922	0.061142
814.988415	0.061449
815.178889	0.061602
815.369345	0.061580
815.559783	0.061662
815.750203	0.061989
815.940605	0.062201
816.130988	0.061920
816.321353	0.062243
816.511700	0.062350
816.702028	0.062240
816.892339	0.062085
817.082631	0.062200
817.272905	0.062037
817.463161	0.061805
817.653398	0.061984
817.843617	0.062308
818.033819	0.062119
818.224001	0.062270
818.414166	0.062278
818.604312	0.062516
818.794440	0.062418
818.984550	0.062496
819.174642	0.062894
819.364716	0.062770
819.554771	0.062979
819.744808	0.062965
819.934827	0.062873
820.124827	0.062972
820.314810	0.062820
820.504774	0.063054
820.694720	0.063276
820.884647	0.063164
821.074557	0.063247
821.264448	0.063086
821.454321	0.063258
821.644176	0.063448
821.834012	0.063579
822.023831	0.063537
822.213631	0.063465
822.403413	0.063441
822.593176	0.063574
822.782922	0.063576
822.972649	0.063500
823.162358	0.063658
823.352049	0.063701
823.541721	0.063446
823.731376	0.063759
823.921012	0.063861
824.110629	0.063944
824.300229	0.063562
824.489811	0.063547
824.679374	0.063787
824.868919	0.063723
825.058445	0.063831
825.247954	0.063986
825.437444	0.063797
825.626916	0.064159
825.816370	0.064098
826.005806	0.064345
826.195223	0.064502
826.384622	0.064254
826.574003	0.064253
826.763366	0.064242
826.952711	0.064292
827.142037	0.064470
827.331345	0.064277
827.520635	0.064693
827.709906	0.064730
827.899160	0.064708
828.088395	0.064880
828.277612	0.064980
828.466810	0.065189
828.655991	0.065325
828.845153	0.065525
829.034297	0.065727
829.223423	0.065528
829.412531	0.065683
829.601620	0.065910
829.790691	0.066050
829.979744	0.066088
830.168779	0.066076
830.357795	0.066163
830.546793	0.065954
830.735773	0.066059
830.924735	0.066507
831.113679	0.066831
831.302604	0.066993
831.491511	0.066906
831.680400	0.067219
831.869271	0.066900
832.058123	0.067105
832.246957	0.067307
832.435773	0.067424
832.624571	0.067113
832.813351	0.066917
833.002112	0.066677
833.190855	0.067012
833.379580	0.067003
833.568287	0.067271
833.756975	0.067285
833.945645	0.067151
834.134297	0.066957
834.322931	0.066827
834.511547	0.066779
834.700144	0.066856
834.888723	0.066776
835.077284	0.066887
835.265826	0.066925
835.454351	0.066771
835.642857	0.066959
835.831345	0.066989
836.019815	0.067189
836.208266	0.067351
836.396699	0.067373
836.585114	0.067997
836.773511	0.068015
836.961890	0.068207
837.150250	0.068334
837.338592	0.068569
837.526916	0.068630
837.715222	0.068672
837.903510	0.068988
838.091779	0.069390
838.280030	0.069036
838.468263	0.069042
838.656477	0.069257
838.844674	0.069399
839.032852	0.069706
839.221012	0.069878
839.409153	0.070217
839.597277	0.070155
839.785382	0.070400
839.973469	0.070423
840.161538	0.070503
840.349589	0.070561
840.537621	0.070654
840.725635	0.070387
840.913631	0.070400
841.101609	0.070074
841.289568	0.070182
841.477509	0.069971
841.665432	0.070027
841.853337	0.070033
842.041224	0.069761
842.229092	0.069736
842.416942	0.069738
842.604774	0.069907
842.792588	0.070098
842.980383	0.070000
843.168160	0.070045
843.355919	0.070165
843.543660	0.070273
843.731382	0.070783
843.919087	0.070835
844.106773	0.071100
844.294441	0.071019
844.482090	0.071250
844.669722	0.071470
844.857335	0.071706
845.044930	0.071908
845.232507	0.072046
845.420065	0.071960
845.607605	0.071950
845.795127	0.072371
845.982631	0.072397
846.170117	0.072567
846.357584	0.072432
846.545033	0.072412
846.732464	0.072381
846.919877	0.072418
847.107272	0.072581
847.294648	0.073130
847.482006	0.073065
847.669346	0.073376
847.856667	0.073507
848.043971	0.073867
848.231256	0.074039
848.418523	0.074011
848.605771	0.074236
848.793002	0.074237
848.980214	0.073900
849.167408	0.073728
849.354584	0.073966
849.541742	0.074005
849.728881	0.074159
849.916002	0.074250
850.103105	0.074602
850.290190	0.074516
850.477256	0.074871
850.664304	0.075317
850.851334	0.075483
851.038346	0.075765
851.225340	0.075827
851.412315	0.075867
851.599272	0.075803
851.786211	0.075762
851.973132	0.076053
852.160034	0.076328
852.346918	0.076141
852.533784	0.076345
852.720632	0.076183
852.907462	0.076149
853.094273	0.076181
853.281066	0.076505
853.467841	0.076504
853.654598	0.076468
853.841336	0.076312
854.028056	0.076752
854.214758	0.076765
854.401442	0.076926
854.588107	0.077258
854.774755	0.077633
854.961384	0.077508
855.147995	0.077781
855.334587	0.078087
855.521162	0.078236
855.707718	0.078364
855.894256	0.078406
856.080775	0.078216
856.267277	0.077990
856.453760	0.078085
856.640225	0.078354
856.826672	0.078688
857.013101	0.078497
857.199511	0.078309
857.385903	0.078156
857.572277	0.078394
857.758633	0.078713
857.944970	0.079106
858.131290	0.078914
858.317591	0.079046
858.503873	0.078943
858.690138	0.079087
858.876384	0.079203
859.062612	0.079115
859.248822	0.079256
859.435014	0.079184
859.621188	0.079010
859.807343	0.079075
859.993480	0.079307
860.179599	0.079216
860.365699	0.079598
860.551781	0.079679
860.737846	0.080127
860.923891	0.079725
861.109919	0.080118
861.295929	0.080366
861.481920	0.080551
861.667893	0.080453
861.853848	0.080692
862.039784	0.080660
862.225702	0.080994
862.411603	0.081044
862.597484	0.081350
862.783348	0.081222
862.969193	0.081490
863.155021	0.081435
863.340830	0.081395
863.526620	0.081516
863.712393	0.081427
863.898147	0.081048
864.083883	0.080966
864.269601	0.081015
864.455301	0.081293
864.640982	0.081009
864.826645	0.081547
865.012290	0.081822
865.197917	0.081989
865.383526	0.082017
865.569116	0.082281
865.754688	0.082498
865.940242	0.082722
866.125777	0.082913
866.311295	0.083102
866.496794	0.082819
866.682275	0.082608
866.867737	0.082408
867.053182	0.082389
867.238608	0.082762
867.424016	0.082620
867.609406	0.082855
867.794778	0.082375
867.980131	0.082578
868.165466	0.082828
868.350783	0.082951
868.536082	0.083163
868.721362	0.083242
868.906625	0.083072
869.091869	0.083291
869.277094	0.083392
869.462302	0.083905
869.647491	0.083734
869.832662	0.083465
870.017815	0.083844
870.202950	0.083813
870.388066	0.084416
870.573165	0.084594
870.758245	0.084973
870.943306	0.084815
871.128350	0.084894
871.313375	0.084981
871.498382	0.085241
871.683371	0.085243
871.868342	0.085435
872.053294	0.085263
872.238229	0.085398
872.423144	0.085129
872.608042	0.085318
872.792922	0.084984
872.977783	0.085120
873.162626	0.085404
873.347451	0.085233
873.532258	0.085287
873.717046	0.085269
873.901816	0.085387
874.086568	0.085413
874.271302	0.085802
874.456017	0.086097
874.640715	0.086245
874.825394	0.085828
875.010055	0.085907
875.194697	0.086016
875.379322	0.086146
875.563928	0.086118
875.748516	0.086002
875.933085	0.085485
876.117637	0.085457
876.302170	0.085395
876.486685	0.085470
876.671182	0.085693
876.855661	0.085594
877.040121	0.085560
877.224563	0.085595
877.408987	0.085651
877.593393	0.086179
877.777780	0.086013
877.962150	0.086094
878.146501	0.086365
878.330833	0.086486
878.515148	0.086367
878.699444	0.086681
878.883722	0.086822
879.067982	0.086788
879.252224	0.086547
879.436447	0.086644
879.620653	0.086597
879.804840	0.086512
879.989008	0.086340
880.173159	0.086668
880.357291	0.086668
880.541405	0.086633
880.725501	0.087238
880.909579	0.086992
881.093638	0.087313
881.277680	0.087762
881.461703	0.087897
881.645707	0.088110
881.829694	0.087851
882.013662	0.087681
882.197612	0.087401
882.381544	0.087449
882.565458	0.087828
882.749353	0.087970
882.933230	0.087556
883.117089	0.087777
883.300930	0.087720
883.484753	0.088085
883.668557	0.088029
883.852343	0.088235
884.036111	0.087729
884.219861	0.087727
884.403592	0.087637
884.587305	0.087875
884.771000	0.087755
884.954677	0.087955
885.138335	0.087937
885.321976	0.088294
885.505598	0.088274
885.689201	0.088545
885.872787	0.088466
886.056354	0.088052
886.239904	0.087872
886.423434	0.088081
886.606947	0.088109
886.790442	0.088178
886.973918	0.088441
887.157376	0.088633
887.340816	0.088724
887.524237	0.088910
887.707641	0.089423
887.891026	0.089293
888.074393	0.089046
888.257741	0.088390
888.441072	0.088273
888.624384	0.087751
888.807678	0.087497
888.990954	0.087217
889.174211	0.086775
889.357451	0.086513
889.540672	0.086761
889.723875	0.086767
889.907059	0.087421
890.090226	0.087539
890.273374	0.087701
890.456504	0.087986
890.639616	0.088354
890.822709	0.088577
891.005785	0.089143
891.188842	0.089365
891.371881	0.089564
891.554901	0.089325
891.737904	0.089127
891.920888	0.088975
892.103854	0.088566
892.286802	0.088386
892.469731	0.088191
892.652643	0.087771
892.835536	0.087517
893.018410	0.087108
893.201267	0.086937
893.384106	0.087195
893.566926	0.087065
893.749728	0.087276
893.932511	0.087169
894.115277	0.087338
894.298024	0.087574
894.480753	0.087102
894.663464	0.087162
894.846157	0.087248
895.028831	0.086854
895.211487	0.087218
895.394125	0.087261
895.576745	0.087068
895.759346	0.087226
895.941930	0.087105
896.124495	0.087173
896.307041	0.087315
896.489570	0.087063
896.672080	0.087439
896.854573	0.087411
897.037046	0.087466
897.219502	0.087442
897.401940	0.087155
897.584359	0.086993
897.766760	0.087482
897.949143	0.087389
898.131507	0.087664
898.313854	0.087270
898.496182	0.087018
898.678492	0.086901
898.860783	0.087195
899.043057	0.087463
899.225312	0.087248
899.407549	0.086634
899.589768	0.086705
899.771968	0.086938
899.954151	0.087194
900.136315	0.087313
900.318461	0.087040
900.500588	0.087350
900.682698	0.087201
900.864789	0.087116
901.046862	0.087824
901.228917	0.087790
901.410953	0.087863
901.592971	0.087679
901.774972	0.087164
901.956953	0.087392
902.138917	0.086760
902.320862	0.086717
902.502790	0.086910
902.684699	0.086748
902.866589	0.086662
903.048462	0.086184
903.230316	0.086372
903.412152	0.086599
903.593970	0.086579
903.775770	0.086364
903.957551	0.086213
904.139314	0.085870
904.321059	0.085569
904.502786	0.085074
904.684494	0.085121
904.866185	0.084566
905.047857	0.084310
905.229510	0.083658
905.411146	0.083721
905.592763	0.083553
905.774363	0.083600
905.955943	0.083441
906.137506	0.083913
906.319051	0.083619
906.500577	0.083815
906.682085	0.083856
906.863575	0.084386
907.045046	0.084396
907.226500	0.084119
907.407935	0.083939
907.589352	0.083416
907.770750	0.082872
907.952131	0.082996
908.133493	0.083005
908.314837	0.083032
908.496163	0.082577
908.677470	0.082293
908.858760	0.082542
909.040031	0.082037
909.221284	0.082081
909.402518	0.082148
909.583735	0.081833
909.764933	0.081480
909.946113	0.081234
910.127275	0.081565
910.308418	0.081695
910.489544	0.081240
910.670651	0.081619
910.851740	0.081911
911.032810	0.082075
911.213863	0.082032
911.394897	0.081975
911.575913	0.082242
911.756911	0.081954
911.937890	0.081532
912.118851	0.081662
912.299794	0.081739
912.480719	0.081556
912.661626	0.081284
912.842514	0.081097
913.023384	0.080841
913.204236	0.079924
913.385070	0.079638
913.565886	0.079328
913.746683	0.079362
913.927462	0.079023
914.108223	0.078866
914.288965	0.078857
914.469690	0.078598
914.650396	0.078704
914.831084	0.078924
915.011754	0.079062
915.192405	0.079285
915.373038	0.079305
915.553653	0.079095
915.734250	0.078685
915.914829	0.078090
916.095389	0.078065
916.275931	0.077785
916.456455	0.077476
916.636961	0.076584
916.817448	0.076496
916.997917	0.076304
917.178368	0.076532
917.358801	0.076617
917.539216	0.076977
917.719612	0.076745
917.899990	0.076167
918.080350	0.076960
918.260692	0.077246
918.441015	0.076803
918.621320	0.076297
918.801607	0.075673
918.981876	0.075676
919.162127	0.075458
919.342359	0.075201
919.522573	0.075693
919.702769	0.074524
919.882947	0.074708
920.063106	0.074486
920.243247	0.074250
920.423370	0.074089
920.603475	0.073469
920.783562	0.072873
920.963630	0.072619
921.143680	0.072355
921.323712	0.072422
921.503725	0.071879
921.683721	0.072057
921.863698	0.071913
922.043657	0.072132
922.223598	0.072668
922.403520	0.072921
922.583424	0.073412
922.763311	0.072590
922.943178	0.072210
923.123028	0.071782
923.302859	0.071670
923.482673	0.071414
923.662467	0.070706
923.842244	0.070382
924.022003	0.069301
924.201743	0.068636
924.381465	0.068922
924.561169	0.068363
924.740854	0.068367
924.920522	0.067883
925.100171	0.068050
925.279802	0.068222
925.459414	0.068015
925.639009	0.068023
925.818585	0.067392
925.998143	0.066914
926.177683	0.067445
926.357205	0.067440
926.536708	0.067467
926.716193	0.066564
926.895660	0.065981
927.075109	0.065448
927.254539	0.065902
927.433951	0.066159
927.613345	0.066111
927.792721	0.065282
927.972079	0.065096
928.151418	0.064639
928.330739	0.064598
928.510042	0.064305
928.689327	0.063770
928.868593	0.062928
929.047841	0.062501
929.227071	0.061881
929.406283	0.062291
929.585476	0.061234
929.764652	0.060732
929.943809	0.060509
930.122948	0.060019
930.302068	0.059931
930.481171	0.059740
930.660255	0.058487
930.839321	0.057892
931.018369	0.056818
931.197398	0.056892
931.376409	0.056737
931.555402	0.056019
931.734377	0.056225
931.913334	0.055462
932.092272	0.055189
932.271192	0.056098
932.450094	0.055873
932.628978	0.055901
932.807844	0.055572
932.986691	0.055522
933.165520	0.055299
933.344331	0.054170
933.523123	0.054480
933.701898	0.054195
933.880654	0.053182
934.059392	0.052991
934.238111	0.053307
934.416813	0.053303
934.595496	0.053262
934.774161	0.052877
934.952808	0.052982
935.131437	0.052257
935.310047	0.051890
935.488639	0.052117
935.667213	0.052691
935.845769	0.051803
936.024306	0.051733
936.202825	0.050558
936.381326	0.050494
936.559809	0.049719
936.738274	0.049383
936.916720	0.048915
937.095148	0.048331
937.273558	0.047635
937.451950	0.046610
937.630323	0.045380
937.808678	0.045466
937.987015	0.045930
938.165334	0.046617
938.343635	0.046649
938.521917	0.047611
938.700181	0.047477
938.878427	0.047173
939.056655	0.047794
939.234864	0.048195
939.413055	0.047481
939.591228	0.046755
939.769383	0.046248
939.947519	0.045833
940.125638	0.044387
940.303738	0.044153
940.481820	0.043568
940.659883	0.043111
940.837929	0.042486
941.015956	0.042386
941.193965	0.041380
941.371955	0.040016
941.549928	0.039912
941.727882	0.039113
941.905818	0.039179
942.083736	0.038719
942.261636	0.039165
942.439517	0.039316
942.617380	0.039182
942.795225	0.039476
942.973052	0.040325
943.150860	0.039952
943.328651	0.040429
943.506423	0.039539
943.684176	0.039290
943.861912	0.037413
944.039629	0.036515
944.217328	0.036194
944.395009	0.036403
944.572672	0.035788
944.750317	0.035509
944.927943	0.034785
945.105551	0.034332
945.283141	0.033944
945.460712	0.034586
945.638265	0.034773
945.815801	0.034586
945.993317	0.034701
946.170816	0.034645
946.348297	0.033912
946.525759	0.033309
946.703203	0.034629
946.880629	0.034901
947.058036	0.034114
947.235425	0.032773
947.412797	0.031822
947.590149	0.030617
947.767484	0.030052
947.944800	0.030234
948.122099	0.030527
948.299379	0.028300
948.476640	0.027231
948.653884	0.027721
948.831109	0.027812
949.008316	0.029134
949.185505	0.028473
949.362676	0.027562
949.539828	0.028237
949.716962	0.028412
949.894078	0.028066
950.071176	0.028239
950.248256	0.027648
950.425317	0.027779
950.602360	0.026244
950.779385	0.025293
950.956391	0.026500
951.133380	0.024863
951.310350	0.024390
951.487302	0.025605
951.664235	0.026117
951.841151	0.024521
952.018048	0.024404
952.194927	0.023828
952.371788	0.024500
952.548631	0.022386
952.725455	0.022864
952.902261	0.021617
953.079049	0.020255
953.255819	0.020610
953.432570	0.021211
953.609303	0.020959
953.786018	0.021406
953.962715	0.021786
954.139394	0.022557
954.316054	0.022508
954.492696	0.023308
954.669320	0.022455
954.845926	0.021123
955.022513	0.020381
955.199083	0.019038
955.375634	0.018653
955.552166	0.016473
955.728681	0.016255
955.905177	0.015169
956.081655	0.013716
956.258115	0.013299
956.434557	0.013547
956.610980	0.015255
956.787385	0.014949
956.963772	0.014894
957.140141	0.017751
957.316492	0.018457
957.492824	0.018211
957.669138	0.020827
957.845434	0.022499
958.021712	0.019955
958.197971	0.018753
958.374212	0.021735
958.550435	0.022192
958.726640	0.021314
958.902826	0.022089
959.078995	0.022169
959.255145	0.019569
959.431277	0.019042
959.607390	0.022450
959.783486	0.021204
959.959563	0.019287
960.135622	0.018429
960.311662	0.019058
960.487685	0.018043
960.663689	0.017657
960.839675	0.018470
961.015643	0.019569
961.191593	0.018521
961.367524	0.020238
961.543437	0.021492
961.719332	0.023697
961.895209	0.021428
962.071067	0.019978
962.246907	0.019923
962.422730	0.021716
962.598533	0.022871
962.774319	0.021012
962.950086	0.019552
963.125835	0.017675
963.301566	0.016237
963.477279	0.017955
963.652973	0.020020
963.828650	0.020293
964.004308	0.020367
964.179947	0.019946
964.355569	0.020628
964.531172	0.020548
964.706757	0.021625
964.882324	0.021435
965.057873	0.020494
965.233403	0.021358
965.408916	0.022024
965.584410	0.020046
965.759885	0.019867
965.935343	0.020464
966.110782	0.022014
966.286203	0.021344
966.461606	0.021016
966.636991	0.021017
966.812357	0.019774
966.987705	0.020795
967.163035	0.021952
967.338347	0.021856
967.513641	0.022753
967.688916	0.022904
967.864173	0.022961
968.039412	0.025080
968.214632	0.025007
968.389835	0.024712
968.565019	0.025588
968.740185	0.024711
968.915333	0.024975
969.090462	0.024681
969.265573	0.025593
969.440667	0.025537
969.615741	0.022974
969.790798	0.022517
969.965836	0.022287
970.140856	0.021256
970.315858	0.023405
970.490842	0.024077
970.665808	0.025966
970.840755	0.026076
971.015684	0.026043
971.190595	0.027758
971.365487	0.028628
971.540362	0.027542
971.715218	0.027010
971.890056	0.025910
972.064875	0.026660
972.239677	0.025360
972.414460	0.023791
972.589225	0.024600
972.763972	0.025060
972.938700	0.026655
973.113411	0.028917
973.288103	0.026929
973.462777	0.025701
973.637432	0.023491
973.812070	0.022672
973.986689	0.023220
974.161290	0.021478
974.335873	0.020223
974.510437	0.019031
974.684984	0.017802
974.859512	0.018497
975.034022	0.018164
975.208513	0.020170
975.382987	0.021747
975.557442	0.023682
975.731879	0.025372
975.906298	0.026270
976.080698	0.024661
976.255080	0.024934
976.429445	0.027031
976.603790	0.029653
976.778118	0.029065
976.952427	0.029375
977.126719	0.027420
977.300992	0.028655
977.475246	0.028584
977.649483	0.029474
977.823701	0.029258
977.997901	0.027772
978.172083	0.027815
978.346247	0.026887
978.520392	0.024560
978.694519	0.022934
978.868628	0.020861
979.042719	0.020705
979.216791	0.021058
979.390845	0.022072
979.564882	0.022177
979.738899	0.019961
979.912899	0.018614
980.086880	0.020917
980.260843	0.021360
980.434788	0.022126
980.608715	0.023011
980.782623	0.021760
980.956514	0.022004
981.130386	0.022073
981.304240	0.023984
981.478075	0.025899
981.651892	0.026239
981.825692	0.027767
981.999472	0.027824
982.173235	0.025307
982.346980	0.027495
982.520706	0.027954
982.694414	0.028284
982.868104	0.026232
983.041775	0.024622
983.215428	0.025034
983.389064	0.025936
983.562680	0.028017
983.736279	0.029920
983.909860	0.029903
984.083422	0.030688
984.256966	0.031968
984.430491	0.033432
984.603999	0.032905
984.777488	0.030946
984.950959	0.030441
985.124412	0.029133
985.297847	0.030363
985.471263	0.029124
985.644661	0.026620
985.818041	0.025805
985.991403	0.025586
986.164747	0.027580
986.338072	0.026110
986.511379	0.025255
986.684668	0.024483
986.857938	0.022950
987.031191	0.024353
987.204425	0.024934
987.377641	0.025279
987.550839	0.024497
987.724018	0.024664
987.897179	0.025250
988.070322	0.027821
988.243447	0.026550
988.416554	0.026319
988.589642	0.026296
988.762712	0.025574
988.935764	0.023396
989.108798	0.024585
989.281813	0.023852
989.454811	0.025127
989.627790	0.023526
989.800751	0.024005
989.973693	0.022523
990.146617	0.020407
990.319524	0.022196
990.492412	0.023324
990.665281	0.023505
990.838133	0.024423
991.010966	0.025355
991.183781	0.024130
991.356578	0.024843
991.529356	0.026311
991.702117	0.027517
991.874859	0.026063
992.047583	0.027662
992.220288	0.028245
992.392976	0.027869
992.565645	0.027028
992.738296	0.027986
992.910929	0.028579
993.083543	0.028868
993.256139	0.030604
993.428718	0.031272
993.601277	0.031010
993.773819	0.029220
993.946342	0.027731
994.118848	0.027340
994.291335	0.027442
994.463803	0.027405
994.636254	0.028010
994.808686	0.026227
994.981100	0.024201
995.153496	0.023657
995.325874	0.023268
995.498233	0.023978
995.670574	0.022197
995.842897	0.021827
996.015202	0.022201
996.187488	0.020942
996.359757	0.020736
996.532007	0.023464
996.704239	0.023351
996.876452	0.026016
997.048648	0.024810
997.220825	0.026894
997.392984	0.027220
997.565124	0.025871
997.737247	0.027206
997.909351	0.027286
998.081437	0.027515
998.253505	0.028163
998.425554	0.025933
998.597586	0.027376
998.769599	0.025024
998.941594	0.023784
999.113571	0.025977
999.285529	0.025402
999.457469	0.026917
999.629391	0.024623
999.801295	0.022160
999.973181	0.022618
1000.145048	0.022720
1000.316897	0.025495
1000.488728	0.028372
1000.660541	0.028496
1000.832335	0.028069
1001.004111	0.028401
1001.175869	0.031686
1001.347609	0.033993
1001.519331	0.032678
1001.691034	0.034667
1001.862719	0.034202
1002.034386	0.034468
1002.206035	0.034410
1002.377665	0.034789
1002.549277	0.033047
1002.720871	0.030738
1002.892447	0.030128
1003.064004	0.031024
1003.235544	0.027880
1003.407065	0.026313
1003.578568	0.023466
1003.750052	0.022917
1003.921519	0.022994
1004.092967	0.023057
1004.264397	0.025248
1004.435809	0.026008
1004.607202	0.026892
1004.778577	0.027946
1004.949934	0.029413
1005.121273	0.030856
1005.292594	0.030137
1005.463896	0.029979
1005.635180	0.030499
1005.806446	0.029603
1005.977694	0.027193
1006.148923	0.026545
1006.320135	0.026733
1006.491328	0.026698
1006.662503	0.024024
1006.833659	0.022705
1007.004798	0.023374
1007.175918	0.023104
1007.347020	0.022256
1007.518103	0.026073
1007.689169	0.026729
1007.860216	0.027855
1008.031245	0.027250
1008.202256	0.029318
1008.373248	0.030396
1008.544223	0.030547
1008.715179	0.031492
1008.886117	0.031773
1009.057036	0.028016
1009.227938	0.028511
1009.398821	0.027612
1009.569686	0.028464
1009.740533	0.029098
1009.911361	0.030316
1010.082172	0.030334
1010.252964	0.029405
1010.423738	0.029375
1010.594493	0.031549
1010.765231	0.031940
1010.935950	0.032489
1011.106651	0.032806
1011.277334	0.031783
1011.447998	0.029787
1011.618645	0.029818
1011.789273	0.030919
1011.959882	0.031161
1012.130474	0.031395
1012.301048	0.028984
1012.471603	0.029134
1012.642140	0.028166
1012.812658	0.027325
1012.983159	0.028242
1013.153641	0.029184
1013.324105	0.027929
1013.494551	0.028314
1013.664979	0.026518
1013.835388	0.030630
1014.005779	0.028699
1014.176152	0.027637
1014.346507	0.028765
1014.516843	0.027958
1014.687162	0.026604
1014.857462	0.026455
1015.027744	0.025702
1015.198007	0.025538
1015.368252	0.021998
1015.538480	0.023377
1015.708689	0.024344
1015.878879	0.024203
1016.049052	0.024948
1016.219206	0.023825
1016.389342	0.024200
1016.559460	0.023429
1016.729559	0.025950
1016.899641	0.026864
1017.069704	0.026455
1017.239749	0.025364
1017.409775	0.025121
1017.579784	0.026030
1017.749774	0.026702
1017.919746	0.025915
1018.089700	0.025381
1018.259635	0.024269
1018.429553	0.023871
1018.599452	0.023277
1018.769333	0.023733
1018.939195	0.024470
1019.109040	0.024805
1019.278866	0.023939
1019.448674	0.023928
1019.618464	0.025242
1019.788235	0.025544
1019.957989	0.027518
1020.127724	0.027278
1020.297441	0.027855
1020.467139	0.028750
1020.636820	0.027270
1020.806482	0.028364
1020.976126	0.028992
1021.145752	0.028347
1021.315359	0.027345
1021.484948	0.025304
1021.654519	0.026462
1021.824072	0.024765
1021.993607	0.023302
1022.163123	0.023001
1022.332621	0.024039
1022.502101	0.023828
1022.671563	0.024731
1022.841007	0.027532
1023.010432	0.027193
1023.179839	0.025220
1023.349228	0.026483
1023.518598	0.028564
1023.687951	0.029535
1023.857285	0.027578
1024.026601	0.027408
1024.195899	0.027463
1024.365178	0.025010
1024.534439	0.025057
1024.703682	0.026413
1024.872907	0.026737
1025.042114	0.022843
1025.211302	0.021800
1025.380472	0.023282
1025.549624	0.024526
1025.718758	0.022687
1025.887873	0.023020
1026.056970	0.022751
1026.226049	0.025341
1026.395110	0.025442
1026.564153	0.029111
1026.733177	0.029020
1026.902183	0.028565
1027.071171	0.028072
1027.240141	0.029033
1027.409092	0.028620
1027.578026	0.028932
1027.746940	0.026372
1027.915837	0.026344
1028.084716	0.024821
1028.253576	0.025311
1028.422418	0.026610
1028.591242	0.025599
1028.760048	0.025928
1028.928835	0.026529
1029.097604	0.026460
1029.266355	0.025861
1029.435088	0.027811
1029.603803	0.026786
1029.772499	0.027183
1029.941177	0.025720
1030.109837	0.026484
1030.278478	0.026935
1030.447102	0.025870
1030.615707	0.026768
1030.784294	0.026091
1030.952863	0.025225
1031.121413	0.027905
1031.289945	0.029813
1031.458460	0.029483
1031.626955	0.030126
1031.795433	0.029044
1031.963892	0.029971
1032.132334	0.027877
1032.300756	0.028809
1032.469161	0.028192
1032.637548	0.026359
1032.805916	0.024746
1032.974266	0.024142
1033.142598	0.026346
1033.310911	0.028690
1033.479207	0.029527
1033.647484	0.032398
1033.815743	0.032893
1033.983983	0.032327
1034.152206	0.030829
1034.320410	0.030881
1034.488596	0.031276
1034.656764	0.028059
1034.824914	0.026680
1034.993045	0.024738
1035.161158	0.024004
1035.329253	0.022542
1035.497330	0.023307
1035.665388	0.026409
1035.833428	0.026375
1036.001450	0.027484
1036.169454	0.027803
1036.337440	0.027030
1036.505407	0.027751
1036.673356	0.026540
1036.841287	0.026793
1037.009200	0.024763
1037.177094	0.023644
1037.344970	0.022380
1037.512828	0.020866
1037.680668	0.020521
1037.848489	0.021201
1038.016293	0.021451
1038.184078	0.024003
1038.351845	0.024399
1038.519593	0.026315
1038.687324	0.026738
1038.855036	0.028215
1039.022730	0.029877
1039.190406	0.030773
1039.358063	0.030406
1039.525702	0.030223
1039.693323	0.028780
1039.860926	0.029148
1040.028511	0.029635
1040.196077	0.028963
1040.363625	0.029696
1040.531155	0.029212
1040.698667	0.028819
1040.866161	0.028574
1041.033636	0.029354
1041.201093	0.029363
1041.368532	0.029198
1041.535952	0.029138
1041.703355	0.029689
1041.870739	0.028060
1042.038105	0.027620
1042.205452	0.028393
1042.372782	0.028043
1042.540093	0.027688
1042.707386	0.026103
1042.874661	0.026282
1043.041918	0.022011
1043.209156	0.019665
1043.376376	0.019373
1043.543578	0.019779
1043.710762	0.018853
1043.877927	0.020658
1044.045074	0.020761
1044.212203	0.022271
1044.379314	0.022515
1044.546407	0.026415
1044.713481	0.027692
1044.880537	0.028051
1045.047575	0.028741
1045.214595	0.029861
1045.381596	0.027225
1045.548579	0.026347
1045.715544	0.027975
1045.882491	0.028592
1046.049420	0.028567
1046.216330	0.027841
1046.383222	0.025974
1046.550096	0.024814
1046.716951	0.025422
1046.883789	0.028098
1047.050608	0.029239
1047.217409	0.025587
1047.384192	0.024527
1047.550956	0.024003
1047.717703	0.023874
1047.884431	0.025401
1048.051140	0.025347
1048.217832	0.025669
1048.384505	0.023953
1048.551161	0.023407
1048.717798	0.024830
1048.884416	0.024824
1049.051017	0.024677
1049.217599	0.024791
1049.384163	0.025252
1049.550709	0.024778
1049.717237	0.022836
1049.883746	0.020808
1050.050237	0.020964
1050.216710	0.021430
1050.383165	0.021756
1050.549601	0.022544
1050.716019	0.023551
1050.882420	0.022404
1051.048801	0.025458
1051.215165	0.024428
1051.381510	0.027278
1051.547837	0.027867
1051.714146	0.028586
1051.880437	0.028719
1052.046709	0.028235
1052.212964	0.026770
1052.379200	0.028616
1052.545417	0.024194
1052.711617	0.025918
1052.877798	0.025376
1053.043961	0.023257
1053.210106	0.021365
1053.376233	0.020832
1053.542341	0.022230
1053.708432	0.021732
1053.874504	0.020345
1054.040557	0.022509
1054.206593	0.022092
1054.372610	0.022396
1054.538609	0.023444
1054.704590	0.026355
1054.870553	0.026621
1055.036497	0.023689
1055.202424	0.026391
1055.368331	0.027754
1055.534221	0.028735
1055.700093	0.028308
1055.865946	0.028901
1056.031781	0.028016
1056.197598	0.026706
1056.363397	0.028037
1056.529177	0.031448
1056.694939	0.031467
1056.860683	0.031279
1057.026409	0.030597
1057.192116	0.029311
1057.357806	0.028706
1057.523477	0.030219
1057.689130	0.029196
1057.854764	0.026724
1058.020381	0.024491
1058.185979	0.024343
1058.351559	0.025280
1058.517120	0.025409
1058.682664	0.026429
1058.848189	0.027504
1059.013696	0.025751
1059.179185	0.025648
1059.344656	0.025402
1059.510108	0.024200
1059.675542	0.022911
1059.840958	0.021362
1060.006356	0.019944
1060.171735	0.022224
1060.337096	0.020928
1060.502439	0.021080
1060.667764	0.021020
1060.833071	0.022502
1060.998359	0.021631
1061.163629	0.022390
1061.328881	0.021156
1061.494115	0.021730
1061.659330	0.021579
1061.824527	0.022139
1061.989706	0.021741
1062.154867	0.023368
1062.320010	0.022286
1062.485134	0.023801
1062.650240	0.022577
1062.815328	0.024171
1062.980398	0.023298
1063.145449	0.023294
1063.310482	0.022348
1063.475497	0.021694
1063.640494	0.020124
1063.805473	0.021263
1063.970433	0.022871
1064.135375	0.023916
1064.300299	0.022964
1064.465204	0.025953
1064.630092	0.024795
1064.794961	0.026041
1064.959812	0.027499
1065.124645	0.026920
1065.289459	0.027776
1065.454256	0.027399
1065.619034	0.025873
1065.783793	0.028638
1065.948535	0.029467
1066.113258	0.029584
1066.277964	0.029188
1066.442651	0.030371
1066.607319	0.029819
1066.771970	0.029388
1066.936602	0.029091
1067.101216	0.030682
1067.265812	0.027840
1067.430389	0.024386
1067.594949	0.022452
1067.759490	0.021803
1067.924013	0.021346
1068.088518	0.022125
1068.253004	0.021477
1068.417472	0.020085
1068.581922	0.020293
1068.746354	0.019475
1068.910768	0.020585
1069.075163	0.021677
1069.239540	0.020473
1069.403899	0.021216
1069.568240	0.021964
1069.732562	0.021570
1069.896866	0.022705
1070.061152	0.022236
1070.225420	0.022679
1070.389670	0.023125
1070.553901	0.023710
1070.718114	0.026136
1070.882309	0.025099
1071.046486	0.023763
1071.210644	0.023569
1071.374784	0.025264
1071.538906	0.026434
1071.703010	0.028961
1071.867096	0.028315
1072.031163	0.027738
1072.195212	0.025241
1072.359243	0.025434
1072.523256	0.028721
1072.687250	0.031044
1072.851226	0.029397
1073.015184	0.027894
1073.179124	0.026388
1073.343045	0.024862
1073.506949	0.025219
1073.670834	0.027119
1073.834701	0.028592
1073.998549	0.027769
1074.162380	0.025141
1074.326192	0.025267
1074.489986	0.023794
1074.653761	0.025292
1074.817519	0.028071
1074.981258	0.029302
1075.144979	0.032150
1075.308682	0.029971
1075.472367	0.028127
1075.636033	0.029351
1075.799681	0.028325
1075.963311	0.030586
1076.126923	0.027243
1076.290516	0.026415
1076.454092	0.025642
1076.617649	0.023246
1076.781187	0.023349
1076.944708	0.022415
1077.108210	0.021942
1077.271695	0.022544
1077.435160	0.023558
1077.598608	0.026811
1077.762038	0.024231
1077.925449	0.025847
1078.088842	0.023225
1078.252217	0.024080
1078.415573	0.026430
1078.578912	0.029347
1078.742232	0.031356
1078.905534	0.030879
1079.068817	0.029600
1079.232083	0.031492
1079.395330	0.028948
1079.558559	0.031020
1079.721770	0.032144
1079.884962	0.031365
1080.048136	0.030331
1080.211293	0.028836
1080.374430	0.028603
1080.537550	0.029059
1080.700651	0.029090
1080.863735	0.029213
1081.026800	0.031542
1081.189846	0.029106
1081.352875	0.028797
1081.515885	0.028978
1081.678877	0.030597
1081.841851	0.029149
1082.004807	0.028645
1082.167744	0.028457
1082.330663	0.029091
1082.493564	0.025440
1082.656447	0.026577
1082.819312	0.026029
1082.982158	0.024962
1083.144986	0.023273
1083.307796	0.024617
1083.470587	0.025615
1083.633361	0.025302
1083.796116	0.026080
1083.958853	0.027774
1084.121571	0.027880
1084.284272	0.026783
1084.446954	0.025933
1084.609618	0.026278
1084.772264	0.024640
1084.934892	0.023701
1085.097501	0.026065
1085.260092	0.025294
1085.422665	0.023373
1085.585220	0.023837
1085.747756	0.025599
1085.910274	0.026069
1086.072774	0.024397
1086.235256	0.023822
1086.397720	0.022847
1086.560165	0.021472
1086.722592	0.018651
1086.885001	0.020472
1087.047392	0.019463
1087.209764	0.020014
1087.372119	0.022111
1087.534455	0.020870
1087.696772	0.022383
1087.859072	0.023343
1088.021353	0.024387
1088.183616	0.026985
1088.345861	0.025538
1088.508088	0.026597
1088.670296	0.028160
1088.832486	0.026060
1088.994658	0.029253
1089.156812	0.031554
1089.318948	0.031230
1089.481065	0.027955
1089.643164	0.028070
1089.805245	0.028459
1089.967308	0.030590
1090.129352	0.027038
1090.291378	0.027871
1090.453386	0.025527
1090.615376	0.024144
1090.777347	0.025805
1090.939301	0.030043
1091.101236	0.028897
1091.263153	0.031036
1091.425051	0.028341
1091.586932	0.028927
1091.748794	0.029688
1091.910638	0.031990
1092.072463	0.031972
1092.234271	0.033592
1092.396060	0.028254
1092.557831	0.028896
1092.719584	0.028839
1092.881319	0.027402
1093.043035	0.030451
1093.204733	0.028758
1093.366413	0.025151
1093.528075	0.024481
1093.689718	0.018159
1093.851343	0.020689
1094.012950	0.022371
1094.174539	0.021276
1094.336110	0.024678
1094.497662	0.022942
1094.659196	0.021504
1094.820712	0.026622
1094.982210	0.028769
1095.143689	0.033036
1095.305151	0.035041
1095.466594	0.031089
1095.628018	0.031315
1095.789425	0.023539
1095.950813	0.022776
1096.112183	0.023485
1096.273535	0.022191
1096.434869	0.018536
1096.596184	0.018347
1096.757482	0.013525
1096.918761	0.014436
1097.080021	0.012427
1097.241264	0.017668
1097.402488	0.016929
1097.563694	0.018269
1097.724882	0.015518
1097.886052	0.015600
1098.047203	0.015584
1098.208336	0.021156
1098.369451	0.024971
1098.530548	0.027027
1098.691627	0.027137
1098.852687	0.026345
1099.013729	0.024635
1099.174753	0.030882
1099.335758	0.033635
1099.496746	0.032328
1099.657715	0.030439
1099.818666	0.029233
1099.979599	0.028132
1100.140513	0.028508
1100.301409	0.031809
1100.462287	0.034598
1100.623147	0.027469
1100.783989	0.027867
1100.944812	0.030068
1101.105617	0.031049
1101.266404	0.029411
1101.427173	0.028498
1101.587923	0.028212
1101.748656	0.029063
1101.909370	0.028511
1102.070066	0.031691
1102.230743	0.029111
1102.391403	0.028009
1102.552044	0.027382
1102.712667	0.027579
1102.873271	0.032948
1103.033858	0.032184
1103.194426	0.030298
1103.354976	0.025596
1103.515508	0.027010
1103.676021	0.028705
1103.836517	0.024882
1103.996994	0.023150
1104.157453	0.022163
1104.317893	0.017227
1104.478316	0.017020
1104.638720	0.018252
1104.799106	0.023943
1104.959474	0.024652
1105.119823	0.023251
1105.280155	0.027414
1105.440468	0.025364
1105.600763	0.028398
1105.761039	0.030650
1105.921298	0.029474
1106.081538	0.026432
1106.241760	0.023338
1106.401964	0.020198
1106.562149	0.019162
1106.722316	0.017010
1106.882465	0.020234
1107.042596	0.018796
1107.202709	0.019721
1107.362803	0.017143
1107.522879	0.022439
1107.682937	0.020388
1107.842977	0.021833
1108.002999	0.022904
1108.163002	0.024553
1108.322987	0.024178
1108.482954	0.021290
1108.642902	0.019219
1108.802833	0.022475
1108.962745	0.017194
1109.122639	0.021264
1109.282515	0.020300
1109.442372	0.018887
1109.602211	0.020129
1109.762032	0.016972
1109.921835	0.019661
1110.081620	0.020388
1110.241386	0.024816
1110.401134	0.025338
1110.560864	0.023312
1110.720576	0.022579
1110.880269	0.028052
1111.039945	0.027592
1111.199602	0.028124
1111.359240	0.029764
1111.518861	0.030056
1111.678463	0.030067
1111.838047	0.029938
1111.997613	0.030254
1112.157161	0.029799
1112.316690	0.024854
1112.476202	0.027619
1112.635695	0.030672
1112.795169	0.028300
1112.954626	0.024320
1113.114064	0.022535
1113.273484	0.024582
1113.432886	0.023150
1113.592270	0.025284
1113.751635	0.026537
1113.910983	0.022749
1114.070312	0.022596
1114.229622	0.022922
1114.388915	0.027879
1114.548189	0.028956
1114.707445	0.028643
1114.866683	0.027246
1115.025903	0.025097
1115.185104	0.023771
1115.344287	0.025504
1115.503452	0.025230
1115.662599	0.024286
1115.821727	0.021364
1115.980838	0.021648
1116.139930	0.018997
1116.299004	0.022788
1116.458059	0.025024
1116.617097	0.022669
1116.776116	0.020201
1116.935117	0.022565
1117.094099	0.021601
1117.253064	0.021361
1117.412010	0.021986
1117.570938	0.023851
1117.729848	0.018873
1117.888740	0.014165
1118.047613	0.021295
1118.206468	0.022594
1118.365305	0.018009
1118.524124	0.022686
1118.682924	0.022635
1118.841707	0.020641
1119.000471	0.020040
1119.159216	0.028954
1119.317944	0.036016
1119.476653	0.032775
1119.635344	0.031476
1119.794017	0.031544
1119.952672	0.030816
1120.111308	0.030541
1120.269927	0.031156
1120.428527	0.030236
1120.587108	0.021939
1120.745672	0.018873
1120.904217	0.020855
1121.062744	0.020429
1121.221253	0.019378
1121.379744	0.020484
1121.538216	0.024504
1121.696671	0.025591
1121.855107	0.025049
1122.013524	0.025286
1122.171924	0.024069
1122.330305	0.024536
1122.488668	0.019141
1122.647013	0.019487
1122.805340	0.018151
1122.963648	0.013114
1123.121938	0.008781
1123.280210	0.010905
1123.438464	0.016762
1123.596700	0.017440
1123.754917	0.010679
1123.913116	0.018372
1124.071297	0.018724
1124.229459	0.012897
1124.387604	0.012698
1124.545730	0.010080
1124.703838	0.010191
1124.861928	0.009302
1125.019999	0.013808
1125.178052	0.018989
1125.336088	0.017206
1125.494104	0.019244
1125.652103	0.022793
1125.810083	0.028364
1125.968045	0.031590
1126.125989	0.032469
1126.283915	0.030465
1126.441823	0.030231
1126.599712	0.031430
1126.757583	0.035958
1126.915436	0.034956
1127.073270	0.037729
1127.231087	0.035530
1127.388885	0.040657
1127.546665	0.036984
1127.704426	0.039159
1127.862170	0.034331
1128.019895	0.026967
1128.177602	0.025072
1128.335291	0.025817
1128.492961	0.024153
1128.650614	0.024989
1128.808248	0.019027
1128.965864	0.022035
1129.123461	0.020160
1129.281041	0.019862
1129.438602	0.023386
1129.596145	0.017398
1129.753670	0.017395
1129.911176	0.016931
1130.068665	0.012376
1130.226135	0.015905
1130.383587	0.012593
1130.541020	0.012772
1130.698436	0.012948
1130.855833	0.012521
1131.013212	0.011587
1131.170573	0.013521
1131.327915	0.012988
1131.485239	0.014065
1131.642545	0.009275
1131.799833	0.004874
1131.957103	0.006520
1132.114354	0.009828
1132.271588	0.006616
1132.428803	0.009345
1132.585999	0.007315
1132.743178	0.002876
1132.900338	0.000327
1133.057480	0.002693
1133.214604	0.012998
1133.371710	0.012473
1133.528797	0.008113
1133.685866	0.012672
1133.842917	0.012666
1133.999950	0.015470
1134.156964	0.024109
1134.313960	0.022440
1134.470938	0.023666
1134.627898	0.017968
1134.784840	0.014707
1134.941763	0.012013
1135.098668	0.009979
1135.255555	0.013713
1135.412424	0.009620
1135.569274	0.004860
1135.726107	0.011176
1135.882921	0.007768
1136.039716	0.001654
1136.196494	0.004724
1136.353253	0.007167
1136.509995	0.009594
1136.666717	0.006697
1136.823422	0.005393
1136.980109	0.012195
1137.136777	0.013569
1137.293427	0.017249
1137.450059	0.026284
1137.606672	0.024693
1137.763267	0.024568
1137.919844	0.018954
1138.076403	0.019754
1138.232944	0.026007
1138.389466	0.021858
1138.545971	0.022142
1138.702457	0.020342
1138.858924	0.023374
1139.015374	0.020605
1139.171805	0.022848
1139.328218	0.026194
1139.484613	0.026088
1139.640990	0.028851
1139.797348	0.022282
1139.953688	0.017441
1140.110010	0.017165
1140.266314	0.009856
1140.422600	0.009406
1140.578867	0.009219
1140.735116	0.008374
1140.891347	0.004975
1141.047559	-0.003391
1141.203754	0.002494
1141.359930	0.002890
1141.516088	0.004400
1141.672228	0.013688
1141.828349	0.015133
1141.984452	0.013720
1142.140537	0.016181
1142.296604	0.016930
1142.452653	0.016894
1142.608683	0.019336
1142.764695	0.021917
1142.920689	0.025339
1143.076665	0.021363
1143.232622	0.020785
1143.388562	0.021660
1143.544483	0.022824
1143.700385	0.024372
1143.856270	0.029599
1144.012136	0.028987
1144.167985	0.029135
1144.323814	0.026934
1144.479626	0.027808
1144.635420	0.032139
1144.791195	0.032827
1144.946952	0.033756
1145.102691	0.036228
1145.258411	0.029698
1145.414113	0.027058
1145.569798	0.029000
1145.725463	0.025478
1145.881111	0.019389
1146.036741	0.016037
1146.192352	0.015768
1146.347945	0.016446
1146.503519	0.015506
1146.659076	0.022916
1146.814614	0.025125
1146.970134	0.015589
1147.125636	0.015193
1147.281120	0.020119
1147.436585	0.022493
1147.592032	0.025145
1147.747461	0.016953
1147.902872	0.013855
1148.058265	0.010168
1148.213639	0.010892
1148.368995	0.015904
1148.524333	0.018032
1148.679653	0.017361
1148.834954	0.020737
1148.990237	0.017917
1149.145502	0.025326
1149.300749	0.028434
1149.455977	0.031840
1149.611188	0.027740
1149.766380	0.036514
1149.921553	0.040160
1150.076709	0.039966
1150.231846	0.032902
1150.386966	0.031442
1150.542066	0.032762
1150.697149	0.034884
1150.852214	0.031394
1151.007260	0.028397
1151.162288	0.020985
1151.317298	0.017789
1151.472289	0.018255
1151.627263	0.015823
1151.782218	0.019327
1151.937155	0.015683
1152.092073	0.009064
1152.246974	0.009751
1152.401856	0.012459
1152.556720	0.015919
1152.711566	0.009988
1152.866393	0.009326
1153.021203	0.013079
1153.175994	0.006579
1153.330767	0.009003
1153.485521	0.007516
1153.640258	0.013337
1153.794976	0.009838
1153.949676	0.007528
1154.104358	0.014848
1154.259021	0.011833
1154.413667	0.013841
1154.568294	0.017882
1154.722903	0.017102
1154.877493	0.034973
1155.032066	0.027983
1155.186620	0.029505
1155.341156	0.034321
1155.495674	0.039269
1155.650173	0.038160
1155.804654	0.029924
1155.959118	0.028673
1156.113562	0.022899
1156.267989	0.014559
1156.422397	0.014960
1156.576788	0.014296
1156.731160	0.011006
1156.885513	0.002297
1157.039849	0.004972
1157.194166	0.017708
1157.348465	0.016920
1157.502746	0.029479
1157.657009	0.018007
1157.811253	0.021990
1157.965479	0.017908
1158.119687	0.017745
1158.273877	0.018376
1158.428048	0.021424
1158.582201	0.012622
1158.736337	0.012967
1158.890453	0.000531
1159.044552	0.011606
1159.198632	0.008883
1159.352694	0.014396
1159.506738	0.015144
1159.660764	0.015788
1159.814771	0.011929
1159.968761	0.008950
1160.122732	0.018485
1160.276685	0.021960
1160.430619	0.016783
1160.584535	0.014488
1160.738434	0.017609
1160.892313	0.013994
1161.046175	0.018683
1161.200019	0.019282
1161.353844	0.021850
1161.507651	0.011280
1161.661440	0.013905
1161.815210	0.019380
1161.968962	0.023457
1162.122697	0.031223
1162.276412	0.038814
1162.430110	0.036030
1162.583789	0.037774
1162.737451	0.038607
1162.891094	0.039928
1163.044718	0.040847
1163.198325	0.034768
1163.351913	0.029638
1163.505483	0.016253
1163.659035	0.010298
1163.812569	0.013393
1163.966084	0.018389
1164.119581	0.021617
1164.273060	0.020207
1164.426521	0.015714
1164.579964	0.018220
1164.733388	0.021707
1164.886794	0.020583
1165.040182	0.021359
1165.193551	0.008674
1165.346903	0.004914
1165.500236	-0.002039
1165.653551	0.004794
1165.806848	0.006137
1165.960126	0.005274
1166.113386	-0.002904
1166.266628	-0.000182
1166.419852	-0.007734
1166.573058	-0.002254
1166.726245	-0.003489
1166.879414	0.003301
1167.032565	-0.005095
1167.185698	-0.009052
1167.338812	-0.006152
1167.491909	0.005676
1167.644987	0.011197
1167.798046	0.018050
1167.951088	0.023641
1168.104111	0.019271
1168.257117	0.010799
1168.410103	0.016491
1168.563072	0.024557
1168.716023	0.014599
1168.868955	0.009303
1169.021869	0.007313
1169.174765	0.003555
1169.327642	-0.001265
1169.480501	0.008235
1169.633343	0.023391
1169.786165	0.016562
1169.938970	0.017455
1170.091757	0.032900
1170.244525	0.033041
1170.397275	0.034508
1170.550007	0.036083
1170.702720	0.035601
1170.855415	0.026150
1171.008092	0.022094
1171.160751	0.031190
1171.313392	0.029103
1171.466014	-0.013459
1171.618619	0.041158
1171.771205	0.041158
1171.923772	0.041158
