sample name	sample
index	665
start time	 03-22-2021  10:43:12 AM
880	0.336509
Peak Time (s)	182.536
Peak Height 	0.3365
calc peak height	180,183
Baseline Time (s)	8.535
Baseline Value 	-0.003746
subtract baseline	10,4
Abs	0.218104
Peak Time (s)	180.036
Peak Height 	0.2181
calc peak height	180,183
Baseline Time (s)	9.536
Baseline Value 	0.006088
subtract baseline	10,3
PK_550	0.114762
Peak Time (s)	180.036
Peak Height 	0.1148
calc peak height	180,183
Baseline Time (s)	10.536
Baseline Value 	0.001342
subtract baseline	10,2
PK_880	0.198780
Peak Time (s)	181.536
Peak Height 	0.1988
calc peak height	180,183
Baseline Time (s)	9.035
Baseline Value 	0.004765
subtract baseline	10,1


Time (s)	A880-A510	A880-A775	A880-A975	A880	I510	I775	I975	I880	
0.038000	-0.000753	-0.000887	-0.000877	-0.000456	7391.820192	45836.606260	3928.905528	24099.077263
0.536000	-0.005097	-0.000708	-0.004665	0.004487	7292.217249	45366.105852	3903.518230	23856.589291
1.036000	-0.003866	-0.000616	-0.003663	0.002227	7329.403038	45597.707296	3912.943612	23967.113066
1.536500	-0.002156	-0.000630	-0.005327	-0.000728	7379.577420	45889.215000	3916.693408	24112.510430
2.037000	-0.001248	-0.000583	-0.001178	-0.000943	7391.728787	45915.280543	3929.451066	24123.132863
2.537000	-0.004339	-0.000826	-0.004214	0.003800	7307.563959	45421.922550	3906.794613	23890.093391
3.037500	0.000041	-0.001057	-0.001980	-0.002909	7427.150595	46063.926320	3932.878018	24220.468541
3.537500	-0.001129	-0.000375	-0.001277	-0.000537	7388.619859	45895.510192	3927.969150	24103.083431
4.037000	-0.003166	-0.000127	-0.004533	-0.000537	7366.602069	45920.255207	3918.447681	24103.083492
4.538000	-0.001197	-0.000605	-0.003428	-0.000491	7387.391614	45868.089732	3921.538258	24100.831712
5.036000	-0.001407	-0.000691	-0.002095	-0.000576	7386.032239	45867.998893	3925.686553	24105.018310
5.536000	-0.002352	-0.000861	-0.000311	-0.000464	7374.602780	45840.022355	3930.593079	24099.489940
6.036000	-0.002299	-0.000469	-0.002902	-0.000433	7374.838754	45875.792522	3922.904773	24097.942021
6.536000	-0.001788	-0.001257	-0.004611	-0.000791	7384.239207	45833.183189	3918.962854	24115.652804
7.036500	-0.000001	0.000085	0.000402	-0.000150	7396.656539	45902.831736	3931.766800	24084.009514
7.537000	-0.001763	-0.000365	-0.001600	-0.000382	7380.080497	45881.104010	3926.567553	24095.449328
8.037000	-0.000747	-0.000395	0.001369	0.000068	7386.205663	45833.405499	3933.973296	24073.239567
8.535000	-0.000615	0.000068	-0.003443	0.000000	7388.372915	45886.250831	3920.061299	24076.604478
9.035000	0.000000	-0.000334	0.000024	-0.000329	7398.613756	45879.003061	3931.181446	24092.838693
9.535500	0.000164	0.001157	0.000000	0.001165	7384.193899	45878.668653	3926.722993	24019.262917
10.036000	-0.000130	-0.000869	0.002452	-0.000591	7400.054457	45851.878135	3939.122434	24105.777635
10.536000	0.000531	0.000000	-0.000073	0.000201	7398.632481	45859.516233	3929.338144	24066.722391
11.036000	-0.000704	-0.000269	-0.002417	-0.000055	7388.005613	45858.188123	3923.217995	24079.306077
11.536500	0.000886	0.001127	0.003561	0.001235	7391.258171	45868.698453	3937.000389	24015.814534
12.036500	0.000617	0.000571	-0.000551	0.001049	7390.361655	45831.932716	3925.449365	24024.973063
12.534500	-0.000135	-0.000523	0.003339	0.000214	7391.249080	45806.188781	3939.364890	24066.044246
13.034500	0.001969	0.000309	0.004453	-0.001110	7428.560910	46020.715169	3946.602849	24131.367614
13.535000	0.001037	-0.000020	-0.003187	0.000269	7403.380683	45850.674318	3920.021708	24063.331099
14.035500	0.001452	0.000022	-0.001126	0.001106	7398.795233	45771.783950	3923.597937	24022.156434
14.535500	-0.002141	0.000259	-0.000830	0.005075	7317.403751	45403.283524	3912.898305	23827.889032
15.036000	-0.000284	-0.000095	0.004630	0.000877	7382.473250	45782.982962	3941.225990	24033.444640
15.559500	0.000785	-0.000175	-0.000329	0.000357	7399.678261	45826.557836	3928.127534	24059.002318
16.036500	0.002156	0.000671	0.002048	0.000819	7409.575416	45864.747887	3933.761945	24036.292163
16.539000	-0.003918	0.000168	-0.000745	0.006654	7281.745572	45239.462352	3908.573828	23751.132175
17.037500	0.000924	0.000398	0.005918	0.000977	7394.469473	45821.904616	3944.755192	24028.514335
17.537500	0.003634	0.000499	-0.000938	-0.001356	7449.487514	46064.228116	3931.373551	24143.553937
18.037500	-0.000506	0.001281	0.003710	0.002560	7361.906142	45752.518699	3933.529043	23950.807654
18.535000	-0.000701	0.000122	-0.002641	0.005258	7330.841516	45371.882798	3907.127596	23818.992146
19.035500	-0.000332	0.000451	-0.002848	0.003010	7358.927108	45625.724191	3913.034897	23928.741198
19.535500	0.000134	0.000488	0.003183	0.003242	7361.447730	45606.486717	3929.970681	23917.388194
20.036500	-0.000735	0.000942	-0.003298	0.003496	7349.371662	45626.299165	3910.324417	23904.999879
20.536000	-0.001386	-0.000081	-0.002574	0.004446	7332.194962	45431.735902	3909.670242	23858.575785
21.037000	0.000004	0.000570	-0.002722	0.003635	7355.813980	45575.741367	3911.587993	23898.157049
21.537000	0.000244	0.001065	0.000560	0.004053	7353.907358	45583.486345	3919.915464	23877.772546
22.037000	0.000857	0.000700	0.002057	0.003929	7361.823926	45559.598563	3924.650318	23883.792825
22.537500	-0.002030	0.000399	0.000854	0.004558	7324.120534	45467.998351	3919.299452	23853.122378
23.034500	-0.000489	-0.000382	-0.000042	0.003320	7353.903059	45513.016655	3920.297593	23913.577703
23.535500	0.000416	0.000390	0.002177	0.003814	7358.332082	45540.398938	3925.341761	23889.452226
24.035000	0.001802	0.000683	0.003749	0.003870	7372.662954	45563.849222	3929.789162	23886.712394
24.535500	-0.000141	0.000891	0.001177	0.005121	7338.302340	45461.009659	3918.601847	23825.687614
25.036500	0.000771	0.001137	0.003386	0.004507	7354.680946	45545.693709	3926.850427	23855.587455
25.536500	0.000729	0.001138	0.000702	0.004440	7354.949085	45552.376447	3919.199974	23858.855835
26.037000	0.000855	0.001262	0.001291	0.004980	7350.510428	45511.410259	3919.345809	23832.560491
26.540000	-0.000754	0.000455	0.000552	0.005109	7331.860269	45419.190523	3916.813319	23826.229757
27.040000	-0.000581	0.001672	0.003128	0.005119	7333.612589	45538.055702	3924.301860	23825.753069
27.535000	0.001138	0.001269	0.005070	0.003591	7368.509136	45649.305031	3934.499899	23900.350592
28.035000	0.003300	0.001502	0.004962	0.001321	7416.557077	45897.490126	3940.892560	24011.588357
28.538000	0.002787	0.000802	0.004300	0.003060	7392.074695	45655.537308	3933.794634	23926.291306
29.041000	0.002414	0.000929	0.003110	0.003258	7385.893006	45648.469148	3929.707121	23916.594728
29.536000	0.002169	0.001455	0.004642	0.003041	7385.584747	45722.013402	3934.857980	23927.212320
30.036500	0.003127	0.002005	0.003346	0.004175	7383.687660	45664.288622	3927.707759	23871.812405
30.536500	-0.001339	0.001372	-0.003514	0.007788	7297.066540	45246.317797	3897.344288	23696.166956
31.043500	0.003076	0.000669	0.000450	0.002840	7397.598066	45664.185295	3923.135575	23937.068386
31.537000	0.000352	0.001253	0.006003	0.006864	7324.927670	45325.154917	3927.612274	23740.918568
32.037500	0.001624	0.002161	0.006378	0.005528	7352.879613	45545.967691	3932.642620	23805.829313
32.539500	-0.002439	0.001199	0.000929	0.009279	7269.622171	45083.670614	3905.829987	23624.101201
33.035500	0.000688	0.001510	0.002974	0.003718	7362.279422	45660.440413	3927.958030	23894.111808
33.535500	0.004182	0.002467	0.003697	0.004289	7393.879438	45698.650496	3928.402438	23866.222460
34.036000	0.002066	0.001411	0.002415	0.003779	7376.495420	45644.616013	3926.139223	23891.137164
34.536000	0.001336	0.002068	0.002919	0.007139	7332.516314	45378.258833	3917.796880	23727.609513
35.036500	0.001059	0.001044	0.001167	0.006264	7338.915895	45363.628290	3915.245231	23770.049971
35.536500	0.002096	0.001846	-0.001110	0.006759	7344.722820	45393.717843	3907.214388	23746.017352
36.040000	0.000491	0.001730	0.001421	0.007111	7323.778133	45347.832290	3913.524990	23728.961519
36.537000	0.000575	0.001582	0.003118	0.006918	7326.725446	45352.139822	3919.018833	23738.288649
37.034500	-0.000233	0.001350	0.002782	0.006583	7321.674963	45362.398471	3919.017181	23754.579864
37.535000	0.001696	0.001445	0.001618	0.006841	7339.555339	45346.368644	3914.880075	23742.048578
38.035500	0.001823	0.002693	0.002754	0.007855	7330.058787	45369.328019	3915.231925	23692.903059
38.535500	0.001146	0.002339	-0.000748	0.007893	7322.410161	45330.754048	3904.989026	23691.052408
39.036000	0.000199	0.000990	0.003829	0.006664	7325.427980	45319.075332	3921.835781	23750.631513
39.536500	0.001872	0.001291	0.003194	0.007399	7335.460613	45276.411910	3917.838434	23714.974808
40.036500	-0.000117	0.001598	0.004393	0.006909	7319.435822	45354.695169	3922.767269	23738.737963
40.539500	-0.000263	0.000791	0.003566	0.006888	7318.109946	45277.607927	3920.414044	23739.789222
41.037000	0.000452	0.001377	0.000220	0.007007	7324.462391	45323.348166	3910.343576	23734.002822
41.537500	0.002262	0.001555	0.005410	0.007335	7340.322751	45308.666994	3924.496083	23718.085447
42.035000	0.002608	0.001940	0.002246	0.007771	7339.360472	45303.609621	3914.002535	23696.973688
42.535000	0.001041	0.001598	0.002183	0.008039	7319.734298	45243.811834	3913.040009	23683.981656
43.035500	0.001338	0.001961	0.003214	0.007491	7328.762902	45333.145057	3917.628959	23710.521732
43.535500	0.001603	0.002264	0.002165	0.008133	7324.727665	45299.951733	3912.717389	23679.450340
44.036500	0.002900	0.002035	0.000018	0.007829	7341.874028	45307.233487	3907.384253	23694.165782
44.536500	0.001650	0.002198	0.004358	0.009364	7312.095505	45172.863046	3915.508188	23619.965659
45.039500	0.004989	0.002583	0.004548	0.005039	7394.498872	45635.994486	3928.702147	23829.672030
45.536500	0.003156	0.002110	0.008528	0.005327	7371.548497	45560.817066	3939.590132	23815.643510
46.037500	0.001894	0.001016	0.008102	0.004617	7365.596903	45522.984110	3940.430491	23850.244205
46.534500	0.000687	0.002445	0.001977	0.011758	7276.463167	44963.459838	3901.708512	23504.830701
47.034500	0.005275	0.001907	0.003133	0.005496	7392.644078	45524.140777	3923.216566	23807.417574
47.538000	0.005121	0.002441	0.007201	0.006098	7384.453195	45517.400341	3933.388458	23778.120031
48.063500	0.004475	0.002383	0.004352	0.005519	7383.726890	45568.824820	3926.718638	23806.297882
48.535500	0.000571	0.002228	0.006056	0.010994	7283.311870	45016.725181	3915.705630	23541.481780
49.040500	0.004182	0.002492	0.004706	0.008671	7346.596982	45269.565785	3918.538742	23653.462060
49.560500	0.005537	0.003353	0.006312	0.006550	7384.066919	45562.819357	3929.444525	23756.187012
50.037000	0.003523	0.002249	0.006514	0.006011	7368.135658	45507.124535	3931.623444	23782.379148
50.540000	0.001305	0.002376	0.004883	0.011587	7284.815814	44973.431761	3910.584379	23513.035161
51.034500	0.006581	0.003025	0.007863	0.004736	7415.090041	45709.681984	3939.370518	23844.413615
51.537500	0.004467	0.003017	0.008704	0.008133	7355.439810	45373.755743	3931.821575	23679.438006
52.035000	0.005285	0.002834	0.008448	0.017122	7268.375695	44482.165506	3904.893455	23249.086374
52.535500	-0.039157	-0.022880	0.103181	0.550590	3895.471007	14232.765877	3109.024660	8694.917130
53.035500	-0.025532	-0.010333	0.004830	0.084018	6344.680139	37448.639825	3717.313406	20311.258221
53.536000	-0.042796	-0.091226	-0.030225	-0.253711	10340.662364	65469.436748	4789.439879	41063.707564
54.039000	-0.042754	-0.180712	-0.024045	-0.343651	12103.417737	65535.000000	5318.632799	49898.080920
54.536500	-0.061802	-0.148409	-0.030842	-0.311348	11052.965489	65535.000000	5089.147343	46512.671432
55.037000	-0.051451	-0.141186	-0.020853	-0.304125	11113.443411	65535.000000	5104.713686	45789.510249
55.534500	-0.043976	-0.104321	-0.021033	-0.267259	10561.859162	65535.000000	4904.270182	42280.325205
56.034500	-0.024280	-0.113432	-0.025372	-0.276371	11102.146613	65535.000000	4929.145681	43120.102604
56.540500	-0.012993	-0.107120	-0.023378	-0.270059	11199.150078	65535.000000	4906.629570	42536.523775
57.035500	-0.012491	-0.084997	-0.020819	-0.247936	10785.576087	65535.000000	4807.372375	40556.521108
57.535500	-0.014628	-0.054650	-0.017680	-0.208071	10038.719013	64173.009606	4632.697248	37233.632910
58.036000	-0.015100	-0.036878	-0.011556	-0.178264	9543.418798	62493.050510	4527.647017	34941.035065
58.539000	-0.012674	-0.020555	-0.010096	-0.133512	8906.418947	58704.498727	4349.811218	31781.211784
59.036500	-0.014824	-0.015283	-0.009803	-0.100005	8415.935611	55179.596469	4224.899103	29619.631375
59.536500	-0.013413	-0.012585	-0.002036	-0.074500	8106.578324	52494.952842	4162.002020	28082.527024
60.037000	-0.008963	-0.009129	-0.004216	-0.052282	7889.206037	50389.822228	4079.580615	26815.173769
60.537500	-0.007307	-0.006981	0.001963	-0.029348	7640.314270	48161.297015	4025.601985	25573.210767
61.040000	-0.008984	-0.005586	0.003768	-0.008917	7394.320754	46211.883669	3967.990097	24520.690986
61.535000	-0.006201	-0.003502	0.006338	0.006946	7254.557337	44853.177186	3928.355789	23736.955897
62.035500	-0.001582	-0.001257	0.009114	0.021109	7155.212849	43712.280800	3895.360039	23061.018774
62.536000	0.010193	0.003797	0.017437	0.033216	7151.790968	43051.587613	3884.583101	22500.388936
63.039000	0.014361	0.005344	0.012984	0.031729	7210.348432	43334.521177	3876.202508	22568.408572
63.615500	0.017970	0.007265	0.021610	0.029605	7270.499912	43714.780079	3906.853518	22665.996956
64.036500	0.018899	0.007356	0.020957	0.032510	7249.678746	43449.879000	3896.622566	22532.670801
64.536000	0.020530	0.008158	0.017432	0.034371	7247.258275	43350.623203	3881.300176	22447.737698
65.069000	0.024422	0.009386	0.020719	0.033999	7292.287310	43500.604651	3891.689358	22464.669121
65.542000	0.023584	0.008361	0.022108	0.035010	7272.713608	43309.837705	3892.768041	22418.667961
66.037500	0.025500	0.010788	0.028050	0.039517	7245.415389	43115.851796	3896.870135	22214.781887
66.538000	0.023271	0.011360	0.024826	0.047405	7140.375837	42440.743986	3865.453214	21862.981306
67.035500	0.027625	0.011600	0.025268	0.045412	7205.986061	42645.610906	3872.268043	21951.255010
67.536000	0.027118	0.012265	0.026864	0.047851	7175.414433	42482.811598	3869.907294	21843.286733
68.036500	0.029128	0.013062	0.035491	0.051178	7161.805863	42251.735926	3884.844629	21696.957173
68.536500	0.031026	0.014351	0.035986	0.055399	7137.923201	41985.684955	3874.325019	21512.946363
69.039500	0.033768	0.015348	0.039948	0.058091	7138.434924	41832.572362	3877.898546	21396.491049
69.537000	0.036567	0.016565	0.036763	0.061665	7130.496567	41620.866111	3858.988428	21243.022572
70.039500	0.036299	0.017119	0.035737	0.064983	7093.926061	41373.950073	3846.985628	21101.643412
70.537500	0.036511	0.017787	0.039381	0.072001	7025.357061	40812.673873	3837.750630	20806.220333
71.035000	0.039059	0.018797	0.041074	0.071669	7054.235956	40930.612550	3843.284978	20820.068399
71.535000	0.041081	0.020598	0.044622	0.074687	7044.225803	40823.600166	3844.737441	20694.362508
72.038500	0.043087	0.020751	0.045455	0.076333	7047.850012	40692.789906	3842.510961	20626.198842
72.536000	0.041788	0.021050	0.037563	0.083051	6968.031399	40135.444130	3803.169509	20350.583892
73.036000	0.046010	0.022622	0.045613	0.079909	7041.284666	40543.967981	3833.186554	20478.936994
73.536500	0.048825	0.023510	0.050430	0.082209	7046.457632	40421.114774	3840.046981	20384.887957
74.037000	0.052795	0.025144	0.053239	0.084845	7059.882156	40334.273909	3840.519345	20277.701354
74.542500	0.049165	0.025173	0.048430	0.091568	6956.797399	39758.700512	3809.408141	20007.218847
75.037500	0.053443	0.027406	0.054962	0.088640	7028.282486	40201.681562	3834.868391	20124.502791
75.534500	0.053132	0.026886	0.058380	0.089576	7015.825232	40076.075143	3841.639496	20086.909197
76.035500	0.057569	0.027960	0.054464	0.092014	7035.816139	39958.970902	3824.378389	19989.419056
76.538000	0.054814	0.028407	0.057016	0.097876	6950.320198	39497.284797	3815.486891	19757.215559
77.036000	0.057211	0.029795	0.059215	0.096059	6991.919990	39769.863324	3826.285020	19828.857418
77.539000	0.059807	0.030213	0.060606	0.097759	7000.813759	39660.590798	3825.449258	19761.805532
78.036000	0.060338	0.030323	0.061710	0.100389	6979.996001	39446.701054	3821.337697	19658.607803
78.536500	0.059516	0.031025	0.062316	0.107285	6904.324783	38926.490596	3804.544442	19390.995526
79.036500	0.062319	0.032607	0.067782	0.103852	6965.366356	39347.147891	3828.377991	19523.705813
79.537000	0.066250	0.032872	0.064693	0.105856	6984.401111	39200.714978	3814.675916	19446.091807
80.040000	0.064936	0.034064	0.069658	0.109622	6934.397979	38985.107582	3817.888883	19301.274850
80.534500	0.063903	0.034445	0.070943	0.114810	6873.936065	38585.705030	3807.467771	19103.757659
81.035000	0.067387	0.035090	0.067650	0.111946	6935.639514	38876.829766	3806.328236	19212.509565
81.535000	0.068891	0.035538	0.076629	0.113304	6937.064059	38801.075724	3826.740703	19160.840251
82.036000	0.067178	0.035429	0.070631	0.116515	6889.118937	38526.259523	3802.120502	19039.390408
82.536000	0.067578	0.036212	0.074557	0.123086	6829.784426	38051.958258	3795.144674	18793.572359
83.037000	0.073269	0.038105	0.081408	0.120215	6912.326531	38441.811425	3820.993439	18900.504508
83.536000	0.071281	0.037298	0.081320	0.120820	6887.159546	38325.879543	3819.133525	18877.926048
84.038000	0.073809	0.037640	0.078526	0.124862	6872.528666	38023.663352	3800.925677	18727.765574
84.537500	0.073260	0.038740	0.076999	0.129361	6824.121970	37748.333957	3785.111163	18562.276427
85.035000	0.075398	0.039957	0.085377	0.126824	6868.934052	38052.513163	3813.918579	18655.383850
85.537000	0.078136	0.040701	0.083753	0.129229	6872.144317	37917.640661	3803.201217	18567.115554
86.035500	0.077389	0.041459	0.081096	0.133584	6823.222440	37627.118182	3784.782243	18408.484495
86.536000	0.079328	0.041018	0.086976	0.132170	6855.312439	37705.452582	3803.948329	18459.818227
87.036000	0.080384	0.042140	0.087831	0.134224	6845.730756	37630.385338	3800.773835	18385.299127
87.535500	0.081897	0.043295	0.088102	0.136331	6840.053132	37553.998845	3795.934545	18309.264026
88.036500	0.080763	0.043509	0.084657	0.141046	6784.450886	37194.640832	3774.665642	18140.388703
88.536500	0.083710	0.044592	0.090976	0.140182	6820.590007	37349.665480	3793.365459	18171.190571
89.037000	0.083917	0.045158	0.094936	0.142041	6804.876982	37246.632282	3798.893110	18104.966176
89.534500	0.087338	0.047394	0.099699	0.144949	6809.751522	37193.219282	3803.799275	18001.979941
90.038000	0.087018	0.047480	0.102313	0.146522	6791.803259	37075.327353	3806.560088	17946.529976
90.535000	0.088706	0.047262	0.100298	0.147436	6799.130137	36985.871961	3798.807833	17914.409640
91.035500	0.089218	0.048022	0.100869	0.149470	6784.733997	36885.393487	3794.954134	17843.174684
91.535000	0.089772	0.048261	0.096585	0.151285	6772.849633	36761.663215	3779.033016	17779.904594
92.036000	0.088228	0.049331	0.097710	0.157354	6701.789508	36371.788735	3766.288733	17570.205136
92.536000	0.091068	0.049435	0.101956	0.155081	6749.374393	36556.603429	3783.123833	17648.408453
93.037000	0.094812	0.051313	0.101700	0.158240	6754.857990	36456.915994	3774.273753	17539.850566
93.536500	0.092715	0.051224	0.103922	0.159429	6724.167634	36357.708263	3776.943952	17499.190883
94.037500	0.091889	0.052069	0.104758	0.166316	6653.051084	35892.826505	3761.398197	17265.904935
94.537500	0.093913	0.051456	0.103673	0.167859	6657.444533	35728.512831	3754.711026	17214.136447
95.035000	0.096593	0.052824	0.108265	0.164784	6710.449575	36067.991234	3774.326857	17317.454889
95.534500	0.097538	0.053428	0.112484	0.166987	6698.809191	35945.408951	3779.544368	17243.365130
96.035500	0.096251	0.054350	0.111082	0.173946	6623.284518	35486.548751	3758.068176	17011.682451
96.535500	0.096820	0.054603	0.107998	0.176880	6601.899552	35284.807171	3742.865095	16915.144600
97.036000	0.100179	0.055690	0.113838	0.173007	6667.688684	35659.071121	3767.508879	17042.748940
97.536000	0.104379	0.056924	0.116392	0.175306	6685.172754	35578.371091	3768.163209	16966.869745
98.037000	0.099587	0.055951	0.112465	0.180942	6590.236983	35081.882227	3743.882997	16782.529730
98.537000	0.102860	0.057730	0.117424	0.184347	6589.039273	34960.829710	3747.791160	16672.294397
99.039500	0.105400	0.057564	0.119902	0.179996	6651.503266	35273.171925	3765.138078	16813.306875
99.535000	0.108484	0.059608	0.122635	0.182491	6656.886168	35239.322750	3765.745965	16732.266895
100.035000	0.105128	0.059201	0.119510	0.188747	6569.924477	34744.065262	3741.975677	16531.165386
100.535000	0.106289	0.059981	0.114376	0.192182	6549.624075	34548.799162	3720.703916	16421.957185
101.035500	0.110188	0.061262	0.123564	0.188261	6619.865947	34932.475807	3753.417773	16546.689545
101.535500	0.110569	0.061193	0.123672	0.189695	6610.328485	34821.140071	3750.061673	16500.931254
102.036500	0.107788	0.060145	0.124020	0.196034	6528.741050	34279.514726	3735.036738	16300.523135
102.536000	0.107372	0.061282	0.126618	0.198305	6505.018520	34197.121562	3735.849744	16229.416652
103.037000	0.113029	0.062546	0.129863	0.194983	6584.844396	34531.437452	3752.345028	16333.543391
103.540000	0.113911	0.063629	0.130016	0.196826	6576.215902	34475.815837	3748.075617	16275.672595
104.035000	0.113097	0.064024	0.128178	0.203654	6508.325181	34008.631493	3726.445173	16063.431386
104.535000	0.112252	0.063898	0.124730	0.206001	6480.330599	33830.933885	3712.222124	15991.272231
105.035500	0.117505	0.064796	0.136644	0.202153	6560.727093	34172.921931	3751.359815	16109.820103
105.536000	0.119055	0.064846	0.132011	0.203924	6558.750903	34048.510521	3735.288506	16055.135482
106.036000	0.115482	0.066585	0.133102	0.211793	6457.999461	33609.212608	3718.531539	15814.789277
106.536500	0.118846	0.066143	0.130993	0.212526	6480.930615	33525.651662	3711.583872	15792.611373
107.036500	0.120245	0.067129	0.137603	0.208596	6527.799868	33876.494954	3737.581174	15911.892312
107.536000	0.122114	0.068008	0.141872	0.211446	6519.130266	33735.379756	3741.129758	15825.278663
108.039500	0.120247	0.067568	0.137556	0.218427	6441.780692	33209.627462	3713.196216	15615.497177
108.537000	0.120106	0.068010	0.140366	0.219481	6431.450817	33166.647228	3717.489744	15584.116285
109.034500	0.124082	0.068764	0.144615	0.216238	6494.270601	33448.324899	3736.009023	15680.918031
109.535500	0.124250	0.069275	0.142805	0.217195	6487.355196	33416.785744	3729.133568	15652.280341
110.035500	0.126579	0.070998	0.145827	0.220025	6482.971728	33338.608668	3729.607584	15567.959707
110.535500	0.127602	0.070861	0.146608	0.221342	6480.408812	33236.259264	3728.282847	15528.923716
111.036000	0.127534	0.071906	0.144735	0.222956	6465.719778	33196.212400	3719.683622	15481.198514
111.536000	0.131197	0.071892	0.143955	0.224664	6482.792424	33075.577897	3713.592547	15430.923466
112.036500	0.126895	0.072236	0.143501	0.232465	6378.379025	32558.577998	3693.628085	15203.760614
112.540000	0.131392	0.072978	0.150473	0.227686	6458.141955	32940.471073	3722.163213	15342.433028
113.037000	0.130017	0.073378	0.151756	0.229404	6431.352000	32848.812523	3721.092723	15292.393906
113.537500	0.132858	0.074165	0.156461	0.230943	6442.606554	32796.696011	3728.903729	15247.742010
114.035000	0.129720	0.074384	0.153631	0.238872	6348.038431	32267.224433	3702.586372	15020.209973
114.535500	0.133046	0.075234	0.157608	0.238488	6379.468481	32351.283704	3713.173305	15031.114654
115.035500	0.138314	0.076381	0.155397	0.236633	6440.588960	32557.011079	3712.308674	15084.047684
115.535500	0.134638	0.076625	0.158945	0.238088	6396.461629	32473.826107	3717.423781	15042.519334
116.036000	0.134698	0.077917	0.156987	0.246466	6326.023211	31992.074593	3692.395614	14806.122145
116.536500	0.136358	0.077766	0.157781	0.241011	6386.181163	32351.943530	3707.453531	14959.509793
117.039500	0.137381	0.077687	0.162010	0.242020	6386.310712	32277.774351	3715.300910	14931.001002
117.537000	0.138235	0.078588	0.164840	0.243879	6377.752032	32212.579967	3717.676978	14878.632914
118.037500	0.137665	0.079272	0.157227	0.251153	6311.631121	31768.263464	3681.809438	14675.854769
118.534500	0.138515	0.078632	0.164735	0.246045	6361.742853	32068.794669	3712.125727	14817.895195
119.035000	0.143079	0.079624	0.160623	0.248573	6379.027708	31965.108036	3696.060288	14747.384004
119.535500	0.142681	0.079812	0.164354	0.249270	6369.722466	31930.820558	3703.371062	14728.018910
120.035000	0.140006	0.079839	0.162116	0.256412	6287.340740	31455.933827	3680.934893	14531.345539
120.536000	0.144993	0.082054	0.165794	0.253408	6354.261080	31803.501943	3696.868113	14613.674951
121.036500	0.142556	0.080976	0.165258	0.253650	6331.686605	31715.237259	3695.000608	14607.026171
121.539000	0.144013	0.082100	0.169480	0.255647	6327.149031	31656.951898	3700.349597	14552.255154
122.036500	0.141328	0.082061	0.164604	0.262336	6249.353645	31211.853125	3672.832974	14370.632112
122.537000	0.146842	0.083762	0.170747	0.259314	6320.121717	31523.542107	3694.579266	14452.333564
123.037500	0.145499	0.083155	0.166446	0.259757	6305.205651	31453.980334	3683.266635	14440.332897
123.534000	0.148207	0.084136	0.167788	0.261342	6314.575223	31414.037750	3682.689389	14397.446134
124.035500	0.145686	0.083564	0.163891	0.267636	6241.631203	30963.693353	3658.815939	14228.718898
124.536000	0.146169	0.084548	0.173231	0.268647	6237.303467	30961.952209	3678.286760	14201.844477
125.035500	0.146694	0.084772	0.177713	0.264854	6272.811395	31224.559106	3698.006218	14303.005959
125.536500	0.151501	0.085810	0.170559	0.266410	6299.780949	31190.550042	3677.260837	14261.399699
126.039500	0.150950	0.085567	0.175102	0.267119	6289.302404	31128.141299	3686.338725	14242.481269
126.536000	0.148708	0.086104	0.167045	0.274252	6212.311338	30699.736500	3650.831452	14053.969733
127.036500	0.149033	0.085464	0.174611	0.269212	6256.169788	30984.831475	3680.211966	14186.853165
127.537000	0.152178	0.087138	0.173918	0.271340	6264.535973	30955.229388	3673.561908	14130.547525
128.035000	0.153356	0.087869	0.171054	0.272810	6262.136007	30907.217233	3663.431863	14091.823769
128.535000	0.154436	0.087995	0.178356	0.273654	6264.079044	30860.649278	3678.564384	14069.647729
129.035500	0.153264	0.088043	0.176929	0.274562	6246.974480	30804.958960	3673.068665	14045.851304
129.535500	0.154308	0.088889	0.180483	0.276149	6242.521444	30757.007285	3677.697051	14004.342294
130.036000	0.155524	0.089164	0.181623	0.276502	6249.605381	30752.037547	3679.556431	13995.147249
130.539000	0.155534	0.090362	0.178563	0.278336	6234.654136	30710.910903	3668.054087	13947.404389
131.036500	0.155286	0.090387	0.178140	0.279638	6222.004189	30628.698264	3664.031866	13913.650134
131.536500	0.159522	0.090980	0.184463	0.280742	6247.618519	30595.904462	3676.251800	13885.121035
132.037000	0.158312	0.091725	0.178552	0.285255	6200.958659	30354.977352	3651.988940	13769.170470
132.534500	0.156379	0.090495	0.180567	0.286700	6173.705501	30185.189060	3653.302179	13732.299801
133.035000	0.159481	0.091457	0.183182	0.283561	6224.222481	30445.865078	3666.637841	13812.541893
133.535000	0.160920	0.091818	0.184564	0.285012	6224.125146	30376.368162	3666.479612	13775.381911
134.035500	0.157901	0.091142	0.182791	0.289304	6165.023299	30061.638362	3652.426291	13666.168929
134.535500	0.157394	0.092963	0.181530	0.291051	6147.002802	30066.315422	3645.530919	13622.034360
135.038500	0.160998	0.093147	0.194964	0.287487	6204.641960	30303.469670	3685.136825	13712.276183
135.536500	0.161997	0.093389	0.183795	0.288319	6205.991552	30265.988444	3657.013812	13691.140419
136.036500	0.160516	0.094548	0.181117	0.294569	6143.842192	29944.727207	3636.589847	13533.661566
136.533500	0.160798	0.095420	0.188062	0.295221	6140.900512	29958.538183	3650.941138	13517.369444
137.037500	0.161449	0.094380	0.188429	0.291600	6175.073127	30120.986365	3660.144584	13608.188907
137.535000	0.165370	0.095600	0.188794	0.292963	6195.694534	30111.965298	3657.834255	13573.904753
138.034500	0.161557	0.094531	0.183158	0.297383	6129.745368	29767.777388	3634.840463	13463.498803
138.535500	0.161525	0.095277	0.187166	0.297320	6129.997252	29818.217338	3644.085221	13465.072560
139.035500	0.165392	0.096542	0.187345	0.295042	6179.101892	30040.309333	3649.707014	13521.838886
139.538500	0.165655	0.096354	0.193079	0.296296	6171.143425	29949.718679	3660.040526	13490.560538
140.036500	0.164737	0.096518	0.191740	0.301839	6119.636745	29614.342802	3644.210313	13353.316919
140.536500	0.166671	0.097913	0.187434	0.302194	6132.153931	29678.858976	3633.631574	13344.580453
141.036000	0.167432	0.097665	0.192040	0.298893	6164.557180	29869.187858	3651.644837	13426.043276
141.536500	0.169751	0.098579	0.195167	0.300680	6168.828047	29814.606179	3654.730147	13381.868037
142.037500	0.165458	0.098629	0.190749	0.305254	6098.386861	29533.629057	3634.207994	13269.631561
142.535000	0.167417	0.098362	0.193070	0.305215	6114.137337	29519.551624	3639.553369	13270.586410
143.035000	0.168377	0.098403	0.191258	0.302291	6144.951807	29703.290456	3642.082709	13342.213833
143.535000	0.169391	0.097712	0.195768	0.302010	6155.291020	29677.840152	3653.051392	13349.124103
144.038500	0.169414	0.099053	0.193832	0.306212	6122.046790	29500.685894	3639.018503	13246.282075
144.535500	0.170419	0.099769	0.199126	0.308759	6109.859010	29387.994362	3645.275243	13184.446805
145.036000	0.172269	0.099867	0.197781	0.305714	6148.692719	29581.737142	3649.164780	13258.415156
145.536500	0.172176	0.100390	0.191935	0.307401	6134.526328	29509.872270	3632.041314	13217.379770
146.037000	0.172682	0.100046	0.192587	0.309543	6121.549593	29356.876976	3628.687401	13165.483222
146.537000	0.172021	0.100437	0.195876	0.311057	6104.374474	29288.034812	3632.684300	13128.962571
147.034000	0.172086	0.099722	0.200960	0.307694	6131.476739	29450.569055	3651.917710	13210.255952
147.535000	0.173886	0.100812	0.199297	0.310073	6126.889609	29371.334446	3642.667236	13152.688218
148.035000	0.171516	0.100230	0.197319	0.309821	6110.135499	29351.101550	3638.743823	13158.770461
148.538000	0.171989	0.101558	0.199018	0.315596	6068.560658	29079.613790	3629.536246	13020.206639
149.036000	0.173639	0.102362	0.197755	0.312465	6106.026989	29319.679766	3633.746975	13095.106918
149.535500	0.176189	0.103128	0.197092	0.313212	6120.258105	29320.833815	3630.566473	13077.171704
150.036500	0.174141	0.101466	0.195761	0.315748	6084.188997	29064.790527	3621.905107	13016.596209
150.536500	0.173371	0.102956	0.199075	0.318511	6056.630741	28987.662781	3623.133602	12950.974537
151.037500	0.176346	0.103182	0.201184	0.314984	6107.515567	29215.759177	3635.802454	13034.813458
151.537500	0.178664	0.103496	0.199393	0.315108	6124.848249	29227.380635	3631.479405	13031.852111
152.035000	0.176903	0.104287	0.200852	0.319246	6078.425056	29023.746317	3625.462711	12933.578578
152.535000	0.175594	0.103702	0.201529	0.320875	6055.534614	28889.869989	3623.334504	12895.151238
153.038000	0.177791	0.103388	0.197854	0.316222	6109.145206	29152.890745	3625.522132	13005.312333
153.535500	0.182700	0.105779	0.203602	0.319048	6125.610078	29126.316054	3632.084366	12938.261050
154.036000	0.180912	0.104766	0.205089	0.320245	6102.037800	28992.256766	3632.740503	12910.012031
154.535500	0.178388	0.104840	0.199843	0.324050	6052.581076	28767.369152	3612.537580	12820.676146
155.036000	0.183075	0.105871	0.207604	0.319959	6121.363471	29076.567259	3639.074774	12916.738661
155.537000	0.180957	0.105625	0.205035	0.320244	6102.399914	29044.350481	3632.619232	12910.026710
156.037000	0.182298	0.107070	0.208093	0.323095	6090.529978	28959.219504	3633.087911	12843.030234
156.534500	0.179654	0.105651	0.203378	0.325475	6051.349323	28730.547549	3617.209844	12787.428029
157.035000	0.185451	0.106830	0.207753	0.322049	6123.624402	29007.968610	3634.680047	12867.544742
157.537500	0.187039	0.108515	0.211516	0.323116	6127.758605	29045.413947	3640.789903	12842.523798
158.035000	0.183060	0.106417	0.200301	0.323446	6093.757437	28898.619179	3614.886519	12834.805047
158.536000	0.187813	0.107950	0.199872	0.322545	6138.443430	29045.796439	3615.931619	12855.917226
159.036000	0.184064	0.107550	0.200968	0.322782	6106.881558	29007.208918	3617.837510	12850.363591
159.536500	0.183418	0.107558	0.203179	0.322588	6103.314662	29019.427872	3623.192197	12854.895387
160.037000	0.184656	0.107961	0.204934	0.325410	6090.869118	28873.246438	3620.812979	12788.931550
160.537000	0.185550	0.108393	0.203712	0.326790	6087.050685	28816.154951	3615.032801	12756.826497
161.034500	0.188686	0.108331	0.202236	0.323911	6134.514618	28986.126607	3618.144569	12823.917091
161.535000	0.187699	0.108724	0.202433	0.324262	6123.905240	28988.641615	3617.804442	12815.720904
162.038000	0.188566	0.109103	0.209741	0.325382	6121.908693	28943.886820	3631.647394	12789.600210
162.535500	0.185805	0.108559	0.203350	0.324349	6108.247405	28973.409603	3619.649776	12813.687484
163.035500	0.187983	0.108764	0.201733	0.324726	6122.481980	28963.010401	3615.222515	12804.887457
163.536000	0.187971	0.109641	0.202914	0.325402	6117.039392	28975.164663	3616.340566	12789.126172
164.036500	0.190628	0.109674	0.210543	0.326168	6132.023345	28930.882448	3631.682855	12771.296869
164.536500	0.188132	0.109262	0.207649	0.324856	6122.630254	28985.270308	3628.123753	12801.854156
165.036500	0.192229	0.110663	0.210055	0.326353	6143.284420	28979.505246	3630.166528	12766.997295
165.537000	0.191471	0.110868	0.206776	0.326591	6135.359255	28977.489606	3622.288509	12761.461196
166.034500	0.191264	0.111600	0.207351	0.328448	6118.991915	28909.514985	3619.431436	12718.405320
166.538000	0.192105	0.112070	0.212902	0.327714	6131.475701	28982.252360	3633.514589	12735.403490
167.035000	0.192054	0.111197	0.206996	0.326838	6138.023062	28982.411718	3622.225696	12755.716940
167.535500	0.192496	0.111321	0.214118	0.327449	6136.682710	28952.964357	3636.863098	12741.541113
168.036000	0.192939	0.111096	0.207332	0.328337	6133.147584	28885.780610	3619.636711	12720.969212
168.536000	0.191762	0.111845	0.208639	0.331820	6096.333495	28721.488140	3614.805976	12640.674390
169.036500	0.193325	0.111366	0.213866	0.327567	6142.343337	28948.560694	3636.027249	12738.810515
169.536500	0.192604	0.111756	0.209068	0.327787	6134.850595	28958.831684	3624.735498	12733.702642
170.037000	0.192851	0.111799	0.208391	0.328705	6129.533801	28906.029877	3621.175415	12712.466924
170.537500	0.193285	0.111394	0.212226	0.327253	6144.524622	28969.222591	3633.030658	12746.086779
171.037500	0.194468	0.112391	0.214198	0.328572	6143.439859	28949.790897	3634.505586	12715.537855
171.535000	0.194621	0.112681	0.206032	0.328653	6144.018976	28962.458682	3616.047399	12713.666628
172.035500	0.195005	0.113116	0.211666	0.329919	6136.991315	28912.240657	3625.778790	12684.422632
172.535500	0.192771	0.113488	0.209710	0.331696	6105.244013	28827.558768	3617.455226	12643.531781
173.036000	0.195814	0.113779	0.213390	0.330212	6141.101505	28934.593601	3628.987850	12677.670224
173.536500	0.195912	0.113113	0.212223	0.329367	6148.610404	28945.349458	3628.265904	12697.158322
174.036500	0.194906	0.112464	0.209951	0.329475	6139.740204	28899.703775	3622.936676	12694.668667
174.537000	0.193368	0.113786	0.211007	0.329650	6126.130497	28968.970051	3624.906276	12690.627276
175.037000	0.195012	0.112320	0.207841	0.329343	6141.628496	28898.925498	3618.529555	12697.708827
175.537000	0.192841	0.114062	0.217996	0.329898	6120.001576	28970.643463	3640.105896	12684.917008
176.035000	0.196443	0.113784	0.208768	0.331255	6137.807691	28871.947039	3616.342890	12653.665521
176.535000	0.195216	0.113290	0.214881	0.333628	6109.289379	28699.746150	3624.672237	12599.253006
177.038500	0.196177	0.113955	0.211762	0.330914	6138.397332	28902.825966	3623.767636	12661.505856
177.535500	0.197169	0.114114	0.210700	0.330783	6147.341002	28920.315886	3621.687972	12664.514311
178.036000	0.197475	0.113633	0.213435	0.331132	6147.006557	28870.233801	3627.025170	12656.492712
178.536000	0.194187	0.114216	0.209788	0.335204	6088.800238	28660.848373	3609.868946	12563.287374
179.036500	0.196759	0.114242	0.211683	0.331210	6140.675407	28902.250827	3622.929016	12654.692324
179.536500	0.196570	0.115047	0.216178	0.332777	6126.724733	28856.357676	3629.489132	12618.732107
180.036500	0.197591	0.114762	0.218104	0.332286	6138.737212	28868.790828	3634.938650	12629.995017
180.535000	0.195507	0.113940	0.208997	0.334613	6103.821445	28679.725987	3609.428359	12576.759103
181.035000	0.195235	0.113956	0.214242	0.331702	6124.666179	28855.392135	3627.556955	12643.396358
181.535500	0.198780	0.114662	0.212461	0.331739	6152.574296	28895.734405	3623.487551	12642.553889
182.035500	0.197068	0.114353	0.214276	0.332590	6132.161688	28825.818943	3625.642199	12623.009754
182.536000	0.194753	0.114697	0.213347	0.336509	6083.010951	28611.651682	3614.846617	12533.600861
183.036000	0.197953	0.115064	0.214362	0.332499	6139.920989	28874.122018	3626.038529	12625.100808
183.536500	0.196798	0.114724	0.217298	0.333109	6125.907072	28816.952876	3631.263097	12611.143577
184.037000	0.198250	0.115529	0.213115	0.333437	6134.821988	28845.616650	3621.156256	12603.626520
184.540000	0.196668	0.115106	0.217046	0.336858	6095.289989	28615.236015	3622.292864	12525.676634
185.037500	0.199452	0.116106	0.213240	0.333872	6140.917261	28854.146332	3620.466397	12593.674763
185.534500	0.198090	0.115962	0.219692	0.333602	6132.236690	28861.758978	3635.553164	12599.848512
186.038000	0.196787	0.115468	0.212555	0.333352	6123.892295	28847.100126	3620.097644	12605.572314
186.535500	0.196031	0.114419	0.216607	0.337314	6086.722909	28547.162772	3620.300956	12515.352901
187.036000	0.199346	0.116261	0.216051	0.334216	6137.342807	28842.820719	3625.976766	12585.834489
187.536000	0.197075	0.114322	0.210604	0.332529	6132.697474	28827.622654	3617.589339	12624.414246
188.040000	0.198899	0.116202	0.216997	0.334279	6133.293587	28835.477642	3627.955833	12584.391251
188.537000	0.195540	0.114774	0.216454	0.337300	6082.991336	28569.154446	3619.990729	12515.667334
