sample name	sample
index	706
start time	 03-25-2021  10:45:32 AM
880	0.020747
Peak Time (s)	180.036
Peak Height 	0.02075
calc peak height	180,183
Baseline Time (s)	9.537
Baseline Value 	-0.004992
subtract baseline	10,4
Abs	0.006046
Peak Time (s)	181.037
Peak Height 	0.006046
calc peak height	180,183
Baseline Time (s)	9.04
Baseline Value 	0.004959
subtract baseline	10,3
PK_550	0.003451
Peak Time (s)	180.537
Peak Height 	0.003451
calc peak height	180,183
Baseline Time (s)	8.537
Baseline Value 	7.1339E-4
subtract baseline	10,2
PK_880	0.002491
Peak Time (s)	181.537
Peak Height 	0.002491
calc peak height	180,183
Baseline Time (s)	11.536
Baseline Value 	0.003724
subtract baseline	10,1


Time (s)	A880-A510	A880-A775	A880-A975	A880	I510	I775	I975	I880	
0.034500	0.000798	0.000338	-0.003119	0.001059	7193.297823	44375.644196	3867.181631	23502.975658
0.537500	-0.002674	-0.000338	-0.004237	0.003990	7128.141069	44031.590375	3856.463598	23363.280443
1.035000	-0.004053	0.000503	-0.007225	0.006729	7086.739899	43851.698415	3841.470147	23233.570486
1.538000	-0.000180	0.000407	-0.004400	0.000441	7189.608741	44441.566575	3865.421351	23532.569642
2.035500	-0.000550	-0.000613	-0.000388	-0.000693	7197.434743	44452.474923	3879.166633	23586.916007
2.535500	-0.002640	-0.000571	-0.003708	-0.000796	7177.087898	44466.313896	3870.553293	23591.860816
3.036000	-0.003552	-0.000340	-0.005134	0.004819	7110.930425	43952.713136	3851.924018	23323.941056
3.536500	-0.000384	0.000134	-0.000445	-0.000194	7194.016468	44476.311399	3877.673528	23562.981845
4.036500	-0.001428	-0.000115	-0.001765	-0.000218	7183.577797	44454.756690	3874.202853	23564.160675
4.536500	0.000570	-0.000497	-0.001605	-0.000637	7208.365523	44458.202376	3875.750887	23584.256071
5.037500	-0.001297	0.000507	-0.001251	0.000198	7180.663884	44474.402309	3874.463263	23544.183410
5.535000	-0.000111	-0.000228	-0.003099	-0.000116	7196.024477	44434.109313	3870.366214	23559.269566
6.035000	-0.001148	0.000188	-0.000506	-0.000158	7185.824448	44478.059501	3877.413497	23561.265539
6.535000	-0.000125	0.000505	-0.002231	0.000296	7191.660723	44464.910456	3871.583881	23539.523798
7.035500	-0.001614	0.000934	-0.001782	0.000465	7174.698851	44489.873953	3872.330098	23531.419811
7.536000	0.000085	0.000092	-0.000151	0.000027	7196.560361	44450.997288	3877.869764	23552.389977
8.036000	-0.000051	-0.000345	-0.002805	-0.000238	7197.884903	44434.521029	3871.473817	23565.089747
8.536500	0.000124	0.000000	-0.001456	-0.000174	7199.024707	44461.486835	3874.909410	23562.025522
9.040000	-0.000061	-0.000816	0.000000	-0.000394	7199.386821	44404.319341	3879.407505	23572.596279
9.537000	0.000090	0.000047	-0.003615	0.000000	7196.892930	44449.272697	3868.680762	23553.686511
10.037000	-0.002315	-0.000075	0.000151	0.000041	7171.867252	44433.675002	3878.643334	23551.731842
10.537500	0.000748	-0.000019	-0.003927	0.000108	7202.538982	44432.600275	3867.562865	23548.521127
11.035000	-0.000571	0.000881	0.000697	0.000437	7185.642576	44487.425742	3879.046877	23532.752082
11.535500	0.000000	0.000609	0.001901	-0.000096	7196.959236	44512.572145	3883.723651	23558.308340
12.035500	0.001402	0.000978	0.000037	0.000477	7205.463814	44492.868885	3877.166307	23530.825054
12.536000	0.000216	-0.000928	-0.005508	-0.001088	7209.358040	44460.109323	3866.538129	23605.891383
13.036000	0.001126	-0.000043	0.002138	-0.002132	7229.513230	44645.770557	3889.871532	23656.167661
13.539500	-0.001466	-0.000685	-0.001907	-0.001638	7197.736085	44536.327357	3877.625518	23632.376743
14.036500	-0.000242	0.000482	0.003169	-0.000268	7196.245580	44516.896504	3887.615822	23566.560778
14.537500	-0.000250	0.000347	0.002127	0.002879	7163.989322	44202.627603	3876.330681	23416.125785
15.034500	-0.000703	0.000515	-0.002859	0.001424	7174.205606	44357.672430	3866.901615	23485.521286
15.570000	-0.000790	-0.000259	0.001084	-0.001384	7202.071726	44552.883250	3884.995490	23620.163589
16.035500	0.000648	0.000045	-0.004563	-0.000744	7210.269329	44520.554649	3868.137099	23589.380365
16.535500	0.000665	-0.000299	-0.003483	-0.001310	7216.268504	44541.847349	3872.526645	23616.566096
17.039000	-0.002208	0.000572	-0.002755	0.000957	7163.624737	44407.864838	3868.420731	23507.841648
17.536000	0.000338	-0.000080	0.001499	-0.002545	7225.642868	44681.997739	3889.259944	23676.076707
18.036500	0.002206	0.000587	0.000926	-0.001006	7229.042762	44597.920396	3883.548071	23601.985474
18.537000	-0.001092	-0.000231	-0.000147	0.001170	7172.830470	44310.595108	3874.817884	23497.669284
19.037000	-0.002659	-0.000214	-0.000032	0.002003	7148.404068	44232.587516	3872.895398	23457.873425
19.537500	-0.001115	-0.000769	-0.002649	0.001255	7171.729749	44251.094980	3867.911031	23493.626241
20.037500	-0.000143	0.000727	-0.002954	0.002064	7173.388588	44316.643583	3864.949832	23454.946280
20.537500	-0.002018	-0.000306	-0.001684	0.001674	7158.255372	44255.207631	3869.365060	23473.565857
21.035500	-0.000980	-0.000581	-0.002171	0.001549	7170.107422	44240.888113	3868.402330	23479.560115
21.535500	-0.002791	-0.000017	-0.002187	0.001953	7147.574747	44256.182180	3867.281868	23460.256626
22.036000	-0.000958	-0.000068	-0.002695	0.001905	7166.696905	44255.894776	3866.059535	23462.547022
22.536000	-0.001202	-0.000250	-0.003226	0.001808	7165.202991	44247.796567	3864.909036	23467.196675
23.039500	-0.000056	0.000816	0.002436	0.002527	7169.553405	44280.957865	3878.104113	23432.867971
23.536500	-0.000410	-0.000210	0.000306	0.001705	7174.319740	44261.420115	3874.595636	23472.080627
24.037000	-0.000225	0.000104	-0.000694	0.001896	7174.273444	44273.243247	3871.413414	23462.998322
24.537500	-0.000118	0.000316	0.000856	0.002063	7173.650650	44277.485007	3875.110604	23455.004425
25.035000	-0.001239	0.000337	-0.000342	0.002165	7161.193001	44269.822629	3871.635351	23450.163762
25.535500	0.000404	0.000181	0.000855	0.001894	7180.710822	44280.782284	3875.561777	23463.071659
26.035500	0.000443	0.000763	-0.001057	0.002670	7173.176477	44262.227854	3868.381363	23426.050498
26.536000	-0.000490	0.000158	-0.001079	0.001645	7174.126059	44302.310680	3871.056296	23474.956364
27.036000	-0.000700	0.000814	-0.003161	0.002560	7162.650204	44277.581321	3863.085632	23431.297521
27.536500	-0.001259	0.000716	-0.000590	0.002916	7153.348421	44234.235496	3868.972277	23414.361164
28.036500	-0.000280	0.000130	0.002648	-0.000912	7202.463930	44544.930556	3887.947824	23597.475514
28.537000	-0.001516	-0.000122	0.001365	-0.000691	7187.517676	44499.396129	3883.882328	23586.848628
29.037500	0.000498	-0.000346	0.000631	0.001223	7188.542556	44294.456241	3876.759390	23495.124646
29.537500	0.001527	0.000707	0.002442	0.000330	7208.270906	44481.067890	3884.034859	23537.893491
30.035000	0.000968	0.000132	-0.000251	-0.000007	7205.981318	44458.139460	3877.692463	23553.999623
30.535000	0.002626	0.001180	0.000035	0.000535	7217.464633	44506.724318	3877.005754	23528.028581
31.038000	0.000813	0.000349	0.001277	0.000067	7203.630316	44471.884261	3881.603035	23550.482173
31.535500	-0.000902	-0.000211	-0.002469	0.002327	7162.965084	44201.984971	3865.537286	23442.401996
32.036000	-0.001370	0.000081	-0.004385	0.002980	7151.567345	44167.546504	3858.735007	23411.282862
32.539500	0.002402	0.001500	0.001981	0.001070	7209.651477	44486.125611	3880.796639	23502.458873
33.042000	-0.001336	0.000470	-0.005825	0.001567	7166.292645	44339.674040	3858.666186	23478.701194
33.537000	-0.000393	0.000811	0.005554	0.000301	7188.860795	44493.723901	3892.541818	23539.258069
34.034500	0.001630	-0.000214	-0.000821	-0.000306	7215.875954	44453.628258	3876.968107	23568.377893
34.535000	0.000711	0.000037	0.002104	-0.000034	7203.616975	44451.574423	3884.104351	23555.314059
35.035000	0.000659	-0.000132	0.001913	-0.000125	7204.026176	44444.175828	3883.835902	23559.692683
35.535500	0.000372	0.000221	0.001111	0.002858	7170.539746	44192.538584	3873.665508	23417.116821
36.036000	-0.001654	0.000318	0.001339	0.003258	7145.873070	44163.681486	3873.205917	23398.069919
36.536000	-0.000698	0.000758	-0.001857	0.003282	7155.327625	44203.326027	3864.628330	23396.926435
37.036500	0.000939	0.000495	0.003212	0.003297	7171.846600	44176.748407	3878.120035	23396.192192
37.536500	-0.001261	0.000228	-0.001224	0.002984	7152.639558	44181.176020	3867.102001	23411.106983
38.037000	-0.000480	0.000582	0.000010	0.003488	7155.450454	44166.913247	3869.046434	23387.130615
38.537500	-0.000151	0.000368	-0.002254	0.003104	7162.711421	44183.091995	3864.047555	23405.415098
39.037000	-0.001505	0.000389	0.002616	0.003042	7149.573368	44190.963005	3877.204848	23408.335805
39.535000	-0.000224	0.000412	0.002780	0.003401	7158.942940	44158.988019	3876.681705	23391.261229
40.035500	-0.000452	-0.000892	0.002576	0.002276	7168.074758	44141.938452	3879.154015	23444.865209
40.535500	-0.000083	0.000749	-0.000184	0.003596	7158.397817	44172.570276	3868.242051	23382.013302
41.036000	-0.002369	-0.000052	-0.000263	0.002946	7141.791488	44158.187440	3869.762819	23412.941359
41.536500	-0.000476	0.000222	0.000599	0.003306	7157.339586	44149.901070	3871.101827	23395.778682
42.042000	-0.001068	0.000019	0.000890	0.002914	7155.319966	44167.952762	3872.926349	23414.470298
42.537000	-0.001329	0.000934	0.000211	0.003339	7148.342851	44214.631076	3869.977096	23394.206965
43.037000	-0.001352	0.000273	-0.002220	0.003557	7145.900690	44130.918299	3862.936647	23383.861846
43.537500	-0.000333	-0.000150	-0.004147	0.002618	7165.810073	44180.099444	3860.323080	23428.568640
44.035000	-0.000976	0.000070	0.001480	0.002821	7157.195017	44181.670994	3874.752523	23418.870253
44.535000	-0.000981	-0.000074	-0.003006	0.003074	7154.569403	44143.853218	3862.136259	23406.846665
45.035000	-0.000414	0.000427	0.002658	0.002985	7161.241224	44200.064840	3877.471266	23411.070016
45.535500	0.001664	0.000855	0.003216	0.000720	7205.665400	44457.746550	3885.071076	23519.194590
46.036500	0.002070	-0.000246	0.001831	0.000141	7215.798926	44407.739959	3882.897270	23546.940121
46.540000	0.001300	0.000158	-0.001943	0.001497	7193.944431	44316.455312	3869.146739	23482.015476
47.037000	-0.001316	0.000242	-0.001832	0.004815	7133.524120	44008.314152	3860.634667	23324.116996
47.537000	0.000001	0.000842	0.003524	0.001237	7183.308570	44406.951300	3884.507739	23494.467985
48.037000	0.000611	0.000866	0.002583	0.001195	7189.982515	44413.262899	3882.080803	23496.476798
48.535000	0.000618	0.001408	-0.001786	0.002654	7175.132114	44325.383086	3866.485765	23426.833317
49.035000	-0.001336	0.000388	-0.001351	0.006212	7119.215926	43889.694978	3858.212311	23257.966656
49.535500	-0.002380	-0.000380	0.000396	0.003715	7133.891669	44053.718098	3869.468447	23376.335944
50.035500	0.001042	0.000093	0.001088	0.001399	7192.306244	44319.674367	3877.513715	23486.727788
50.535500	0.001032	0.001136	0.002381	0.003601	7169.699704	44209.014990	3875.077020	23381.774702
51.036000	-0.001278	0.001447	-0.004646	0.007648	7105.340452	43853.972986	3845.796277	23190.210435
51.536500	0.002481	0.001171	0.003478	0.001437	7206.688798	44419.312271	3883.841239	23484.905923
52.036500	0.003813	0.000809	0.005278	0.000051	7234.723055	44517.536060	3892.470277	23551.231539
52.536500	0.000182	0.001652	0.002440	0.003516	7161.894354	44266.269735	3875.460870	23385.779755
53.037000	0.002830	0.000388	0.000345	0.001866	7205.865801	44303.216545	3874.270021	23464.400500
53.537500	-0.037827	-0.014645	-0.009645	-0.004117	6863.264680	43446.789092	3863.595487	23751.996389
54.035500	-0.045197	-0.020431	0.003660	-0.043458	7178.175081	46713.899537	4012.002229	25745.042594
54.535000	-0.023194	-0.016335	0.012992	-0.084661	7873.268847	51544.597761	4172.417951	28035.265815
55.035500	-0.030304	-0.015128	0.007897	-0.074688	7675.323914	50570.146650	4122.618498	27460.850029
55.536000	-0.036546	-0.016139	-0.015665	-0.102057	7921.282251	53560.789491	4135.039937	29069.401251
56.039000	0.002527	-0.021795	-0.016732	-0.173107	9416.350240	61813.859327	4383.847781	33750.623574
56.536500	0.024343	-0.012348	-0.010104	-0.150909	9410.479231	60105.647898	4324.973746	32205.026321
57.037000	-0.010395	-0.018690	-0.000608	-0.144515	8807.813313	58448.726033	4336.535977	31774.274768
57.537000	0.012434	-0.007368	-0.000324	-0.108116	8621.189191	55325.043883	4206.913503	29439.426001
58.037000	0.001458	-0.008756	0.003971	-0.094874	8302.267416	53584.148753	4176.433941	28637.380628
58.534500	-0.006502	-0.008987	-0.004085	-0.088138	8117.230885	52775.463756	4127.392720	28238.637572
59.035000	-0.002266	-0.005589	0.000519	-0.057058	7794.995335	49687.876805	4043.689698	26477.089894
59.535500	-0.002874	-0.003307	-0.000031	-0.038487	7576.672083	47960.829217	3986.331541	25483.114862
60.035500	-0.001848	-0.001831	0.000361	-0.024972	7439.594015	46725.448211	3948.402962	24786.021101
60.536000	-0.005873	-0.002206	0.000355	-0.010465	7243.326795	45244.893336	3907.771942	24061.531497
61.036500	-0.007311	-0.000669	0.003848	0.000599	7115.570620	44323.315353	3887.104918	23524.989505
61.536500	-0.006755	-0.000803	0.003407	0.005918	7067.852826	43804.808503	3871.623852	23271.863938
62.037000	-0.003775	-0.000450	0.003170	0.009645	7060.412901	43487.334976	3861.087940	23096.345671
62.537000	0.003393	0.003290	0.004891	0.018376	7044.902600	43022.104968	3842.691877	22691.057517
63.034500	-0.001576	0.001492	0.000825	0.013475	7044.228175	43310.765196	3844.868249	22917.577340
63.534500	-0.002469	0.001423	0.003436	0.011360	7056.352663	43502.115575	3857.259253	23016.089740
64.035500	0.007258	0.004597	0.007195	0.013781	7129.557757	43572.885707	3860.795444	22903.360124
64.568500	0.008652	0.005615	0.007611	0.015142	7129.896156	43540.673854	3858.299688	22840.241550
65.036000	0.010882	0.006184	0.006815	0.015200	7151.898431	43588.612639	3856.045562	22837.549696
65.539000	0.011445	0.006808	0.006811	0.012019	7190.085285	43947.834805	3864.445985	22985.365180
66.038000	0.010625	0.006466	0.010041	0.012255	7179.274617	43892.967846	3872.417630	22974.328718
66.545500	0.006555	0.006342	0.012529	0.018039	7079.719254	43337.446674	3863.644478	22706.543510
67.036500	0.010050	0.006442	0.005553	0.013731	7158.381215	43751.324733	3856.592151	22905.691343
67.537500	0.012062	0.007303	0.010984	0.014396	7172.102190	43769.785174	3869.221567	22874.825580
68.037500	0.009380	0.007696	0.008134	0.015275	7135.906348	43723.899255	3859.325853	22834.060734
68.535000	0.006152	0.007459	0.005481	0.020642	7049.782574	43198.852032	3838.334779	22587.164114
69.035500	0.010307	0.007470	0.009678	0.016544	7132.454526	43583.225326	3860.054563	22775.435699
69.535500	0.010662	0.008265	0.012961	0.017032	7131.108787	43612.016926	3867.468344	22752.921640
70.036500	0.009941	0.006697	0.009564	0.016634	7127.839084	43502.147326	3859.516305	22771.262191
70.536500	0.006878	0.007034	0.005227	0.022182	7041.716447	43016.349372	3833.691967	22516.895348
71.037000	0.010464	0.008301	0.009258	0.019254	7106.706645	43406.992352	3851.809890	22650.735913
71.534500	0.011591	0.007812	0.011196	0.018270	7127.982813	43453.307437	3859.504893	22695.931096
72.037500	0.006859	0.008076	0.011754	0.018125	7081.896734	43491.691599	3861.365030	22702.603126
72.535000	0.006399	0.007674	0.008409	0.022720	7031.669436	43025.887533	3840.542480	22492.422893
73.035000	0.008744	0.008374	0.008212	0.020027	7081.717381	43341.500127	3847.045963	22615.305267
73.535000	0.009125	0.007881	0.009264	0.019236	7093.456484	43369.439842	3851.873977	22651.578802
74.036000	0.010521	0.007982	0.006484	0.019394	7105.881227	43364.121506	3844.190542	22644.338786
74.536000	0.007185	0.007762	0.008388	0.024559	7021.273354	42863.866502	3835.718820	22408.917806
75.039000	0.010463	0.008309	0.006073	0.020709	7092.102000	43271.840795	3839.698816	22584.129881
75.536500	0.009997	0.007085	0.012184	0.019545	7099.105105	43266.272353	3858.748606	22637.424751
76.036500	0.010838	0.007744	0.008847	0.020111	7101.861504	43274.934512	3848.489182	22611.490767
76.537000	0.006402	0.007558	0.008484	0.025540	7003.928319	42754.650904	3833.433141	22364.528455
77.037500	0.010239	0.007771	0.009039	0.021336	7083.587343	43163.374397	3845.789133	22555.488883
77.534500	0.008836	0.007457	0.007231	0.020185	7081.073392	43241.261339	3844.075812	22608.109739
78.035500	0.009666	0.007839	0.003902	0.020990	7081.316036	43201.864047	3833.348914	22571.270622
78.535500	0.004784	0.006732	0.005119	0.026033	6983.251277	42633.326363	3823.513155	22342.227188
79.035500	0.008866	0.007844	0.005834	0.022364	7059.645341	43074.661431	3834.792736	22508.619776
79.538500	0.010683	0.008189	0.010035	0.021573	7085.654642	43180.147180	3847.772487	22544.677121
80.036500	0.009382	0.007314	0.008778	0.020758	7080.796507	43174.625741	3846.617254	22581.902290
80.536500	0.004508	0.007025	0.003571	0.026351	6977.463670	42631.136040	3818.751483	22327.908659
81.037000	0.008403	0.008123	0.006728	0.021033	7068.288016	43224.309057	3840.558557	22569.321101
81.537000	0.009120	0.007970	0.011586	0.020920	7076.567242	43220.604678	3853.550943	22574.490816
82.034500	0.008499	0.007987	0.009888	0.021374	7065.836566	43179.857212	3847.905773	22553.726400
82.535000	0.004084	0.008140	0.007920	0.027398	6963.137294	42637.399299	3827.197660	22280.712905
83.035500	0.008943	0.007763	0.012094	0.022693	7057.133465	43036.545227	3850.227669	22493.627952
83.536000	0.009871	0.007953	0.011455	0.021773	7075.549280	43139.687575	3850.967053	22535.566365
84.036000	0.010991	0.008001	0.007753	0.021832	7086.147689	43138.563904	3841.145272	22532.854867
84.536000	0.005301	0.007322	0.008126	0.027018	6978.684602	42597.168047	3828.699940	22297.806705
85.036500	0.009317	0.008416	0.005690	0.021842	7069.328410	43176.298476	3835.769084	22532.398603
85.536500	0.008567	0.007565	0.007954	0.021180	7068.454226	43158.692521	3843.364540	22562.602108
86.034500	0.009252	0.007620	0.007255	0.021447	7072.621038	43138.949233	3840.850451	22550.405619
86.537500	0.008400	0.007698	0.009618	0.021791	7060.702583	43114.233297	3846.111083	22534.720375
87.034500	0.009034	0.007842	0.009000	0.021824	7066.695532	43124.567679	3844.414442	22533.238904
87.537500	0.009009	0.007974	0.005530	0.021750	7067.186553	43143.780726	3835.593417	22536.616929
88.035000	0.007586	0.007935	0.005617	0.021995	7050.592033	43117.335803	3835.182904	22525.409460
88.536000	0.006911	0.006934	0.000550	0.026590	6998.618195	42600.884767	3810.473002	22317.120122
89.038500	0.007996	0.007349	0.005001	0.022508	7049.580346	43015.412470	3832.268802	22502.081390
89.536500	0.006312	0.007230	0.006875	0.021732	7040.572641	43076.311204	3839.124203	22537.418399
90.036000	0.008315	0.006937	0.009713	0.021372	7064.030489	43082.452331	3847.452724	22553.823139
90.536500	0.007685	0.007282	0.006294	0.021808	7053.430796	43074.048536	3837.420418	22533.930667
91.037000	0.006227	0.006539	0.010324	0.022185	7035.253821	42970.292632	3846.926499	22516.764439
91.537000	0.008616	0.007404	0.004043	0.021892	7061.851280	43077.537763	3831.384272	22530.098065
92.035000	0.005748	0.007563	0.007789	0.021924	7033.094474	43089.364155	3840.999660	22528.669415
92.535500	0.004500	0.006386	0.004989	0.027574	6965.473326	42460.653132	3819.248926	22272.805161
93.035500	0.005466	0.006910	0.005860	0.022158	7027.998190	43007.094570	3835.390416	22517.977952
93.536000	0.007598	0.007139	0.007125	0.021765	7052.996989	43064.820137	3839.687472	22535.912441
94.036000	0.010390	0.007504	0.006367	0.022413	7074.331509	43038.537007	3836.042646	22506.376183
94.536500	0.004557	0.007818	0.002760	0.028113	6960.775916	42542.177051	3812.210061	22248.526152
95.042000	0.006008	0.007311	0.004708	0.022041	7034.516993	43055.152721	3832.718477	22523.345024
95.536500	0.007266	0.008185	0.003347	0.022652	7040.908322	43079.527933	3827.638763	22495.499355
96.040000	0.008496	0.007705	0.008692	0.022500	7054.614424	43049.023606	3841.848282	22502.403255
96.535000	0.003752	0.007217	0.003222	0.026708	6966.614216	42616.021490	3816.952661	22311.804697
97.035000	0.008971	0.007293	0.005360	0.023466	7049.743986	42921.535965	3830.725277	22458.517001
97.535500	0.008433	0.007720	0.006390	0.021938	7059.574588	43102.706029	3837.333196	22528.032910
98.038500	0.007860	0.007585	0.006042	0.021927	7053.989704	43091.152266	3836.461577	22528.529363
98.539000	0.003661	0.006128	0.003899	0.025891	6973.687629	42591.008353	3820.759021	22348.663993
99.036500	0.005184	0.007662	0.006068	0.023133	7015.616877	42986.512561	3833.410970	22473.649182
99.536500	0.005840	0.006973	0.005229	0.021681	7036.400048	43057.168617	3834.991762	22539.725796
100.036500	0.008982	0.007529	0.008913	0.022345	7060.983371	43047.161318	3842.828090	22509.478368
100.537000	0.003149	0.007096	0.003427	0.026434	6963.406471	42630.000887	3818.169726	22324.131437
101.042500	0.006342	0.006963	0.003092	0.022320	7035.051938	42996.955764	3827.837341	22510.597006
101.534500	0.007099	0.007227	0.003578	0.022119	7044.534013	43040.168324	3829.604454	22519.786368
102.035000	0.008307	0.007560	0.006670	0.022410	7053.636335	43044.001042	3836.837095	22506.530013
102.535500	0.004682	0.005817	0.000223	0.025560	6986.871929	42592.783683	3812.251012	22363.593127
103.036000	0.006620	0.007059	0.007405	0.022738	7033.676407	42967.257436	3837.891353	22491.612068
103.536000	0.006664	0.006514	0.006324	0.021482	7046.530312	43033.008409	3838.343197	22548.798982
104.039000	0.007566	0.006490	0.005079	0.021574	7054.578603	43022.335389	3834.883729	22544.633296
104.536500	0.003684	0.005995	0.003321	0.025451	6978.195854	42619.211265	3820.408979	22368.549783
105.040000	0.005879	0.006916	0.006671	0.021771	7035.901764	43043.526704	3838.492561	22535.617621
105.537000	0.006621	0.006255	0.005038	0.020910	7051.788360	43062.080054	3836.493732	22574.932126
106.037500	0.005963	0.006593	0.003054	0.021332	7041.079226	43054.240593	3830.280801	22555.653994
106.535000	0.003510	0.005701	0.008956	0.025144	6979.492085	42620.382361	3835.676663	22382.436235
107.038000	0.006462	0.005940	0.003180	0.020966	7049.656286	43027.741379	3831.548509	22572.387969
107.535500	0.007098	0.006425	0.009335	0.021470	7050.963831	43025.956161	3846.213487	22549.389012
108.039000	0.007363	0.006143	0.004463	0.021037	7057.896035	43039.908386	3834.677025	22569.136255
108.536000	0.003761	0.005790	0.001834	0.025705	6976.471894	42577.090589	3815.973972	22357.063976
109.036000	0.004445	0.005934	0.007634	0.021033	7029.027961	43020.903110	3842.914485	22569.305696
109.536500	0.005367	0.005941	0.005102	0.020998	7038.486962	43024.785431	3836.432279	22570.908575
110.037000	0.005847	0.006212	0.012324	0.020872	7044.485543	43061.579788	3855.617387	22576.673102
110.537500	0.000889	0.006088	0.005837	0.025299	6952.485277	42641.621137	3827.235978	22375.402121
111.038000	0.006226	0.005687	0.005012	0.020709	7049.854365	43028.012396	3836.944836	22584.102959
111.535500	0.005531	0.006459	0.006557	0.020534	7044.703879	43115.939870	3841.412447	22592.141345
112.035000	0.006815	0.006243	0.004118	0.020811	7054.690711	43070.164657	3834.369364	22579.465129
112.538500	0.006141	0.007180	0.009284	0.021404	7042.123671	43102.083960	3846.250755	22552.380169
113.036000	0.004920	0.006029	0.005834	0.020823	7035.795881	43049.188054	3838.781752	22578.927013
113.536500	0.006553	0.006722	0.005796	0.021385	7046.402097	43061.395747	3837.227331	22553.259459
114.036000	0.004948	0.007098	0.005714	0.021446	7029.918202	43090.605747	3836.858354	22550.482683
114.536000	0.006019	0.006791	0.005325	0.021076	7044.164388	43096.383937	3836.807487	22567.342275
115.037000	0.005079	0.005979	0.007790	0.020761	7037.977709	43050.243372	3844.030058	22581.733391
115.537500	0.003757	0.006093	0.004377	0.020374	7028.745592	43096.823431	3836.169769	22599.456355
116.044000	0.006317	0.006634	0.007343	0.021034	7047.546298	43085.771471	3842.156477	22569.291894
116.535500	0.004551	0.005869	0.005059	0.021836	7022.150601	42940.625726	3834.154484	22532.682922
117.035500	0.005294	0.006291	0.007958	0.021333	7034.450292	43026.199986	3842.977746	22555.636488
117.600000	0.005850	0.005607	0.003265	0.020215	7051.037549	43066.454108	3833.708355	22606.735623
118.036500	0.006166	0.006001	0.007139	0.020531	7051.022924	43073.629972	3842.932594	22592.245003
118.597000	0.003458	0.006347	0.004231	0.024599	6984.314152	42729.760759	3824.914236	22407.106199
119.102000	0.004736	0.005754	0.003232	0.021157	7030.674695	42992.774978	3831.190807	22563.672347
119.537000	0.005496	0.006375	0.002141	0.020980	7039.943622	43066.701302	3828.839302	22571.747584
120.051500	0.004288	0.005686	0.009479	0.020282	7034.898229	43067.636594	3849.696108	22603.668785
120.603000	0.003165	0.006253	0.004220	0.024587	6981.563583	42722.191546	3824.914305	22407.639137
121.085500	0.004569	0.005826	0.005686	0.020541	7035.113600	43056.551913	3839.129539	22591.802608
121.571500	0.005571	0.005506	0.006294	0.020176	7048.651022	43060.723489	3841.657071	22608.503582
122.038500	0.005934	0.005863	0.006023	0.020616	7047.887958	43053.011342	3839.810017	22588.368216
122.560500	0.005419	0.005996	0.007344	0.021691	7032.148846	42965.674442	3840.447890	22539.280538
123.038000	0.006765	0.004813	0.005973	0.020157	7060.698285	42998.175786	3840.871642	22609.357934
123.575000	0.004398	0.005026	0.006153	0.019576	7042.961046	43071.753054	3842.850330	22635.960250
124.102000	0.005597	0.005583	0.000279	0.020256	7048.104466	43060.330102	3825.914924	22604.818103
124.551000	0.004818	0.006319	0.005632	0.020718	7035.823649	43085.920483	3838.532531	22583.725897
125.095000	0.004471	0.005225	0.004321	0.019725	7042.224168	43076.518811	3837.706373	22629.164613
125.594500	0.003914	0.005513	0.002668	0.020147	7032.537690	43064.058577	3832.340256	22609.839044
126.037500	0.002847	0.005032	0.002614	0.019571	7027.681680	43072.801486	3833.687010	22636.204983
126.535500	0.003417	0.005116	0.003714	0.020953	7019.675633	42952.628248	3832.959797	22572.985010
127.065000	0.003832	0.005888	0.007065	0.019977	7033.398929	43114.545420	3844.182056	22617.592081
127.539000	0.004912	0.005701	0.008467	0.020008	7043.778014	43094.409625	3847.761522	22616.183435
128.036500	0.004658	0.005729	0.002560	0.020005	7041.293659	43097.194368	3832.427186	22616.307248
128.536500	0.002743	0.005357	0.004949	0.021329	7009.341163	42940.078823	3835.178239	22555.793809
129.036500	0.005350	0.005235	0.002834	0.019466	7053.508614	43101.451107	3834.529021	22641.041948
129.537000	0.004497	0.005226	0.004402	0.019471	7044.997909	43100.188036	3838.575290	22640.816134
130.037500	0.003203	0.004687	0.010910	0.019052	7036.329097	43088.997025	3856.687343	22660.004386
130.559500	0.001934	0.004144	0.002201	0.019122	7023.108927	43032.187926	3833.780394	22656.804799
131.038500	0.004464	0.005062	0.007621	0.019120	7048.137174	43117.466450	3847.872413	22656.872781
131.541000	0.004164	0.004279	0.005176	0.018268	7053.621117	43123.930559	3843.715408	22696.021817
132.036000	0.003750	0.005142	0.003652	0.019314	7039.154174	43106.928050	3837.039047	22647.997853
132.536500	0.003000	0.004347	0.003671	0.018606	7038.729014	43098.772621	3838.921270	22680.467275
133.037000	0.005364	0.005025	-0.000429	0.019127	7057.011871	43113.469229	3826.995105	22656.580787
133.537000	0.002484	0.004646	0.004557	0.018753	7032.183284	43113.023364	3840.842860	22673.753338
134.037000	0.002501	0.004599	0.003852	0.018474	7035.105201	43134.573384	3839.736307	22686.569040
134.548000	0.004390	0.005297	0.005254	0.019791	7040.762617	43077.069541	3839.954336	22626.131221
135.037500	0.003673	0.004471	0.000803	0.018410	7047.340463	43128.572975	3832.012231	22689.499944
135.535000	0.004390	0.004548	0.004299	0.018470	7053.864454	43130.190504	3840.908754	22686.754398
136.036000	0.003853	0.004146	-0.000236	0.018417	7049.060223	43097.799115	3829.317294	22689.188519
136.541000	0.003016	0.004348	0.004059	0.018865	7036.323910	43074.814013	3839.256886	22668.572763
137.036000	0.003601	0.004283	0.005996	0.018790	7042.863563	43075.790687	3844.491972	22672.043646
137.536500	0.003612	0.004393	0.006420	0.018506	7045.779452	43112.405617	3846.338132	22685.080107
138.039500	0.003867	0.003974	0.008675	0.018167	7051.669236	43104.952969	3853.132217	22700.641148
138.537000	0.003993	0.004991	-0.003646	0.019947	7035.293941	43034.205085	3816.680305	22618.997841
139.037000	0.003866	0.005258	0.003098	0.019797	7035.511437	43072.813718	3834.354336	22625.842991
139.542500	0.002525	0.004729	0.002869	0.018425	7035.827355	43151.137590	3837.314037	22688.815368
140.035000	0.003737	0.003840	-0.001833	0.018055	7051.497492	43102.966333	3826.143403	22705.812246
140.535500	0.004740	0.004609	0.004439	0.019219	7049.897498	43066.269683	3839.324657	22652.359422
141.064000	0.002829	0.004146	0.006718	0.018523	7037.868665	43087.898952	3847.073384	22684.313442
141.539000	0.005502	0.004041	0.006909	0.018039	7069.208100	43123.065965	3848.836590	22706.527265
142.036500	0.003728	0.005375	0.007873	0.018649	7045.513882	43190.381274	3849.763432	22678.495849
142.536000	0.005343	0.004406	0.005750	0.018905	7059.004810	43076.563159	3843.550482	22666.762988
143.036500	0.004142	0.004416	-0.000337	0.018911	7047.019752	43076.945523	3827.787903	22666.480564
143.537000	0.004364	0.003811	0.004266	0.018051	7057.769253	43100.597023	3841.912076	22706.010358
144.040500	0.002394	0.004301	0.007066	0.017928	7039.451909	43157.581851	3849.542011	22711.666811
144.535000	0.001362	0.003729	0.004691	0.018268	7025.886918	43072.817161	3842.450850	22696.014117
145.065000	0.002630	0.003815	0.001370	0.018354	7037.563321	43072.831919	3833.617742	22692.062094
145.618500	0.004243	0.004813	0.005040	0.018281	7054.280571	43172.420549	3843.327048	22695.441501
146.036000	0.002534	0.004087	0.007182	0.017707	7043.015395	43158.239094	3850.422564	22721.818934
146.536000	0.001372	0.004518	-0.002515	0.018216	7026.498446	43150.894992	3823.982214	22698.392621
147.036500	0.004115	0.004575	-0.000977	0.018811	7047.737756	43100.893162	3826.398097	22671.050235
147.537000	0.002503	0.003976	0.005483	0.017626	7043.508936	43155.405352	3846.189079	22725.545923
148.040000	0.002441	0.003970	0.001440	0.017384	7045.289913	43177.338029	3836.305603	22736.677199
148.537500	0.003594	0.002551	0.000899	0.016935	7061.197903	43087.187326	3836.067657	22757.365482
149.037500	0.001175	0.003706	0.003070	0.017267	7033.929526	43163.767106	3840.839107	22742.102721
149.535000	0.002519	0.003589	0.002511	0.017151	7048.381400	43163.679965	3839.688298	22747.449071
150.035000	0.002540	0.004284	0.004254	0.017563	7044.508420	43189.969137	3843.148524	22728.456403
150.535500	0.003087	0.003205	0.005052	0.016418	7061.310357	43196.054801	3848.220286	22781.248808
151.036000	0.001667	0.004605	0.005618	0.018585	7025.760135	43124.741905	3844.038028	22681.431267
151.536000	0.003824	0.004725	0.008703	0.018135	7051.573038	43177.746485	3853.292633	22702.144005
152.036500	0.002152	0.004092	0.008020	0.017480	7041.486302	43179.816763	3853.219973	22732.288707
152.537000	0.000956	0.004180	-0.001038	0.017752	7026.967233	43162.674892	3828.962295	22719.736298
153.037500	0.003528	0.004202	0.007229	0.017559	7054.351917	43182.741016	3850.935190	22728.645129
153.537500	0.001516	0.003538	0.004184	0.017244	7037.518655	43150.243443	3843.798206	22743.133465
154.035000	0.003402	0.003583	0.005738	0.017602	7052.659678	43121.053384	3846.916497	22726.633789
154.535000	0.002229	0.003729	-0.000018	0.017264	7044.394385	43166.173404	3832.849801	22742.246537
155.035000	0.002107	0.003374	0.003844	0.017214	7043.670897	43137.755634	3842.990226	22744.531702
155.535500	0.002817	0.003550	0.002429	0.016901	7053.819541	43183.200394	3840.122567	22758.934847
156.059000	0.004028	0.003679	0.001152	0.018029	7054.652518	43090.476656	3833.896261	22707.025551
156.536000	0.004015	0.003115	-0.001169	0.016607	7068.660358	43170.132942	3831.573159	22772.507706
157.036000	0.001818	0.003883	0.005803	0.016692	7045.978173	43233.641735	3849.468232	22768.577525
157.540000	0.004018	0.003641	0.003988	0.017309	7061.698658	43153.705993	3843.116747	22740.129730
158.037000	0.002360	0.004148	0.003367	0.018585	7032.614076	43082.315166	3838.189701	22681.469439
158.534500	0.001836	0.003449	0.006344	0.016828	7044.807291	43180.622671	3850.529478	22762.302883
159.039500	0.003846	0.003361	0.000572	0.016758	7065.473612	43178.911264	3835.681999	22765.549037
159.535500	0.001266	0.003943	0.002195	0.016751	7039.926823	43233.801715	3839.904451	22765.856368
160.034500	0.001488	0.003168	-0.000654	0.018142	7028.377746	43032.543428	3828.949161	22701.812547
160.538500	0.001303	0.003410	0.000470	0.016464	7043.139163	43210.910200	3836.180355	22779.139828
161.064500	0.001796	0.003407	0.004202	0.017081	7041.907163	43153.169069	3844.269880	22750.659908
161.536500	0.002930	0.003300	-0.000272	0.016545	7058.477029	43193.072468	3834.049153	22775.356375
162.048500	0.001581	0.003918	0.005728	0.020072	7010.280764	42923.301206	3840.457805	22613.267272
162.537000	0.002069	0.003226	-0.003050	0.016590	7049.489236	43182.103346	3826.782326	22773.323283
163.037500	0.002266	0.002647	-0.000414	0.016320	7054.114856	43153.292684	3834.265307	22785.767551
163.538500	0.002173	0.004097	0.002761	0.016430	7052.104129	43278.122932	3842.211028	22780.690512
164.035500	-0.000043	0.002912	-0.000679	0.018454	7010.221078	42979.917439	3828.083549	22687.474886
164.537500	-0.001133	0.003127	0.003474	0.016241	7021.268413	43205.273844	3844.562153	22789.412360
165.035000	0.003274	0.004145	-0.002025	0.017239	7054.999711	43207.097093	3827.744559	22743.365474
165.536000	0.002654	0.003495	0.002132	0.016659	7054.607063	43200.626594	3839.981018	22770.113079
166.036000	-0.001042	0.002988	0.002601	0.018769	6997.326807	42957.796529	3835.728735	22673.015100
166.536500	0.002868	0.003071	0.003133	0.016118	7062.108748	43211.531389	3843.992119	22795.093658
167.037000	0.000973	0.003309	-0.000421	0.016713	7037.406646	43178.253379	3833.231413	22767.620630
167.537500	0.001402	0.003081	-0.001143	0.015744	7051.252377	43247.299597	3833.868529	22812.369233
168.037500	-0.001011	0.002062	0.001979	0.018658	6998.709996	42882.392624	3834.405048	22678.085281
168.538000	0.002846	0.003160	0.007481	0.016330	7059.781659	43200.041659	3854.824279	22785.302053
169.035500	0.001346	0.003470	0.003235	0.016192	7046.261234	43241.829721	3844.067929	22791.692712
169.535500	0.001548	0.002402	0.002794	0.015279	7057.324033	43227.405393	3845.297542	22833.898541
170.038500	-0.001196	0.003176	0.003718	0.020035	6983.437745	42858.159832	3835.344128	22614.978980
170.539000	0.001498	0.002636	-0.000842	0.015626	7053.383660	43216.934266	3834.951792	22817.859881
171.036500	0.001927	0.003284	0.000288	0.015927	7054.654000	43249.244795	3837.098487	22803.934354
171.537000	0.000989	0.002357	0.000688	0.015463	7049.942756	43205.988766	3839.337809	22825.364786
172.036500	0.001339	0.002714	-0.000771	0.015706	7051.019564	43216.684252	3834.929483	22814.158669
172.537500	0.001039	0.002929	0.004875	0.015956	7045.548468	43213.390876	3848.965366	22802.559459
173.037500	0.001263	0.003304	0.006432	0.016128	7046.072938	43232.301247	3852.597954	22794.639081
173.535500	0.000261	0.002749	0.003212	0.015358	7043.776236	43252.413421	3846.182984	22830.250091
174.037500	0.001946	0.002874	0.001159	0.015638	7057.713520	43237.895104	3840.104234	22817.261244
174.535500	0.001132	0.002708	0.003375	0.015316	7052.826728	43252.391302	3846.716645	22832.179975
175.036000	0.000593	0.002557	0.001365	0.015004	7050.573702	43267.493730	3842.291124	22846.640754
175.536000	0.000254	0.002325	0.000821	0.015120	7046.056436	43234.989548	3840.574032	22841.241461
176.036500	0.002408	0.003038	0.009477	0.015803	7060.659054	43237.730308	3861.481102	22809.634663
176.537000	0.002978	0.003596	0.002839	0.016422	7060.179101	43232.167543	3842.435754	22781.064114
177.037000	0.002001	0.003149	0.001641	0.016016	7054.503552	43228.331675	3840.377796	22799.822215
177.537500	0.002225	0.003508	0.001724	0.015535	7061.511350	43306.606584	3841.842119	22822.032694
178.037500	0.002304	0.002240	0.002835	0.014966	7067.964045	43241.460120	3846.221750	22848.385372
178.538000	0.002462	0.002663	0.002857	0.015342	7065.798571	43245.883724	3845.297697	22830.995187
179.035500	0.000094	0.002731	0.003982	0.015337	7042.330001	43252.611195	3848.249360	22831.205573
179.536000	0.001661	0.002056	0.003158	0.015026	7060.965288	43218.756179	3846.910042	22845.616570
180.036000	-0.002636	0.002979	0.004256	0.020747	6962.457039	42774.340120	3834.892594	22582.389625
180.536500	0.001406	0.003451	0.001008	0.015969	7049.071043	43260.876196	3838.855151	22801.992586
181.036500	-0.000047	0.002320	0.006046	0.015620	7038.132259	43188.014637	3852.919301	22818.132408
181.536500	0.002491	0.002165	0.001082	0.014992	7069.561025	43232.045117	3841.584343	22847.169393
182.038000	-0.001744	0.002184	-0.001878	0.020150	6976.953380	42756.137054	3820.667892	22609.690294
182.534000	-0.000417	0.003161	0.003051	0.015774	7032.955044	43251.979660	3844.677554	22811.005648
183.035000	0.003611	0.002974	0.002959	0.015859	7072.088712	43226.645060	3844.215640	22807.057474
183.535500	0.002607	0.002342	-0.000173	0.015005	7070.599788	43247.348303	3838.292416	22846.593890
184.036000	0.000469	0.001847	-0.003304	0.019345	7006.494100	42799.253062	3819.083571	22646.584516
184.538500	-0.000828	0.002168	0.004470	0.015301	7033.559507	43203.577817	3849.621280	22832.890779
185.036500	-0.000379	0.001913	-0.003754	0.014825	7042.718747	43224.137669	3829.508057	22854.940180
185.536500	0.003131	0.002655	-0.001009	0.015131	7074.563630	43264.712393	3835.799071	22840.722933
186.042000	-0.000423	0.002967	0.003930	0.019953	6991.790738	42846.466652	3836.103651	22618.731959
186.650000	-0.000962	0.002369	0.005553	0.019408	6991.849386	42841.584219	3841.729352	22643.704985
187.037000	0.000413	0.002321	0.002418	0.015227	7046.575323	43224.654287	3844.451176	22836.296750
187.534500	0.000429	0.002126	0.003614	0.014674	7052.220536	43257.988474	3849.020743	22861.904027
188.037500	-0.002046	0.002337	0.000656	0.020922	6966.488274	42699.089787	3825.172615	22574.375067
188.534500	0.001006	0.002442	0.000003	0.014968	7055.035977	43260.076898	3838.845752	22848.315282
189.036000	-0.000274	0.002609	-0.001611	0.015287	7039.185697	43245.903957	3833.841865	22833.541842
