sample name	sample
index	218
start time	 02-22-2021  10:20:28 AM
880	0.060324
Peak Time (s)	92.535
Peak Height 	0.06032
calc peak height	90,93
Baseline Time (s)	8.536
Baseline Value 	-0.002594
subtract baseline	10,4
Abs	0.046202
Peak Time (s)	90.037
Peak Height 	0.0462
calc peak height	90,93
Baseline Time (s)	11.536
Baseline Value 	0.003845
subtract baseline	10,3
PK_550	0.023118
Peak Time (s)	92.535
Peak Height 	0.02312
calc peak height	90,93
Baseline Time (s)	11.536
Baseline Value 	2.3422E-4
subtract baseline	10,2
PK_880	0.042424
Peak Time (s)	91.037
Peak Height 	0.04242
calc peak height	90,93
Baseline Time (s)	11.536
Baseline Value 	7.4891E-4
subtract baseline	10,1


Time (s)	A880-A510	A880-A775	A880-A975	A880	I510	I775	I975	I880	
0.034000	-0.004167	-0.000147	-0.006384	0.007243	6793.183336	46580.446754	3906.961930	24413.708628
0.537500	-0.002242	-0.000667	-0.004320	0.004269	6838.393255	46828.470478	3920.146869	24562.302661
1.034000	-0.002205	-0.000509	-0.006091	0.003444	6846.401773	46928.244064	3917.659238	24603.715712
1.535000	0.001073	-0.000074	-0.000633	0.000708	6902.725728	47251.454730	3939.384651	24741.585335
2.037500	-0.004395	-0.001180	-0.009021	0.005542	6806.719226	46647.775979	3904.529143	24498.555640
2.535000	-0.000275	-0.000034	-0.003598	-0.000202	6898.590982	47348.775015	3933.895163	24787.600151
3.039000	0.000531	-0.000291	-0.006152	-0.001285	6916.430348	47433.512477	3929.983162	24842.535713
3.535500	0.000400	0.000606	-0.001499	0.001222	6891.548005	47268.460919	3935.694363	24715.610474
4.038500	-0.002067	-0.000580	-0.003535	0.000245	6877.554642	47247.100487	3932.873732	24764.994142
4.536000	0.001155	-0.000823	-0.001889	0.000223	6908.077651	47224.488814	3937.321133	24766.107304
5.036000	-0.000187	-0.000030	-0.001562	0.000504	6892.776397	47276.852684	3937.443076	24751.876067
5.537000	-0.001045	0.000247	-0.003912	0.000897	6881.030081	47265.036254	3930.138154	24732.036447
6.034000	-0.000882	0.000086	-0.004124	0.000519	6886.107393	47287.252015	3930.578362	24751.134369
6.535000	0.000229	-0.000713	-0.000115	-0.000457	6905.755158	47305.363784	3943.898308	24800.563671
7.038000	0.001054	0.000070	0.000881	0.000125	6908.039805	47325.828988	3945.008321	24771.037402
7.535500	0.001488	0.000435	0.002382	0.000317	6910.327910	47343.606167	3948.533012	24761.338772
8.036500	0.000342	-0.000042	-0.002722	-0.000217	6904.551074	47349.515938	3936.271678	24788.374369
8.536000	-0.000177	0.000338	-0.005428	0.000000	6897.614868	47366.223261	3928.494927	24777.388110
9.036500	-0.001162	-0.000407	0.000271	-0.000754	6895.440501	47367.093768	3945.732590	24815.584793
9.536500	0.001155	-0.000014	0.003686	0.000041	6909.797461	47325.985929	3952.805194	24775.326926
10.039500	-0.000170	0.000324	-0.000263	0.000221	6895.603944	47342.126279	3941.679126	24766.214422
10.537500	0.000444	0.000116	0.001017	0.000367	6900.000407	47305.781762	3944.722968	24758.796357
11.037500	0.001216	-0.000615	-0.000834	-0.000489	6915.381753	47318.684949	3942.052682	24802.160173
11.535500	0.000000	0.000000	0.000000	-0.000128	6900.486092	47344.652549	3943.320321	24783.857703
12.035000	0.002351	0.000174	-0.004797	-0.000302	6924.346076	47380.353062	3930.969648	24792.659173
12.535500	-0.000388	-0.000091	0.000914	0.000718	6888.873673	47248.716716	3943.504767	24741.081335
13.039000	0.001647	0.000661	0.000075	-0.000411	6918.713661	47441.580491	3944.283139	24798.205408
13.536000	0.000711	-0.000536	0.002159	-0.001215	6917.475781	47401.266750	3952.071234	24839.007226
14.039500	-0.001107	0.000223	-0.003876	0.003025	6860.535209	47045.233827	3924.597283	24624.760750
14.537000	-0.000760	-0.000519	-0.008627	0.001038	6882.378833	47172.231016	3917.316478	24724.891853
15.037000	0.001725	0.000936	-0.000682	-0.000360	6918.974883	47464.592509	3942.113085	24795.637697
15.537500	0.001016	-0.000198	-0.000076	-0.001120	6919.455677	47426.207011	3945.784438	24834.176729
16.038000	-0.000622	-0.000699	0.000249	-0.001562	6908.155766	47420.139071	3947.851261	24856.634293
16.535500	-0.000836	0.000625	-0.003734	0.002205	6870.730148	47169.842754	3927.139843	24666.006162
17.035500	0.001846	0.000545	0.002450	-0.002586	6941.246731	47653.591524	3956.575578	24908.694385
17.536000	-0.000337	0.000379	-0.000578	0.001067	6886.074437	47261.116652	3938.570061	24723.426651
18.039000	-0.001506	-0.000006	0.004225	0.001095	6874.850319	47218.933958	3951.411189	24722.041078
18.536500	-0.002130	0.000642	0.001851	0.002135	6859.291944	47178.784957	3942.213682	24669.553666
19.036500	-0.001945	-0.000631	-0.004991	0.000312	6878.072442	47235.069877	3928.827842	24761.610763
19.537000	0.001513	0.000431	-0.004992	0.001642	6898.067450	47207.526497	3925.301274	24694.390367
20.037000	-0.001219	-0.000825	-0.002968	0.000743	6880.831855	47171.064864	3933.056456	24739.787268
20.537500	-0.001841	0.000625	-0.006189	0.001282	6869.966146	47264.234027	3923.092455	24712.570497
21.035000	-0.003417	0.000048	0.002066	0.001151	6856.474871	47218.660176	3945.437477	24719.202131
21.535000	-0.001116	-0.000150	-0.004558	0.000896	6880.369441	47224.488227	3928.426107	24732.059191
22.038500	0.000747	0.000331	-0.000517	0.001143	6895.552411	47248.347774	3938.527388	24719.577292
22.536000	-0.000411	-0.000404	0.000183	0.000419	6891.470137	47247.302765	3942.343663	24756.191137
23.036500	-0.002316	-0.000376	-0.000683	0.000836	6869.697660	47207.515016	3938.906280	24735.108134
23.536500	-0.000031	-0.000391	-0.003553	0.000645	6892.921016	47225.482625	3931.762824	24744.768890
24.037000	0.001475	-0.000051	-0.002885	0.001392	6900.055942	47183.817537	3931.550579	24707.000227
24.537500	-0.001216	-0.000066	-0.002064	0.001476	6873.992391	47173.695596	3933.510555	24702.766436
25.039000	0.001293	-0.000085	-0.003945	0.001009	6901.954956	47219.550313	3929.753770	24726.356507
25.535000	-0.000499	-0.000132	-0.001870	0.001142	6883.851601	47201.236010	3934.918917	24719.659747
26.035000	-0.001564	-0.000124	-0.000141	0.001237	6872.980308	47192.248250	3939.284725	24714.848772
26.535500	-0.000249	0.000212	-0.003606	0.001439	6883.409543	47205.943008	3929.512227	24704.661607
27.036000	0.001333	0.000295	0.002251	-0.001809	6928.993336	47547.831920	3953.930166	24869.189887
27.536500	-0.001275	0.000102	0.001985	-0.001413	6900.581549	47487.206197	3952.135165	24849.063750
28.036500	0.000057	-0.000035	0.000674	-0.000708	6906.492628	47400.580594	3946.691741	24813.253154
28.536500	0.001259	0.000128	-0.000919	-0.000806	6918.782289	47427.374902	3942.674099	24818.230805
29.037000	0.001316	0.000972	0.000325	0.000063	6911.107872	47424.816021	3943.682155	24774.212046
29.537000	-0.000033	-0.000051	-0.000642	0.003041	6870.416454	47015.718222	3933.130682	24623.939697
30.037500	0.000015	0.000493	0.002897	-0.000067	6900.050557	47388.962285	3950.962426	24780.773925
30.534000	-0.002956	-0.000842	-0.001898	0.002663	6846.684834	46973.810920	3930.798646	24642.991265
31.038500	0.001320	0.000436	-0.002106	0.000981	6902.474239	47275.767685	3934.718618	24727.780826
31.572000	-0.002439	0.000102	-0.003684	0.004406	6835.300583	46892.626499	3921.461467	24555.458893
32.036000	-0.001270	-0.000397	0.000911	-0.000896	6895.760322	47382.727041	3947.839314	24822.815637
32.536500	-0.001660	-0.000512	-0.000447	0.000931	6874.950964	47183.885562	3939.286067	24730.323272
33.036500	0.001389	0.000729	-0.000527	-0.000282	6915.047158	47435.236134	3942.319255	24791.646599
33.536500	-0.003072	-0.000409	-0.005635	0.002872	6843.658022	46996.468206	3920.362282	24632.448667
34.037500	-0.001208	0.000338	0.000507	0.002229	6867.029999	47138.100369	3938.363891	24664.826644
34.540000	-0.001476	0.000065	-0.003886	0.002027	6866.407848	47130.875854	3927.209937	24675.002230
35.035000	-0.002231	-0.000428	-0.000181	0.001881	6860.728742	47095.555728	3937.456743	24682.372041
35.537000	0.000211	-0.000561	-0.002377	0.001476	6887.379414	47123.279871	3932.679216	24702.786951
36.035500	-0.001324	0.000235	0.000217	0.002043	6867.681351	47146.608023	3938.086509	24674.189930
36.538000	-0.000171	0.000633	-0.000041	0.002026	6878.642863	47189.002242	3937.442318	24675.070480
37.036000	-0.001045	0.000623	-0.000061	0.002390	6867.047539	47150.825577	3936.417135	24656.717595
37.536000	-0.001678	0.000084	-0.001515	0.001930	6865.430054	47142.730810	3933.763976	24679.881845
38.036500	-0.000597	-0.000605	-0.001667	0.001409	6880.425816	47125.607396	3934.749568	24706.187568
38.537500	-0.002595	-0.000794	-0.003274	0.001016	6865.394777	47146.404225	3931.514808	24725.987266
39.043000	-0.001072	-0.000062	0.001475	0.001961	6870.809894	47124.705339	3941.673635	24678.337447
39.537000	-0.000783	0.000521	0.003933	0.002387	6869.531944	47140.759904	3947.135925	24656.883163
40.035000	-0.002797	-0.000673	-0.004504	0.001346	6860.427004	47125.006330	3927.376205	24709.331836
40.535500	-0.002925	0.000219	-0.004655	0.001943	6853.673116	47155.250938	3925.398790	24679.249640
41.035500	-0.000840	0.000311	-0.002279	0.002509	6867.851365	47106.796379	3930.193307	24650.720511
41.535500	-0.001599	0.000539	0.000935	0.003449	6851.997626	47034.328811	3936.249438	24603.467909
42.036500	-0.000196	0.000287	-0.000290	0.001896	6879.627672	47166.968362	3937.124965	24681.626104
42.536500	0.000029	-0.000027	-0.001698	0.001689	6883.675706	47156.044834	3933.920553	24692.038267
43.036500	-0.001570	0.000375	-0.000006	0.002102	6864.829692	47154.853358	3937.330446	24671.203311
43.539500	-0.003188	-0.000187	0.002266	0.003331	6838.327888	46972.429727	3940.121469	24609.402243
44.034500	0.000138	0.000470	0.001762	-0.000772	6907.859612	47459.006087	3949.799223	24816.484896
44.535000	0.000750	0.000816	-0.003506	0.001629	6891.011330	47248.311830	3929.272473	24695.061975
45.035500	0.001763	0.000562	0.000738	-0.000463	6920.310246	47436.754419	3946.207363	24800.848265
45.535500	0.000525	0.000196	-0.000444	-0.000682	6910.669619	47421.686598	3943.618291	24811.968710
46.036000	0.000111	-0.000414	0.002716	-0.001155	6911.229812	47407.598711	3953.416180	24835.964691
46.535500	-0.001082	0.001016	0.001303	0.002516	6865.522547	47178.069944	3939.725741	24650.356356
47.036500	-0.000836	-0.000256	0.000602	0.002621	6866.836219	47037.617061	3937.568168	24645.062706
47.536500	-0.003796	0.000178	-0.000865	0.004149	6825.103024	46926.310987	3929.593373	24568.316106
48.039500	0.000620	0.001069	0.000903	0.000025	6904.891795	47438.657924	3945.335141	24776.109806
48.537000	-0.000561	-0.000526	-0.001476	0.001013	6884.485462	47174.094457	3936.315022	24726.171119
49.037500	0.001975	0.001068	-0.000368	-0.000036	6918.271702	47444.830563	3942.084303	24779.187535
49.535000	-0.000575	0.000616	0.000539	0.004453	6852.176633	46939.962386	3932.515496	24553.065198
50.035000	-0.000123	0.000518	0.001015	-0.000214	6900.137862	47406.635184	3946.281073	24788.223633
50.535500	-0.002546	-0.001767	0.005957	0.003517	6842.554584	46793.217111	3949.547454	24600.052162
51.036000	-0.010962	-0.009917	0.001585	0.272849	4936.154166	26029.147820	3401.378970	14520.197446
51.535500	-0.034275	-0.029509	-0.005359	-0.026178	6823.709459	46991.487024	4000.231591	26143.573217
52.036500	-0.018879	-0.031916	0.000623	-0.127733	8064.835099	58320.882763	4343.893107	32296.122283
52.536500	-0.021854	-0.022748	-0.003991	-0.089597	7589.995962	54739.307436	4197.009216	29815.546023
53.036000	-0.024125	-0.017999	-0.003884	-0.087874	7546.219184	55102.369938	4191.735209	29708.537224
53.537500	-0.015690	-0.013612	-0.006972	-0.092539	7691.331610	56203.656225	4196.884949	29999.278739
54.035000	-0.002539	-0.010801	-0.003785	-0.102359	7956.605935	57779.206606	4240.049217	30621.557496
54.535000	-0.000514	-0.010848	0.001834	-0.099593	7947.821458	57424.410459	4249.691734	30444.841114
55.035000	0.003310	-0.008280	0.000371	-0.089349	7872.400296	56467.704081	4210.525571	29800.152949
55.535500	-0.001855	-0.003669	-0.005077	-0.055692	7439.292327	52996.582923	4087.094390	27785.864923
56.036000	0.005232	-0.001904	0.000829	-0.041043	7359.347080	51529.779386	4060.986197	26956.780224
56.536500	0.009277	-0.002723	0.002958	-0.058733	7592.945152	53459.486120	4120.933580	27961.527427
57.036500	0.012306	-0.002500	0.003679	-0.067352	7723.026588	54501.151483	4150.146776	28466.097802
57.539500	0.011060	0.001836	0.008947	-0.022835	7231.415406	49933.594646	4031.498011	25964.451896
58.037000	0.013189	0.002499	0.015754	0.001212	7013.697951	47463.686955	3982.676490	24716.107378
58.534500	0.013197	0.004055	0.015213	0.013403	6897.341887	46383.531484	3947.845856	24109.145610
59.035000	0.017178	0.005633	0.024371	0.018297	6888.755637	46052.209921	3959.397259	23870.254618
59.537500	0.015883	0.006921	0.015233	0.024245	6821.248177	45590.672681	3919.032432	23583.470755
60.038000	0.022406	0.008945	0.025106	0.021060	6911.987293	46106.828148	3953.889438	23736.549026
60.538500	0.024230	0.010731	0.021821	0.020517	6934.411121	46339.595964	3946.482422	23762.736526
61.036000	0.025997	0.011588	0.022167	0.017512	6980.009984	46728.432796	3955.541908	23908.382960
61.536500	0.024333	0.016495	0.018502	0.017913	6960.213697	47186.470370	3944.559403	23888.885689
62.039500	0.027557	0.015497	0.024681	0.008526	7082.571209	48051.857111	3987.162949	24349.909151
62.537000	0.027870	0.016511	0.023134	0.011965	7051.909509	47800.042875	3973.352083	24179.874819
63.086500	0.028103	0.016620	0.027899	0.011571	7058.036306	47852.036998	3987.645451	24199.259021
63.538000	0.028805	0.017248	0.023254	0.013730	7043.808351	47693.602737	3968.827599	24093.101023
64.037500	0.029924	0.017236	0.029063	0.014809	7044.195911	47581.018175	3981.878201	24040.235136
64.535500	0.029911	0.018066	0.029567	0.017548	7017.442222	47384.680241	3975.694791	23906.652418
65.035500	0.030837	0.019239	0.030724	0.016189	7039.640847	47645.273257	3982.657934	23972.821257
65.536000	0.030985	0.019071	0.022470	0.022112	6983.746745	47020.943833	3943.938502	23685.888796
66.036000	0.032511	0.019223	0.028320	0.016426	7053.674774	47619.201012	3975.350309	23961.280642
66.539500	0.033777	0.019283	0.029354	0.016489	7065.446091	47618.827126	3978.030218	23958.192449
67.039500	0.034622	0.019196	0.028236	0.016468	7073.938860	47612.054079	3974.999441	23959.199998
67.537000	0.030925	0.019569	0.031803	0.022985	6974.782471	46982.859343	3966.893167	23643.923284
68.040000	0.033144	0.020329	0.032543	0.018444	7040.145653	47525.181226	3981.447392	23863.109957
68.535000	0.034957	0.019709	0.035044	0.020514	7037.643461	47249.126069	3982.643577	23762.913039
69.038000	0.035113	0.020026	0.029912	0.020207	7042.150945	47312.924922	3969.324457	23777.711959
69.535500	0.034236	0.020773	0.030776	0.025665	6980.834117	46832.889376	3956.779269	23515.592468
70.036000	0.037281	0.020562	0.037002	0.022693	7039.059804	47113.707634	3982.031851	23657.946182
70.536000	0.034585	0.019770	0.032888	0.025035	6990.258137	46795.109960	3964.252627	23545.701282
71.036500	0.037088	0.019657	0.032912	0.024422	7020.377727	46845.817849	3965.994729	23575.020509
71.536500	0.033859	0.020049	0.029258	0.030918	6927.085281	46231.281507	3938.530383	23266.420911
72.037000	0.035475	0.021030	0.033591	0.027694	6973.250068	46653.671212	3958.915962	23418.999360
72.537500	0.036603	0.021123	0.036235	0.031202	6950.491794	46310.367982	3956.567247	23253.039902
73.034500	0.036624	0.019896	0.035571	0.029928	6962.858433	46315.028032	3958.225793	23313.160668
73.535000	0.033266	0.020284	0.030906	0.036172	6871.992633	45732.325921	3928.924618	23020.156526
74.035500	0.036325	0.020421	0.033627	0.032627	6934.268034	46097.808875	3945.664079	23185.984227
74.535000	0.035247	0.020344	0.034428	0.036286	6889.505558	45727.043455	3937.998374	23014.864801
75.036500	0.034763	0.019876	0.035195	0.034798	6898.951861	45828.030564	3944.045193	23084.300758
75.536000	0.034473	0.020448	0.039613	0.040713	6840.907157	45302.014871	3940.025743	22809.722953
76.037500	0.036404	0.020440	0.033845	0.037576	6888.250188	45609.220868	3933.002732	22954.872117
76.537000	0.036533	0.021041	0.034107	0.041173	6855.793974	45315.057713	3924.160759	22788.535720
77.037500	0.038439	0.021487	0.039839	0.040353	6881.289970	45439.096062	3941.596018	22826.328930
77.537500	0.034657	0.021503	0.034337	0.046047	6793.366197	44885.482148	3911.959983	22565.332920
78.035000	0.036358	0.021871	0.038308	0.041989	6846.573912	45316.462362	3933.138049	22751.003037
78.535000	0.038105	0.021014	0.037093	0.042490	6858.174028	45183.666529	3928.577123	22727.975087
79.074000	0.036286	0.020932	0.040807	0.043501	6831.871488	45077.255889	3935.769794	22681.647128
79.536000	0.033317	0.020649	0.037789	0.048079	6762.538040	44606.805067	3915.676109	22473.022093
80.039500	0.037744	0.021332	0.038114	0.044686	6834.389096	45000.859344	3925.464306	22627.399816
80.539500	0.037424	0.020727	0.038007	0.044789	6830.475897	44932.138453	3924.910281	22622.706873
81.036500	0.038326	0.021050	0.039799	0.045870	6828.817848	44858.797099	3926.793932	22573.421990
81.537000	0.038252	0.020711	0.037056	0.046222	6824.876783	44791.891711	3918.626566	22557.378670
82.034500	0.039458	0.021214	0.040553	0.047214	6826.849465	44744.604567	3925.230578	22512.257244
82.537500	0.038617	0.021569	0.039880	0.047750	6814.129654	44727.173277	3922.038490	22487.931072
83.035500	0.036356	0.021477	0.043042	0.048087	6790.237505	44685.772321	3929.511022	22472.658237
83.535500	0.037671	0.021512	0.038586	0.049086	6793.129481	44592.956554	3915.127041	22427.428670
84.035500	0.039377	0.022363	0.040022	0.050509	6795.737654	44537.991047	3915.160849	22363.222205
84.535500	0.038358	0.021781	0.037663	0.051920	6773.483247	44346.905366	3905.323214	22299.703831
85.039000	0.040505	0.021491	0.041625	0.050572	6805.524530	44448.272733	3919.203881	22360.365479
85.536500	0.039645	0.021708	0.042287	0.051382	6790.182020	44391.441679	3918.814248	22323.877525
86.036500	0.039645	0.022006	0.041257	0.051958	6784.900849	44364.856222	3914.600748	22298.006620
86.537000	0.040272	0.021766	0.039239	0.052403	6786.572535	44299.337007	3908.166533	22278.029324
87.037500	0.038565	0.022029	0.039381	0.053040	6765.159257	44263.665846	3906.879287	22249.473723
87.535000	0.040239	0.022485	0.040908	0.053576	6775.531425	44255.943739	3909.457462	22225.435452
88.035000	0.041535	0.021938	0.038406	0.054017	6783.356044	44161.754872	3901.809866	22205.709900
88.535500	0.037930	0.021222	0.041035	0.055032	6741.278275	43997.324248	3905.998063	22160.389643
89.035500	0.040409	0.022729	0.044328	0.055658	6758.101754	44080.943055	3912.952477	22132.481322
89.536000	0.039558	0.021654	0.039231	0.056517	6742.582510	43897.612972	3897.481860	22094.268723
90.036500	0.041230	0.022456	0.046202	0.056004	6762.427266	44022.172846	3916.957502	22117.078954
90.536500	0.041810	0.022549	0.042476	0.057313	6755.791267	43906.921169	3903.817784	22058.909396
91.036500	0.042424	0.022668	0.041755	0.057012	6764.122767	43946.695167	3902.729564	22072.273167
91.537500	0.040838	0.022750	0.040504	0.058280	6738.205909	43834.584028	3896.219247	22016.063694
92.035000	0.042205	0.022765	0.043131	0.057730	6755.597832	43887.997175	3904.437703	22040.438807
92.535000	0.041202	0.023118	0.040660	0.060324	6723.029510	43676.557930	3891.363656	21925.777863
93.037000	0.040534	0.021934	0.041204	0.057893	6738.956078	43794.068539	3899.024179	22033.213263
93.535500	0.040331	0.022655	0.045333	0.060592	6712.770290	43607.812666	3902.722798	21913.963455
94.036000	0.040885	0.021783	0.040183	0.058248	6738.926334	43746.452737	3895.475372	22017.504197
94.535500	0.039105	0.021694	0.041817	0.060297	6704.415271	43545.372356	3894.407584	21926.977927
95.036000	0.042050	0.021640	0.042371	0.058991	6742.738789	43662.924604	3899.202170	21984.606158
95.538500	0.040999	0.022409	0.043184	0.060970	6715.388839	43549.329934	3896.193633	21897.346587
96.037000	0.041605	0.021588	0.039926	0.059839	6731.044154	43578.447594	3890.725335	21947.184832
