sample name	sample
index	692
start time	 03-22-2021  12:30:16 PM


Wavelength (nm)	Absorbance
494.344910	-0.264649
494.563924	-0.264649
494.782919	-0.264649
495.001897	-0.488117
495.220856	0.284479
495.439797	0.435545
495.658719	-0.007104
495.877624	0.165130
496.096510	-0.076010
496.315378	-0.227500
496.534227	-0.239754
496.753059	-0.174528
496.971872	-0.261289
497.190667	-0.018589
497.409444	0.002766
497.628203	0.009280
497.846943	0.009893
498.065665	0.012434
498.284369	0.013307
498.503055	0.013202
498.721723	0.013908
498.940372	0.014195
499.159003	0.014791
499.377616	0.014288
499.596210	0.013600
499.814787	0.012818
500.033345	0.012762
500.251885	0.012550
500.470406	0.013442
500.688910	0.013630
500.907395	0.014217
501.125862	0.013787
501.344311	0.013738
501.562742	0.014693
501.781154	0.015219
501.999548	0.014683
502.217924	0.015148
502.436282	0.014587
502.654621	0.013727
502.872942	0.013610
503.091245	0.013874
503.309530	0.014008
503.527797	0.013260
503.746045	0.012812
503.964275	0.013897
504.182487	0.013170
504.400681	0.012803
504.618856	0.012840
504.837013	0.012312
505.055152	0.011265
505.273273	0.010599
505.491376	0.011325
505.709460	0.012068
505.927526	0.011332
506.145574	0.010810
506.363604	0.010287
506.581615	0.010249
506.799608	0.010727
507.017583	0.011163
507.235540	0.011528
507.453478	0.011604
507.671399	0.010835
507.889301	0.010133
508.107185	0.011402
508.325050	0.012208
508.542898	0.011770
508.760727	0.010854
508.978538	0.011084
509.196330	0.011392
509.414105	0.010665
509.631861	0.011275
509.849599	0.011378
510.067319	0.010990
510.285021	0.009897
510.502704	0.009592
510.720369	0.010107
510.938016	0.010155
511.155645	0.009604
511.373255	0.009771
511.590848	0.009100
511.808422	0.009072
512.025977	0.008228
512.243515	0.008919
512.461034	0.008675
512.678536	0.008377
512.896018	0.007984
513.113483	0.008014
513.330930	0.007720
513.548358	0.008024
513.765768	0.008081
513.983160	0.008465
514.200533	0.008011
514.417889	0.009012
514.635226	0.009027
514.852545	0.009742
515.069845	0.009746
515.287128	0.009643
515.504392	0.008887
515.721638	0.009051
515.938866	0.009173
516.156075	0.009427
516.373267	0.008937
516.590440	0.009082
516.807594	0.009185
517.024731	0.009113
517.241850	0.009291
517.458950	0.009962
517.676032	0.010035
517.893095	0.009270
518.110141	0.009179
518.327168	0.009931
518.544177	0.010062
518.761168	0.009340
518.978141	0.009233
519.195095	0.009134
519.412031	0.008792
519.628949	0.008665
519.845849	0.009275
520.062731	0.009503
520.279594	0.008204
520.496439	0.008028
520.713266	0.008141
520.930074	0.007775
521.146865	0.008461
521.363637	0.008308
521.580391	0.008188
521.797127	0.007923
522.013844	0.007482
522.230543	0.007553
522.447224	0.007343
522.663887	0.007758
522.880532	0.008136
523.097158	0.007343
523.313766	0.007684
523.530356	0.007628
523.746928	0.007758
523.963481	0.007848
524.180017	0.008170
524.396534	0.008667
524.613032	0.007899
524.829513	0.008118
525.045975	0.008008
525.262420	0.007767
525.478845	0.007210
525.695253	0.007344
525.911643	0.007362
526.128014	0.007287
526.344367	0.006913
526.560702	0.007089
526.777018	0.007165
526.993316	0.007074
527.209597	0.006926
527.425858	0.007246
527.642102	0.007011
527.858328	0.006537
528.074535	0.006727
528.290724	0.006476
528.506894	0.006191
528.723047	0.005861
528.939181	0.005744
529.155297	0.006008
529.371395	0.005768
529.587475	0.005607
529.803536	0.006046
530.019579	0.005638
530.235604	0.005685
530.451611	0.005902
530.667600	0.005177
530.883570	0.004990
531.099522	0.004911
531.315456	0.005124
531.531372	0.004548
531.747269	0.004322
531.963148	0.004167
532.179009	0.004281
532.394852	0.004318
532.610676	0.004735
532.826482	0.005103
533.042271	0.005114
533.258040	0.005358
533.473792	0.006272
533.689525	0.006725
533.905240	0.006539
534.120937	0.006499
534.336616	0.006259
534.552277	0.006406
534.767919	0.006342
534.983543	0.006110
535.199149	0.006121
535.414736	0.005861
535.630306	0.005626
535.845857	0.005805
536.061390	0.005470
536.276904	0.005641
536.492401	0.005449
536.707879	0.005103
536.923339	0.005399
537.138781	0.005135
537.354204	0.004998
537.569610	0.004835
537.784997	0.004629
538.000366	0.004766
538.215716	0.004307
538.431049	0.004295
538.646363	0.004857
538.861659	0.004688
539.076937	0.004582
539.292196	0.004518
539.507438	0.004679
539.722661	0.005060
539.937866	0.004876
540.153052	0.005315
540.368221	0.005419
540.583371	0.005225
540.798503	0.005076
541.013617	0.005415
541.228712	0.005625
541.443789	0.006161
541.658848	0.005982
541.873889	0.006098
542.088912	0.005891
542.303916	0.005930
542.518902	0.005763
542.733870	0.005733
542.948820	0.005568
543.163752	0.005595
543.378665	0.005029
543.593560	0.004938
543.808437	0.004904
544.023295	0.004570
544.238136	0.004422
544.452958	0.004618
544.667762	0.004815
544.882548	0.004565
545.097315	0.004442
545.312064	0.004330
545.526795	0.004356
545.741508	0.004458
545.956203	0.004944
546.170879	0.005057
546.385537	0.004522
546.600177	0.004239
546.814799	0.004647
547.029402	0.004492
547.243988	0.004237
547.458555	0.004002
547.673103	0.004091
547.887634	0.003999
548.102146	0.003700
548.316640	0.003356
548.531116	0.003151
548.745574	0.002661
548.960013	0.002435
549.174435	0.002530
549.388838	0.002457
549.603222	0.001994
549.817589	0.001880
550.031937	0.002300
550.246267	0.003026
550.460579	0.002914
550.674873	0.002693
550.889148	0.002765
551.103405	0.002698
551.317644	0.002989
551.531865	0.003285
551.746068	0.003410
551.960252	0.003226
552.174418	0.002842
552.388566	0.003096
552.602696	0.003546
552.816807	0.003843
553.030900	0.004081
553.244975	0.004142
553.459032	0.003924
553.673070	0.003519
553.887091	0.003481
554.101093	0.003599
554.315077	0.003525
554.529042	0.003333
554.742990	0.003151
554.956919	0.002871
555.170830	0.002509
555.384722	0.002489
555.598597	0.002466
555.812453	0.002142
556.026291	0.002175
556.240111	0.001966
556.453913	0.001799
556.667696	0.001638
556.881461	0.001571
557.095208	0.001818
557.308937	0.001653
557.522647	0.001848
557.736339	0.002081
557.950013	0.001972
558.163669	0.002224
558.377307	0.002414
558.590926	0.002389
558.804527	0.002262
559.018110	0.001985
559.231675	0.001715
559.445221	0.001656
559.658749	0.001434
559.872259	0.001379
560.085751	0.001132
560.299225	0.001217
560.512680	0.001134
560.726117	0.001334
560.939536	0.001558
561.152937	0.001907
561.366319	0.002144
561.579683	0.002067
561.793029	0.002155
562.006357	0.002487
562.219667	0.002421
562.432958	0.002717
562.646231	0.002620
562.859486	0.002660
563.072723	0.003030
563.285941	0.002942
563.499141	0.003236
563.712323	0.003325
563.925487	0.003236
564.138632	0.003257
564.351760	0.002897
564.564869	0.002976
564.777960	0.002818
564.991032	0.002436
565.204087	0.002145
565.417123	0.001946
565.630141	0.001421
565.843140	0.001289
566.056122	0.000784
566.269085	0.001001
566.482030	0.000736
566.694957	0.000659
566.907866	0.000724
567.120756	0.000845
567.333628	0.000855
567.546482	0.001061
567.759318	0.000925
567.972135	0.001189
568.184935	0.001171
568.397716	0.001187
568.610478	0.001424
568.823223	0.001458
569.035949	0.001148
569.248657	0.001174
569.461347	0.001082
569.674019	0.001281
569.886672	0.001489
570.099308	0.001368
570.311925	0.001298
570.524523	0.001252
570.737104	0.000985
570.949666	0.001399
571.162210	0.001509
571.374736	0.001700
571.587244	0.001361
571.799733	0.001194
572.012205	0.001300
572.224658	0.001385
572.437092	0.001095
572.649509	0.001105
572.861907	0.000675
573.074287	0.000516
573.286649	0.000492
573.498993	0.000701
573.711318	0.000876
573.923625	0.000742
574.135914	0.000970
574.348185	0.001124
574.560438	0.001545
574.772672	0.001910
574.984888	0.001971
575.197086	0.001773
575.409266	0.001736
575.621427	0.001389
575.833570	0.001525
576.045695	0.001401
576.257802	0.001156
576.469890	0.000822
576.681961	0.000660
576.894013	0.000487
577.106046	0.000475
577.318062	0.000388
577.530059	0.000422
577.742039	0.000478
577.954000	0.000424
578.165942	0.000544
578.377867	0.000435
578.589773	0.000253
578.801661	0.000111
579.013531	0.000345
579.225382	0.000300
579.437216	0.000269
579.649031	0.000180
579.860828	0.000334
580.072606	0.000470
580.284367	0.000708
580.496109	0.001053
580.707833	0.000968
580.919539	0.000741
581.131227	0.000801
581.342896	0.000666
581.554547	0.000657
581.766180	0.000650
581.977795	0.000478
582.189391	0.000335
582.400969	-0.000050
582.612529	-0.000089
582.824071	-0.000098
583.035595	-0.000300
583.247100	-0.000186
583.458587	-0.000404
583.670056	-0.000743
583.881506	-0.000639
584.092939	-0.000523
584.304353	-0.000380
584.515749	0.000034
584.727127	0.000164
584.938486	0.000469
585.149828	0.000586
585.361151	0.000727
585.572456	0.001056
585.783742	0.001300
585.995011	0.001186
586.206261	0.001238
586.417493	0.000949
586.628706	0.000925
586.839902	0.000887
587.051079	0.000730
587.262238	0.000539
587.473379	0.000223
587.684502	-0.000159
587.895606	-0.000358
588.106692	-0.000297
588.317760	-0.000263
588.528810	-0.000340
588.739841	-0.000264
588.950855	-0.000111
589.161850	-0.000065
589.372827	-0.000038
589.583785	-0.000029
589.794726	0.000293
590.005648	0.000004
590.216552	-0.000003
590.427437	0.000205
590.638305	0.000043
590.849154	-0.000036
591.059985	-0.000089
591.270798	0.000168
591.481592	0.000229
591.692369	0.000048
591.903127	0.000154
592.113867	0.000086
592.324588	-0.000017
592.535292	0.000203
592.745977	0.000260
592.956644	0.000463
593.167293	0.000453
593.377923	0.000266
593.588536	0.000346
593.799130	0.000502
594.009706	0.000568
594.220263	0.000591
594.430803	0.000381
594.641324	0.000295
594.851827	0.000463
595.062312	0.000186
595.272778	0.000395
595.483227	0.000350
595.693657	0.000317
595.904069	0.000452
596.114462	0.000291
596.324838	0.000078
596.535195	0.000108
596.745534	-0.000186
596.955855	0.000056
597.166157	-0.000073
597.376441	-0.000146
597.586707	-0.000167
597.796955	-0.000180
598.007185	0.000156
598.217396	0.000130
598.427589	0.000121
598.637764	0.000196
598.847921	-0.000077
599.058060	-0.000159
599.268180	-0.000224
599.478282	-0.000499
599.688366	-0.000585
599.898431	-0.000955
600.108479	-0.000872
600.318508	-0.000640
600.528519	-0.000653
600.738511	-0.000628
600.948486	-0.000506
601.158442	-0.000549
601.368380	-0.000357
601.578300	-0.000286
601.788202	0.000052
601.998085	0.000330
602.207950	0.000093
602.417797	-0.000034
602.627626	0.000123
602.837436	0.000302
603.047228	0.000494
603.257002	0.000449
603.466758	0.000503
603.676496	0.000149
603.886215	-0.000093
604.095916	-0.000156
604.305599	-0.000115
604.515264	-0.000278
604.724910	-0.000383
604.934538	-0.000132
605.144148	-0.000238
605.353740	-0.000234
605.563314	-0.000053
605.772869	0.000020
605.982406	0.000046
606.191925	0.000189
606.401425	0.000178
606.610908	0.000273
606.820372	0.000052
607.029818	0.000286
607.239246	-0.000029
607.448655	-0.000265
607.658047	-0.000371
607.867420	-0.000510
608.076775	-0.000600
608.286111	-0.000506
608.495430	-0.000841
608.704730	-0.000880
608.914012	-0.001237
609.123275	-0.001060
609.332521	-0.000707
609.541748	-0.000530
609.750957	-0.000350
609.960148	-0.000578
610.169321	-0.000598
610.378475	-0.000571
610.587611	-0.000632
610.796729	-0.000307
611.005829	-0.000461
611.214910	-0.000565
611.423974	-0.000802
611.633019	-0.000882
611.842045	-0.000879
612.051054	-0.000634
612.260044	-0.000469
612.469017	-0.000433
612.677970	-0.000575
612.886906	-0.000526
613.095824	-0.000699
613.304723	-0.000732
613.513604	-0.000835
613.722467	-0.000806
613.931311	-0.001155
614.140138	-0.001325
614.348946	-0.001459
614.557736	-0.001422
614.766507	-0.001309
614.975261	-0.001410
615.183996	-0.001369
615.392713	-0.001290
615.601412	-0.001224
615.810092	-0.001257
616.018754	-0.000915
616.227399	-0.000708
616.436024	-0.000740
616.644632	-0.000712
616.853222	-0.000613
617.061793	-0.000580
617.270346	-0.000521
617.478880	-0.000446
617.687397	-0.000257
617.895895	-0.000349
618.104375	-0.000462
618.312837	-0.000217
618.521281	-0.000296
618.729706	-0.000189
618.938113	-0.000009
619.146502	-0.000033
619.354873	0.000082
619.563226	0.000168
619.771560	0.000060
619.979876	-0.000060
620.188174	-0.000406
620.396453	-0.000512
620.604715	-0.000587
620.812958	-0.000656
621.021183	-0.000596
621.229390	-0.000853
621.437578	-0.000961
621.645748	-0.000762
621.853900	-0.000579
622.062034	-0.000254
622.270150	-0.000204
622.478247	-0.000328
622.686326	-0.000276
622.894387	-0.000465
623.102430	-0.000360
623.310454	-0.000367
623.518461	-0.000651
623.726449	-0.000600
623.934418	-0.000764
624.142370	-0.000645
624.350303	-0.000420
624.558218	-0.000469
624.766115	-0.000421
624.973994	-0.000276
625.181855	-0.000367
625.389697	-0.000305
625.597521	-0.000374
625.805327	-0.000186
626.013114	-0.000145
626.220883	-0.000065
626.428634	0.000014
626.636367	0.000053
626.844082	-0.000139
627.051778	-0.000006
627.259457	0.000126
627.467117	0.000127
627.674758	0.000059
627.882382	-0.000010
628.089987	-0.000020
628.297574	0.000002
628.505143	-0.000119
628.712694	0.000140
628.920226	0.000151
629.127740	-0.000113
629.335236	-0.000195
629.542714	-0.000280
629.750174	-0.000335
629.957615	-0.000317
630.165038	-0.000409
630.372443	-0.000541
630.579829	-0.000750
630.787198	-0.000912
630.994548	-0.000821
631.201880	-0.000897
631.409194	-0.000931
631.616489	-0.001008
631.823766	-0.001251
632.031025	-0.001404
632.238266	-0.001164
632.445489	-0.001167
632.652693	-0.001144
632.859879	-0.001201
633.067047	-0.001044
633.274197	-0.001073
633.481329	-0.001004
633.688442	-0.001013
633.895537	-0.000904
634.102614	-0.001047
634.309672	-0.001243
634.516713	-0.001182
634.723735	-0.001146
634.930739	-0.001233
635.137724	-0.001184
635.344692	-0.001155
635.551641	-0.001164
635.758572	-0.001292
635.965485	-0.001223
636.172379	-0.001135
636.379256	-0.001154
636.586114	-0.001155
636.792954	-0.001110
636.999775	-0.001249
637.206579	-0.001235
637.413364	-0.001312
637.620131	-0.001261
637.826880	-0.001205
638.033610	-0.001051
638.240323	-0.001092
638.447017	-0.001119
638.653692	-0.001002
638.860350	-0.000936
639.066990	-0.001030
639.273611	-0.000961
639.480214	-0.000920
639.686798	-0.000902
639.893365	-0.001045
640.099913	-0.001106
640.306443	-0.001111
640.512955	-0.001136
640.719449	-0.001161
640.925924	-0.001095
641.132381	-0.001067
641.338820	-0.001061
641.545241	-0.001151
641.751644	-0.001134
641.958028	-0.001031
642.164394	-0.000996
642.370742	-0.001079
642.577071	-0.000934
642.783383	-0.000934
642.989676	-0.000976
643.195951	-0.000942
643.402207	-0.000773
643.608446	-0.000617
643.814666	-0.000599
644.020868	-0.000547
644.227052	-0.000584
644.433218	-0.000671
644.639365	-0.000735
644.845494	-0.000629
645.051605	-0.000599
645.257698	-0.000513
645.463772	-0.000657
645.669828	-0.000634
645.875866	-0.000567
646.081886	-0.000565
646.287888	-0.000561
646.493871	-0.000643
646.699836	-0.000597
646.905783	-0.000615
647.111712	-0.000544
647.317622	-0.000682
647.523514	-0.000704
647.729388	-0.000687
647.935244	-0.000716
648.141082	-0.000511
648.346901	-0.000495
648.552702	-0.000537
648.758485	-0.000661
648.964250	-0.001028
649.169996	-0.000985
649.375724	-0.001009
649.581434	-0.001336
649.787126	-0.001372
649.992800	-0.001770
650.198455	-0.001738
650.404092	-0.001935
650.609711	-0.001996
650.815311	-0.001919
651.020894	-0.001853
651.226458	-0.001824
651.432004	-0.001712
651.637532	-0.001665
651.843041	-0.001503
652.048532	-0.001489
652.254006	-0.001312
652.459460	-0.001235
652.664897	-0.001219
652.870315	-0.001303
653.075716	-0.001429
653.281097	-0.001501
653.486461	-0.001614
653.691807	-0.001555
653.897134	-0.001523
654.102443	-0.001544
654.307734	-0.001450
654.513006	-0.001301
654.718261	-0.001267
654.923497	-0.001217
655.128715	-0.001007
655.333915	-0.001062
655.539096	-0.001130
655.744259	-0.000976
655.949404	-0.000911
656.154531	-0.000896
656.359640	-0.001060
656.564730	-0.000869
656.769802	-0.000856
656.974856	-0.000877
657.179892	-0.000732
657.384909	-0.000808
657.589908	-0.001005
657.794889	-0.000883
657.999852	-0.000850
658.204797	-0.000737
658.409723	-0.000718
658.614631	-0.000636
658.819521	-0.000661
659.024393	-0.000597
659.229246	-0.000432
659.434081	-0.000367
659.638898	-0.000680
659.843697	-0.000800
660.048478	-0.000853
660.253240	-0.000975
660.457984	-0.001072
660.662710	-0.001075
660.867417	-0.001243
661.072107	-0.001492
661.276778	-0.001540
661.481431	-0.001383
661.686066	-0.001531
661.890682	-0.001619
662.095281	-0.001713
662.299861	-0.001807
662.504422	-0.001920
662.708966	-0.001898
662.913491	-0.001926
663.117999	-0.001880
663.322488	-0.001993
663.526958	-0.001664
663.731411	-0.001620
663.935845	-0.001492
664.140261	-0.001458
664.344659	-0.001331
664.549038	-0.001252
664.753400	-0.000897
664.957743	-0.000917
665.162068	-0.000878
665.366375	-0.001062
665.570663	-0.001183
665.774933	-0.001137
665.979185	-0.001092
666.183419	-0.001070
666.387635	-0.001193
666.591832	-0.001475
666.796011	-0.001508
667.000172	-0.001511
667.204315	-0.001466
667.408439	-0.001260
667.612545	-0.001465
667.816634	-0.001485
668.020703	-0.001631
668.224755	-0.001345
668.428788	-0.001259
668.632803	-0.001185
668.836800	-0.001084
669.040779	-0.001000
669.244739	-0.000934
669.448681	-0.000865
669.652605	-0.000646
669.856511	-0.000563
670.060399	-0.000734
670.264268	-0.000693
670.468119	-0.000700
670.671952	-0.000734
670.875767	-0.000789
671.079563	-0.000791
671.283341	-0.000583
671.487101	-0.000667
671.690843	-0.000502
671.894567	-0.000504
672.098272	-0.000522
672.301959	-0.000531
672.505628	-0.000380
672.709278	-0.000373
672.912911	-0.000441
673.116525	-0.000442
673.320121	-0.000520
673.523699	-0.000511
673.727258	-0.000313
673.930799	-0.000415
674.134322	-0.000424
674.337827	-0.000556
674.541314	-0.000508
674.744782	-0.000625
674.948232	-0.000674
675.151664	-0.000723
675.355078	-0.000931
675.558474	-0.001142
675.761851	-0.000967
675.965210	-0.001021
676.168551	-0.001114
676.371873	-0.001271
676.575178	-0.001136
676.778464	-0.001321
676.981732	-0.001218
677.184981	-0.001162
677.388213	-0.001042
677.591426	-0.001029
677.794621	-0.000895
677.997798	-0.000725
678.200956	-0.000712
678.404097	-0.000744
678.607219	-0.000470
678.810323	-0.000464
679.013408	-0.000434
679.216476	-0.000543
679.419525	-0.000521
679.622556	-0.000633
679.825569	-0.000778
680.028563	-0.000797
680.231540	-0.000913
680.434498	-0.001026
680.637438	-0.001178
680.840359	-0.001112
681.043263	-0.000934
681.246148	-0.001040
681.449015	-0.000920
681.651864	-0.000943
681.854694	-0.000776
682.057506	-0.000741
682.260301	-0.000833
682.463076	-0.000731
682.665834	-0.000824
682.868573	-0.000945
683.071295	-0.000866
683.273998	-0.000851
683.476682	-0.000798
683.679349	-0.000979
683.881997	-0.000893
684.084627	-0.000829
684.287239	-0.000818
684.489833	-0.000827
684.692408	-0.000862
684.894965	-0.000892
685.097504	-0.000984
685.300025	-0.000974
685.502527	-0.000732
685.705012	-0.000903
685.907478	-0.000911
686.109925	-0.000877
686.312355	-0.000766
686.514766	-0.000763
686.717159	-0.000919
686.919534	-0.001049
687.121891	-0.001250
687.324230	-0.001567
687.526550	-0.001425
687.728852	-0.001539
687.931136	-0.001661
688.133401	-0.001788
688.335649	-0.001873
688.537878	-0.001864
688.740089	-0.001817
688.942281	-0.001567
689.144456	-0.001467
689.346612	-0.001612
689.548750	-0.001700
689.750870	-0.001734
689.952971	-0.001713
690.155055	-0.001687
690.357120	-0.001523
690.559167	-0.001544
690.761195	-0.001553
690.963206	-0.001580
691.165198	-0.001540
691.367172	-0.001430
691.569128	-0.001482
691.771065	-0.001562
691.972984	-0.001550
692.174885	-0.001625
692.376768	-0.001566
692.578633	-0.001739
692.780479	-0.001710
692.982308	-0.001697
693.184118	-0.001625
693.385909	-0.001379
693.587683	-0.001355
693.789438	-0.001348
693.991175	-0.001393
694.192894	-0.001357
694.394595	-0.001214
694.596277	-0.001099
694.797941	-0.001007
694.999587	-0.000942
695.201215	-0.001044
695.402824	-0.000970
695.604416	-0.000958
695.805989	-0.000918
696.007543	-0.000902
696.209080	-0.000930
696.410598	-0.001033
696.612099	-0.000870
696.813580	-0.001036
697.015044	-0.001087
697.216490	-0.001166
697.417917	-0.001160
697.619326	-0.001095
697.820717	-0.001115
698.022089	-0.001140
698.223444	-0.001125
698.424780	-0.001353
698.626098	-0.001292
698.827397	-0.001266
699.028679	-0.001364
699.229942	-0.001494
699.431187	-0.001579
699.632414	-0.001479
699.833622	-0.001489
700.034813	-0.001447
700.235985	-0.001365
700.437139	-0.001360
700.638274	-0.001374
700.839392	-0.001282
701.040491	-0.001300
701.241572	-0.001298
701.442635	-0.001521
701.643679	-0.001606
701.844706	-0.001702
702.045714	-0.001704
702.246704	-0.001713
702.447675	-0.001753
702.648629	-0.001868
702.849564	-0.001773
703.050481	-0.001731
703.251380	-0.001568
703.452260	-0.001538
703.653122	-0.001568
703.853966	-0.001706
704.054792	-0.001799
704.255600	-0.001744
704.456389	-0.001640
704.657160	-0.001625
704.857913	-0.001668
705.058648	-0.001747
705.259365	-0.001742
705.460063	-0.001834
705.660743	-0.001804
705.861405	-0.001663
706.062048	-0.001714
706.262674	-0.001651
706.463281	-0.001659
706.663870	-0.001669
706.864441	-0.001694
707.064993	-0.001618
707.265527	-0.001331
707.466043	-0.001191
707.666541	-0.001219
707.867021	-0.001129
708.067482	-0.001178
708.267925	-0.001235
708.468350	-0.001205
708.668757	-0.001208
708.869145	-0.001278
709.069516	-0.001434
709.269868	-0.001641
709.470201	-0.001687
709.670517	-0.001814
709.870814	-0.001872
710.071093	-0.002033
710.271354	-0.002142
710.471597	-0.002325
710.671821	-0.002285
710.872028	-0.002320
711.072216	-0.002296
711.272385	-0.002325
711.472537	-0.002253
711.672670	-0.002312
711.872785	-0.002127
712.072882	-0.002133
712.272961	-0.001958
712.473021	-0.001942
712.673063	-0.001914
712.873087	-0.001945
713.073093	-0.002073
713.273081	-0.002211
713.473050	-0.002138
713.673001	-0.002170
713.872934	-0.002171
714.072849	-0.002390
714.272745	-0.002579
714.472623	-0.002667
714.672483	-0.002590
714.872325	-0.002578
715.072148	-0.002475
715.271954	-0.002573
715.471741	-0.002691
715.671509	-0.002708
715.871260	-0.002475
716.070992	-0.002437
716.270707	-0.002435
716.470403	-0.002443
716.670080	-0.002286
716.869740	-0.002382
717.069381	-0.002274
717.269004	-0.002236
717.468609	-0.002167
717.668195	-0.002341
717.867764	-0.002248
718.067314	-0.002238
718.266846	-0.002367
718.466360	-0.002379
718.665855	-0.002320
718.865332	-0.002323
719.064791	-0.002304
719.264232	-0.002252
719.463655	-0.002160
719.663059	-0.002119
719.862445	-0.001973
720.061813	-0.001769
720.261163	-0.001757
720.460494	-0.001788
720.659807	-0.001638
720.859102	-0.001406
721.058379	-0.001551
721.257638	-0.001470
721.456878	-0.001733
721.656100	-0.001815
721.855304	-0.002080
722.054490	-0.002268
722.253657	-0.002214
722.452806	-0.002464
722.651937	-0.002718
722.851050	-0.002530
723.050145	-0.002645
723.249221	-0.002602
723.448279	-0.002798
723.647319	-0.002732
723.846340	-0.002748
724.045344	-0.002778
724.244329	-0.002688
724.443296	-0.002575
724.642245	-0.002793
724.841175	-0.002790
725.040088	-0.002896
725.238982	-0.002780
725.437857	-0.002731
725.636715	-0.002730
725.835554	-0.002740
726.034376	-0.002880
726.233179	-0.003062
726.431963	-0.003248
726.630730	-0.003389
726.829478	-0.003240
727.028208	-0.003297
727.226920	-0.003399
727.425614	-0.003326
727.624289	-0.003402
727.822946	-0.003365
728.021585	-0.003049
728.220206	-0.002901
728.418808	-0.002738
728.617392	-0.002533
728.815958	-0.002541
729.014506	-0.002367
729.213036	-0.002354
729.411547	-0.002493
729.610040	-0.002504
729.808515	-0.002864
730.006972	-0.002790
730.205410	-0.002918
730.403831	-0.003123
730.602233	-0.003197
730.800616	-0.003259
730.998982	-0.003383
731.197329	-0.003304
731.395658	-0.003219
731.593969	-0.003176
731.792262	-0.003194
731.990536	-0.003109
732.188793	-0.003324
732.387031	-0.003397
732.585250	-0.003461
732.783452	-0.003431
732.981635	-0.003521
733.179800	-0.003559
733.377947	-0.003479
733.576076	-0.003633
733.774186	-0.003734
733.972278	-0.003580
734.170352	-0.003541
734.368408	-0.003576
734.566446	-0.003723
734.764465	-0.003563
734.962466	-0.003576
735.160449	-0.003628
735.358413	-0.003521
735.556360	-0.003349
735.754288	-0.003400
735.952198	-0.003192
736.150090	-0.003108
736.347963	-0.002749
736.545818	-0.002832
736.743655	-0.002854
736.941474	-0.002844
737.139275	-0.002845
737.337057	-0.002758
737.534821	-0.002679
737.732567	-0.002832
737.930295	-0.003026
738.128005	-0.003362
738.325696	-0.003322
738.523369	-0.003295
738.721024	-0.003332
738.918660	-0.003376
739.116279	-0.003597
739.313879	-0.003721
739.511461	-0.003703
739.709024	-0.003859
739.906570	-0.003831
740.104097	-0.003972
740.301606	-0.003980
740.499097	-0.004015
740.696569	-0.003904
740.894024	-0.003889
741.091460	-0.003779
741.288878	-0.003749
741.486277	-0.003463
741.683659	-0.003259
741.881022	-0.003187
742.078367	-0.003267
742.275694	-0.003208
742.473002	-0.003312
742.670293	-0.003464
742.867565	-0.003356
743.064819	-0.003406
743.262054	-0.003228
743.459272	-0.003299
743.656471	-0.003286
743.853652	-0.003399
744.050815	-0.003443
744.247959	-0.003558
744.445085	-0.003155
744.642194	-0.003073
744.839283	-0.002967
745.036355	-0.003116
745.233408	-0.002982
745.430444	-0.002740
745.627461	-0.002522
745.824459	-0.002321
746.021440	-0.002197
746.218402	-0.002348
746.415346	-0.002368
746.612272	-0.002325
746.809180	-0.002266
747.006069	-0.002338
747.202940	-0.002464
747.399793	-0.002464
747.596628	-0.002368
747.793444	-0.002231
747.990243	-0.002186
748.187023	-0.002384
748.383784	-0.002397
748.580528	-0.002566
748.777253	-0.002434
748.973960	-0.002316
749.170649	-0.002206
749.367320	-0.002218
749.563973	-0.002078
749.760607	-0.002073
749.957223	-0.001795
750.153821	-0.001627
750.350400	-0.001320
750.546962	-0.001507
750.743505	-0.001440
750.940030	-0.001620
751.136536	-0.001689
751.333025	-0.001764
751.529495	-0.001641
751.725947	-0.001669
751.922381	-0.001646
752.118796	-0.001723
752.315194	-0.001455
752.511573	-0.001602
752.707934	-0.001493
752.904276	-0.001344
753.100601	-0.001242
753.296907	-0.001284
753.493195	-0.001394
753.689465	-0.001444
753.885716	-0.001450
754.081949	-0.001583
754.278164	-0.001540
754.474361	-0.001587
754.670540	-0.001804
754.866700	-0.002119
755.062843	-0.002292
755.258967	-0.002173
755.455072	-0.002342
755.651160	-0.002541
755.847229	-0.002576
756.043280	-0.002681
756.239313	-0.002584
756.435328	-0.002430
756.631324	-0.002339
756.827302	-0.002273
757.023262	-0.002486
757.219204	-0.002460
757.415127	-0.002294
757.611033	-0.002185
757.806920	-0.001931
758.002788	-0.002118
758.198639	-0.002179
758.394471	-0.002091
758.590286	-0.002161
758.786081	-0.002153
758.981859	-0.002035
759.177619	-0.002071
759.373360	-0.002125
759.569083	-0.002129
759.764788	-0.002119
759.960474	-0.002067
760.156143	-0.002108
760.351793	-0.001923
760.547425	-0.001748
760.743038	-0.001823
760.938634	-0.001660
761.134211	-0.001647
761.329770	-0.001697
761.525311	-0.001497
761.720833	-0.001449
761.916338	-0.001414
762.111824	-0.001439
762.307292	-0.001561
762.502741	-0.001444
762.698173	-0.001581
762.893586	-0.001585
763.088981	-0.001673
763.284358	-0.001733
763.479716	-0.001853
763.675057	-0.001705
763.870379	-0.001745
764.065683	-0.001611
764.260968	-0.001810
764.456236	-0.001816
764.651485	-0.001829
764.846716	-0.001728
765.041929	-0.001641
765.237123	-0.001565
765.432299	-0.001798
765.627457	-0.001842
765.822597	-0.001869
766.017719	-0.001674
766.212822	-0.001520
766.407907	-0.001570
766.602974	-0.001661
766.798023	-0.001701
766.993054	-0.001893
767.188066	-0.001602
767.383060	-0.001524
767.578036	-0.001376
767.772993	-0.001375
767.967933	-0.001449
768.162854	-0.001480
768.357757	-0.001474
768.552642	-0.001351
768.747508	-0.001011
768.942356	-0.001014
769.137186	-0.000881
769.331998	-0.000892
769.526792	-0.000889
769.721567	-0.000794
769.916324	-0.000611
770.111063	-0.000583
770.305784	-0.000584
770.500486	-0.000665
770.695171	-0.000641
770.889837	-0.000750
771.084484	-0.000657
771.279114	-0.000727
771.473725	-0.000858
771.668318	-0.000891
771.862893	-0.000676
772.057450	-0.000581
772.251988	-0.000667
772.446509	-0.000855
772.641011	-0.000874
772.835494	-0.000996
773.029960	-0.000710
773.224407	-0.000559
773.418836	-0.000621
773.613247	-0.000800
773.807640	-0.001003
774.002014	-0.000824
774.196370	-0.000810
774.390708	-0.000692
774.585028	-0.000730
774.779330	-0.001106
774.973613	-0.001129
775.167878	-0.001010
775.362125	-0.000939
775.556354	-0.000832
775.750564	-0.001009
775.944756	-0.001015
776.138930	-0.001173
776.333086	-0.001201
776.527223	-0.001033
776.721343	-0.001018
776.915444	-0.000972
777.109526	-0.001078
777.303591	-0.001025
777.497637	-0.001077
777.691666	-0.000988
777.885676	-0.000861
778.079667	-0.000801
778.273641	-0.000862
778.467596	-0.000813
778.661533	-0.000959
778.855452	-0.000940
779.049352	-0.000919
779.243235	-0.000757
779.437099	-0.000629
779.630945	-0.000656
779.824773	-0.000700
780.018582	-0.000622
780.212373	-0.000723
780.406146	-0.000691
780.599901	-0.000595
780.793638	-0.000731
780.987356	-0.000805
781.181056	-0.000984
781.374738	-0.000896
781.568402	-0.000748
781.762047	-0.000807
781.955674	-0.000688
782.149283	-0.000576
782.342874	-0.000685
782.536447	-0.000699
782.730001	-0.000577
782.923537	-0.000412
783.117055	-0.000546
783.310555	-0.000657
783.504036	-0.000486
783.697499	-0.000527
783.890944	-0.000651
784.084371	-0.000566
784.277780	-0.000387
784.471170	-0.000469
784.664542	-0.000445
784.857896	-0.000403
785.051231	-0.000396
785.244549	-0.000596
785.437848	-0.000651
785.631129	-0.000639
785.824392	-0.000772
786.017636	-0.000738
786.210863	-0.000591
786.404071	-0.000869
786.597260	-0.000808
786.790432	-0.000765
786.983585	-0.000864
787.176721	-0.000925
787.369838	-0.000855
787.562936	-0.000759
787.756017	-0.001081
787.949079	-0.001336
788.142123	-0.001258
788.335149	-0.001368
788.528156	-0.001564
788.721146	-0.001541
788.914117	-0.001482
789.107070	-0.001558
789.300005	-0.001670
789.492921	-0.001534
789.685819	-0.001560
789.878699	-0.001534
790.071561	-0.001530
790.264405	-0.001455
790.457230	-0.001248
790.650037	-0.001343
790.842826	-0.001207
791.035597	-0.001071
791.228349	-0.001093
791.421084	-0.001068
791.613800	-0.001152
791.806497	-0.000996
791.999177	-0.000999
792.191838	-0.000984
792.384481	-0.000934
792.577106	-0.001094
792.769713	-0.000897
792.962301	-0.000670
793.154871	-0.000636
793.347423	-0.000515
793.539957	-0.000622
793.732473	-0.000518
793.924970	-0.000659
794.117449	-0.000580
794.309910	-0.000451
794.502353	-0.000651
794.694777	-0.000785
794.887183	-0.000730
795.079571	-0.000710
795.271941	-0.000615
795.464293	-0.000519
795.656626	-0.000384
795.848941	-0.000277
796.041238	-0.000283
796.233516	-0.000141
796.425777	-0.000048
796.618019	0.000005
796.810243	0.000027
797.002449	-0.000015
797.194636	-0.000160
797.386805	-0.000162
797.578956	-0.000389
797.771089	-0.000374
797.963204	-0.000442
798.155300	-0.000544
798.347378	-0.000300
798.539438	-0.000418
798.731480	-0.000435
798.923503	-0.000335
799.115509	-0.000369
799.307496	-0.000395
799.499465	-0.000514
799.691415	-0.000487
799.883348	-0.000404
800.075262	-0.000717
800.267158	-0.000562
800.459035	-0.000579
800.650895	-0.000726
800.842736	-0.000703
801.034559	-0.000757
801.226364	-0.000739
801.418150	-0.000749
801.609919	-0.000985
801.801669	-0.000860
801.993401	-0.000839
802.185114	-0.000834
802.376810	-0.000972
802.568487	-0.001131
802.760146	-0.000967
802.951787	-0.000874
803.143409	-0.000896
803.335014	-0.000859
803.526600	-0.001180
803.718168	-0.001308
803.909717	-0.001420
804.101249	-0.001399
804.292762	-0.001437
804.484257	-0.001406
804.675734	-0.001696
804.867192	-0.001710
805.058632	-0.001562
805.250054	-0.001455
805.441458	-0.001666
805.632844	-0.001614
805.824211	-0.001534
806.015561	-0.001526
806.206891	-0.001628
806.398204	-0.001532
806.589499	-0.001693
806.780775	-0.001762
806.972033	-0.001868
807.163273	-0.001640
807.354495	-0.001789
807.545698	-0.001965
807.736883	-0.001822
807.928050	-0.002080
808.119199	-0.001969
808.310329	-0.001936
808.501441	-0.001989
808.692535	-0.001890
808.883611	-0.002031
809.074669	-0.002157
809.265708	-0.002079
809.456729	-0.002160
809.647732	-0.002045
809.838717	-0.002334
810.029683	-0.002412
810.220632	-0.002386
810.411562	-0.002558
810.602474	-0.002655
810.793367	-0.002425
810.984242	-0.002387
811.175100	-0.002448
811.365938	-0.002413
811.556759	-0.002301
811.747562	-0.002433
811.938346	-0.002720
812.129112	-0.002623
812.319860	-0.002644
812.510589	-0.002599
812.701300	-0.002482
812.891994	-0.002445
813.082668	-0.002363
813.273325	-0.002377
813.463964	-0.002245
813.654584	-0.002198
813.845186	-0.002291
814.035769	-0.002197
814.226335	-0.002271
814.416882	-0.002416
814.607411	-0.002598
814.797922	-0.002567
814.988415	-0.002615
815.178889	-0.002678
815.369345	-0.002734
815.559783	-0.002509
815.750203	-0.002432
815.940605	-0.002564
816.130988	-0.002634
816.321353	-0.002593
816.511700	-0.002966
816.702028	-0.003044
816.892339	-0.003113
817.082631	-0.003035
817.272905	-0.003334
817.463161	-0.003538
817.653398	-0.003630
817.843617	-0.003456
818.033819	-0.003439
818.224001	-0.003243
818.414166	-0.003161
818.604312	-0.003151
818.794440	-0.003318
818.984550	-0.003254
819.174642	-0.003322
819.364716	-0.003424
819.554771	-0.003638
819.744808	-0.003687
819.934827	-0.003704
820.124827	-0.003623
820.314810	-0.003573
820.504774	-0.003576
820.694720	-0.003527
820.884647	-0.003382
821.074557	-0.003323
821.264448	-0.003113
821.454321	-0.003193
821.644176	-0.003118
821.834012	-0.003225
822.023831	-0.003409
822.213631	-0.003407
822.403413	-0.003646
822.593176	-0.003901
822.782922	-0.003922
822.972649	-0.004262
823.162358	-0.004567
823.352049	-0.004817
823.541721	-0.004895
823.731376	-0.004879
823.921012	-0.004946
824.110629	-0.004679
824.300229	-0.004585
824.489811	-0.004613
824.679374	-0.004641
824.868919	-0.004537
825.058445	-0.004670
825.247954	-0.004702
825.437444	-0.004724
825.626916	-0.004953
825.816370	-0.005023
826.005806	-0.005077
826.195223	-0.004923
826.384622	-0.004774
826.574003	-0.004716
826.763366	-0.004708
826.952711	-0.004605
827.142037	-0.004682
827.331345	-0.004409
827.520635	-0.004519
827.709906	-0.004457
827.899160	-0.004549
828.088395	-0.004530
828.277612	-0.004511
828.466810	-0.004422
828.655991	-0.004582
828.845153	-0.004428
829.034297	-0.004164
829.223423	-0.004009
829.412531	-0.004035
829.601620	-0.004043
829.790691	-0.004021
829.979744	-0.003813
830.168779	-0.003699
830.357795	-0.003602
830.546793	-0.003470
830.735773	-0.003635
830.924735	-0.003797
831.113679	-0.003738
831.302604	-0.003799
831.491511	-0.003876
831.680400	-0.003921
831.869271	-0.003713
832.058123	-0.003877
832.246957	-0.003932
832.435773	-0.003990
832.624571	-0.003887
832.813351	-0.003809
833.002112	-0.003682
833.190855	-0.003634
833.379580	-0.003799
833.568287	-0.004046
833.756975	-0.004065
833.945645	-0.004221
834.134297	-0.004410
834.322931	-0.004642
834.511547	-0.005034
834.700144	-0.005226
834.888723	-0.005416
835.077284	-0.005610
835.265826	-0.005550
835.454351	-0.005530
835.642857	-0.005573
835.831345	-0.005581
836.019815	-0.005754
836.208266	-0.005678
836.396699	-0.005889
836.585114	-0.006006
836.773511	-0.005943
836.961890	-0.006200
837.150250	-0.006472
837.338592	-0.006610
837.526916	-0.006680
837.715222	-0.006482
837.903510	-0.006468
838.091779	-0.006206
838.280030	-0.006175
838.468263	-0.006138
838.656477	-0.005991
838.844674	-0.005674
839.032852	-0.005722
839.221012	-0.005641
839.409153	-0.005594
839.597277	-0.005443
839.785382	-0.005389
839.973469	-0.005435
840.161538	-0.005294
840.349589	-0.005439
840.537621	-0.005493
840.725635	-0.005377
840.913631	-0.005371
841.101609	-0.005475
841.289568	-0.005657
841.477509	-0.005954
841.665432	-0.005754
841.853337	-0.005898
842.041224	-0.005806
842.229092	-0.005797
842.416942	-0.005716
842.604774	-0.005620
842.792588	-0.005644
842.980383	-0.005607
843.168160	-0.005341
843.355919	-0.005396
843.543660	-0.005385
843.731382	-0.005417
843.919087	-0.005346
844.106773	-0.005288
844.294441	-0.005287
844.482090	-0.005310
844.669722	-0.005224
844.857335	-0.005135
845.044930	-0.005158
845.232507	-0.005070
845.420065	-0.004961
845.607605	-0.005019
845.795127	-0.005144
845.982631	-0.005188
846.170117	-0.005090
846.357584	-0.004946
846.545033	-0.005165
846.732464	-0.005065
846.919877	-0.005001
847.107272	-0.004890
847.294648	-0.004859
847.482006	-0.004805
847.669346	-0.004911
847.856667	-0.004783
848.043971	-0.004769
848.231256	-0.004686
848.418523	-0.004822
848.605771	-0.004857
848.793002	-0.005003
848.980214	-0.005126
849.167408	-0.005067
849.354584	-0.004945
849.541742	-0.004874
849.728881	-0.005111
849.916002	-0.005147
850.103105	-0.005183
850.290190	-0.005216
850.477256	-0.005350
850.664304	-0.005065
850.851334	-0.005100
851.038346	-0.005064
851.225340	-0.005211
851.412315	-0.005220
851.599272	-0.005042
851.786211	-0.005063
851.973132	-0.005142
852.160034	-0.005022
852.346918	-0.005259
852.533784	-0.005219
852.720632	-0.005390
852.907462	-0.005374
853.094273	-0.005241
853.281066	-0.005623
853.467841	-0.005405
853.654598	-0.005351
853.841336	-0.005204
854.028056	-0.004979
854.214758	-0.005193
854.401442	-0.005112
854.588107	-0.005037
854.774755	-0.004938
854.961384	-0.004437
855.147995	-0.004306
855.334587	-0.004249
855.521162	-0.004244
855.707718	-0.004022
855.894256	-0.003857
856.080775	-0.003632
856.267277	-0.003509
856.453760	-0.003525
856.640225	-0.003878
856.826672	-0.003908
857.013101	-0.003598
857.199511	-0.003535
857.385903	-0.003831
857.572277	-0.004056
857.758633	-0.004409
857.944970	-0.004657
858.131290	-0.004944
858.317591	-0.005064
858.503873	-0.005115
858.690138	-0.005464
858.876384	-0.005617
859.062612	-0.005737
859.248822	-0.005461
859.435014	-0.005463
859.621188	-0.005402
859.807343	-0.005201
859.993480	-0.004917
860.179599	-0.005304
860.365699	-0.005466
860.551781	-0.005602
860.737846	-0.005617
860.923891	-0.005688
861.109919	-0.005528
861.295929	-0.005541
861.481920	-0.005605
861.667893	-0.005790
861.853848	-0.005383
862.039784	-0.005232
862.225702	-0.004881
862.411603	-0.004780
862.597484	-0.004673
862.783348	-0.004459
862.969193	-0.004336
863.155021	-0.004045
863.340830	-0.003706
863.526620	-0.003745
863.712393	-0.003762
863.898147	-0.003839
864.083883	-0.003664
864.269601	-0.003677
864.455301	-0.003801
864.640982	-0.003729
864.826645	-0.003838
865.012290	-0.004098
865.197917	-0.004098
865.383526	-0.003934
865.569116	-0.004048
865.754688	-0.003918
865.940242	-0.004025
866.125777	-0.003756
866.311295	-0.003986
866.496794	-0.003868
866.682275	-0.003519
866.867737	-0.003471
867.053182	-0.003439
867.238608	-0.003171
867.424016	-0.003386
867.609406	-0.003318
867.794778	-0.003575
867.980131	-0.003487
868.165466	-0.003721
868.350783	-0.003863
868.536082	-0.003864
868.721362	-0.004104
868.906625	-0.004518
869.091869	-0.004614
869.277094	-0.004699
869.462302	-0.004477
869.647491	-0.004664
869.832662	-0.004554
870.017815	-0.004788
870.202950	-0.005070
870.388066	-0.004966
870.573165	-0.004872
870.758245	-0.004961
870.943306	-0.005074
871.128350	-0.005319
871.313375	-0.005278
871.498382	-0.005524
871.683371	-0.005414
871.868342	-0.005602
872.053294	-0.005863
872.238229	-0.005996
872.423144	-0.005971
872.608042	-0.006150
872.792922	-0.006232
872.977783	-0.006316
873.162626	-0.006366
873.347451	-0.006548
873.532258	-0.006377
873.717046	-0.006387
873.901816	-0.006326
874.086568	-0.006289
874.271302	-0.006071
874.456017	-0.005973
874.640715	-0.006046
874.825394	-0.005865
875.010055	-0.005836
875.194697	-0.005833
875.379322	-0.005583
875.563928	-0.005510
875.748516	-0.005693
875.933085	-0.005474
876.117637	-0.005386
876.302170	-0.005220
876.486685	-0.004953
876.671182	-0.004748
876.855661	-0.004454
877.040121	-0.004620
877.224563	-0.004792
877.408987	-0.004678
877.593393	-0.004864
877.777780	-0.005032
877.962150	-0.004831
878.146501	-0.005094
878.330833	-0.005240
878.515148	-0.005178
878.699444	-0.004759
878.883722	-0.004470
879.067982	-0.004297
879.252224	-0.004190
879.436447	-0.004026
879.620653	-0.004208
879.804840	-0.004303
879.989008	-0.004429
880.173159	-0.004719
880.357291	-0.004914
880.541405	-0.005071
880.725501	-0.005157
880.909579	-0.005308
881.093638	-0.005201
881.277680	-0.005187
881.461703	-0.005313
881.645707	-0.005078
881.829694	-0.004869
882.013662	-0.004793
882.197612	-0.004961
882.381544	-0.005094
882.565458	-0.005283
882.749353	-0.005392
882.933230	-0.005507
883.117089	-0.005679
883.300930	-0.005971
883.484753	-0.006185
883.668557	-0.006322
883.852343	-0.006411
884.036111	-0.006438
884.219861	-0.006274
884.403592	-0.006385
884.587305	-0.006264
884.771000	-0.006132
884.954677	-0.005952
885.138335	-0.005992
885.321976	-0.005913
885.505598	-0.005850
885.689201	-0.005599
885.872787	-0.005698
886.056354	-0.005908
886.239904	-0.005880
886.423434	-0.005609
886.606947	-0.005559
886.790442	-0.005591
886.973918	-0.005816
887.157376	-0.005709
887.340816	-0.005672
887.524237	-0.005169
887.707641	-0.005114
887.891026	-0.005599
888.074393	-0.005740
888.257741	-0.005969
888.441072	-0.005735
888.624384	-0.005673
888.807678	-0.005706
888.990954	-0.006160
889.174211	-0.006608
889.357451	-0.006881
889.540672	-0.006431
889.723875	-0.006382
889.907059	-0.006240
890.090226	-0.006504
890.273374	-0.006767
890.456504	-0.006937
890.639616	-0.006885
890.822709	-0.006704
891.005785	-0.006272
891.188842	-0.006530
891.371881	-0.006720
891.554901	-0.006789
891.737904	-0.006866
891.920888	-0.006813
892.103854	-0.006803
892.286802	-0.006689
892.469731	-0.006851
892.652643	-0.007114
892.835536	-0.007053
893.018410	-0.007315
893.201267	-0.007214
893.384106	-0.007165
893.566926	-0.006700
893.749728	-0.006579
893.932511	-0.006545
894.115277	-0.006642
894.298024	-0.006559
894.480753	-0.006479
894.663464	-0.006088
894.846157	-0.006231
895.028831	-0.005938
895.211487	-0.006144
895.394125	-0.006056
895.576745	-0.006039
895.759346	-0.005778
895.941930	-0.005487
896.124495	-0.005245
896.307041	-0.005178
896.489570	-0.005044
896.672080	-0.005200
896.854573	-0.005133
897.037046	-0.004989
897.219502	-0.005065
897.401940	-0.004896
897.584359	-0.005117
897.766760	-0.005202
897.949143	-0.005559
898.131507	-0.005746
898.313854	-0.005941
898.496182	-0.006262
898.678492	-0.006632
898.860783	-0.006796
899.043057	-0.007144
899.225312	-0.007432
899.407549	-0.007593
899.589768	-0.007435
899.771968	-0.007478
899.954151	-0.007445
900.136315	-0.007268
900.318461	-0.007115
900.500588	-0.006934
900.682698	-0.007044
900.864789	-0.006723
901.046862	-0.006903
901.228917	-0.007037
901.410953	-0.007048
901.592971	-0.007214
901.774972	-0.007451
901.956953	-0.007322
902.138917	-0.007299
902.320862	-0.007178
902.502790	-0.007501
902.684699	-0.007563
902.866589	-0.007280
903.048462	-0.006935
903.230316	-0.006501
903.412152	-0.006275
903.593970	-0.006476
903.775770	-0.006714
903.957551	-0.006872
904.139314	-0.006694
904.321059	-0.006399
904.502786	-0.006463
904.684494	-0.006835
904.866185	-0.007265
905.047857	-0.007310
905.229510	-0.007338
905.411146	-0.007108
905.592763	-0.007038
905.774363	-0.007162
905.955943	-0.007473
906.137506	-0.007555
906.319051	-0.007360
906.500577	-0.007291
906.682085	-0.007249
906.863575	-0.007426
907.045046	-0.007785
907.226500	-0.007968
907.407935	-0.008060
907.589352	-0.007813
907.770750	-0.007722
907.952131	-0.007843
908.133493	-0.007672
908.314837	-0.007523
908.496163	-0.007714
908.677470	-0.007454
908.858760	-0.007398
909.040031	-0.007002
909.221284	-0.007181
909.402518	-0.007133
909.583735	-0.006818
909.764933	-0.007084
909.946113	-0.007271
910.127275	-0.006818
910.308418	-0.006642
910.489544	-0.006715
910.670651	-0.006867
910.851740	-0.007123
911.032810	-0.007343
911.213863	-0.008025
911.394897	-0.008029
911.575913	-0.008307
911.756911	-0.008309
911.937890	-0.008732
912.118851	-0.008562
912.299794	-0.008739
912.480719	-0.008586
912.661626	-0.008513
912.842514	-0.008338
913.023384	-0.008471
913.204236	-0.008621
913.385070	-0.008792
913.565886	-0.008574
913.746683	-0.008961
913.927462	-0.008934
914.108223	-0.008944
914.288965	-0.009177
914.469690	-0.009072
914.650396	-0.008635
914.831084	-0.008604
915.011754	-0.008785
915.192405	-0.009045
915.373038	-0.008903
915.553653	-0.009090
915.734250	-0.009255
915.914829	-0.009126
916.095389	-0.009102
916.275931	-0.009746
916.456455	-0.009844
916.636961	-0.009615
916.817448	-0.009522
916.997917	-0.009484
917.178368	-0.009519
917.358801	-0.009522
917.539216	-0.009802
917.719612	-0.009845
917.899990	-0.009921
918.080350	-0.009810
918.260692	-0.010138
918.441015	-0.010448
918.621320	-0.010487
918.801607	-0.010480
918.981876	-0.010480
919.162127	-0.010465
919.342359	-0.010789
919.522573	-0.010632
919.702769	-0.010699
919.882947	-0.010819
920.063106	-0.010762
920.243247	-0.010786
920.423370	-0.011063
920.603475	-0.011317
920.783562	-0.011534
920.963630	-0.011246
921.143680	-0.011271
921.323712	-0.011684
921.503725	-0.012122
921.683721	-0.012248
921.863698	-0.012533
922.043657	-0.012327
922.223598	-0.012160
922.403520	-0.012144
922.583424	-0.012313
922.763311	-0.012467
922.943178	-0.012355
923.123028	-0.012092
923.302859	-0.012152
923.482673	-0.012241
923.662467	-0.012392
923.842244	-0.012798
924.022003	-0.012538
924.201743	-0.012966
924.381465	-0.012846
924.561169	-0.012695
924.740854	-0.012736
924.920522	-0.012725
925.100171	-0.012682
925.279802	-0.012311
925.459414	-0.012337
925.639009	-0.012995
925.818585	-0.012811
925.998143	-0.013057
926.177683	-0.012833
926.357205	-0.012866
926.536708	-0.012936
926.716193	-0.012870
926.895660	-0.013419
927.075109	-0.013290
927.254539	-0.013429
927.433951	-0.013781
927.613345	-0.013908
927.792721	-0.014279
927.972079	-0.013920
928.151418	-0.014242
928.330739	-0.014352
928.510042	-0.014504
928.689327	-0.014630
928.868593	-0.014629
929.047841	-0.014784
929.227071	-0.014606
929.406283	-0.015123
929.585476	-0.015869
929.764652	-0.016084
929.943809	-0.016529
930.122948	-0.016689
930.302068	-0.016729
930.481171	-0.016934
930.660255	-0.016840
930.839321	-0.017510
931.018369	-0.017578
931.197398	-0.017681
931.376409	-0.017778
931.555402	-0.017585
931.734377	-0.017610
931.913334	-0.018159
932.092272	-0.018183
932.271192	-0.018765
932.450094	-0.018433
932.628978	-0.018080
932.807844	-0.017940
932.986691	-0.017645
933.165520	-0.018140
933.344331	-0.018184
933.523123	-0.017479
933.701898	-0.017829
933.880654	-0.017802
934.059392	-0.017978
934.238111	-0.018430
934.416813	-0.018651
934.595496	-0.019118
934.774161	-0.019309
934.952808	-0.019837
935.131437	-0.020620
935.310047	-0.020322
935.488639	-0.020258
935.667213	-0.019824
935.845769	-0.019507
936.024306	-0.019488
936.202825	-0.019454
936.381326	-0.019134
936.559809	-0.018980
936.738274	-0.018270
936.916720	-0.018245
937.095148	-0.018115
937.273558	-0.018587
937.451950	-0.018622
937.630323	-0.018856
937.808678	-0.019044
937.987015	-0.019422
938.165334	-0.019214
938.343635	-0.019410
938.521917	-0.019535
938.700181	-0.019741
938.878427	-0.020213
939.056655	-0.020727
939.234864	-0.020866
939.413055	-0.020638
939.591228	-0.020413
939.769383	-0.020095
939.947519	-0.020944
940.125638	-0.020717
940.303738	-0.020930
940.481820	-0.019813
940.659883	-0.020074
940.837929	-0.019590
941.015956	-0.020089
941.193965	-0.020598
941.371955	-0.021800
941.549928	-0.021088
941.727882	-0.021441
941.905818	-0.021120
942.083736	-0.022381
942.261636	-0.022101
942.439517	-0.022148
942.617380	-0.022196
942.795225	-0.021553
942.973052	-0.021506
943.150860	-0.021746
943.328651	-0.022364
943.506423	-0.022712
943.684176	-0.022562
943.861912	-0.021986
944.039629	-0.022067
944.217328	-0.020849
944.395009	-0.021524
944.572672	-0.020622
944.750317	-0.020867
944.927943	-0.019723
945.105551	-0.019665
945.283141	-0.018816
945.460712	-0.018675
945.638265	-0.019022
945.815801	-0.019612
945.993317	-0.018542
946.170816	-0.017886
946.348297	-0.017384
946.525759	-0.017569
946.703203	-0.016222
946.880629	-0.017402
947.058036	-0.017703
947.235425	-0.017353
947.412797	-0.017433
947.590149	-0.017933
947.767484	-0.018855
947.944800	-0.019017
948.122099	-0.019205
948.299379	-0.020585
948.476640	-0.019531
948.653884	-0.020461
948.831109	-0.020169
949.008316	-0.019516
949.185505	-0.019759
949.362676	-0.019948
949.539828	-0.019652
949.716962	-0.018979
949.894078	-0.018095
950.071176	-0.018059
950.248256	-0.017112
950.425317	-0.017609
950.602360	-0.018232
950.779385	-0.016997
950.956391	-0.016003
951.133380	-0.015951
951.310350	-0.016098
951.487302	-0.015963
951.664235	-0.016140
951.841151	-0.016233
952.018048	-0.017094
952.194927	-0.015524
952.371788	-0.015526
952.548631	-0.015994
952.725455	-0.015548
952.902261	-0.015152
953.079049	-0.015357
953.255819	-0.015500
953.432570	-0.015611
953.609303	-0.013914
953.786018	-0.015614
953.962715	-0.014478
954.139394	-0.013223
954.316054	-0.012946
954.492696	-0.012789
954.669320	-0.011690
954.845926	-0.010318
955.022513	-0.008863
955.199083	-0.008643
955.375634	-0.008050
955.552166	-0.009230
955.728681	-0.009985
955.905177	-0.008771
956.081655	-0.008424
956.258115	-0.009652
956.434557	-0.008863
956.610980	-0.008464
956.787385	-0.008286
956.963772	-0.007459
957.140141	-0.005821
957.316492	-0.003894
957.492824	-0.005983
957.669138	-0.006230
957.845434	-0.004039
958.021712	-0.004643
958.197971	-0.005281
958.374212	-0.004425
958.550435	-0.001738
958.726640	-0.002949
958.902826	-0.004940
959.078995	-0.003506
959.255145	-0.002758
959.431277	-0.002497
959.607390	-0.001566
959.783486	-0.001827
959.959563	0.000039
960.135622	-0.001722
960.311662	-0.000876
960.487685	0.001110
960.663689	0.001748
960.839675	0.002843
961.015643	0.001890
961.191593	0.001143
961.367524	0.002968
961.543437	0.001479
961.719332	0.002373
961.895209	0.001933
962.071067	0.001398
962.246907	0.001668
962.422730	0.000742
962.598533	0.001555
962.774319	0.000123
962.950086	0.000340
963.125835	-0.000202
963.301566	0.000459
963.477279	-0.000355
963.652973	-0.000899
963.828650	-0.000617
964.004308	0.000512
964.179947	-0.000711
964.355569	0.001674
964.531172	0.000600
964.706757	0.003080
964.882324	0.002430
965.057873	0.004271
965.233403	0.004864
965.408916	0.004021
965.584410	0.003726
965.759885	0.004224
965.935343	0.003879
966.110782	0.004735
966.286203	0.001983
966.461606	0.001638
966.636991	0.002670
966.812357	0.003624
966.987705	0.004946
967.163035	0.005486
967.338347	0.007502
967.513641	0.008517
967.688916	0.008316
967.864173	0.009125
968.039412	0.009021
968.214632	0.008301
968.389835	0.007257
968.565019	0.006632
968.740185	0.007807
968.915333	0.008094
969.090462	0.008813
969.265573	0.010219
969.440667	0.010559
969.615741	0.009811
969.790798	0.010333
969.965836	0.010277
970.140856	0.010883
970.315858	0.010212
970.490842	0.008982
970.665808	0.007893
970.840755	0.009160
971.015684	0.009041
971.190595	0.010071
971.365487	0.009634
971.540362	0.011056
971.715218	0.011037
971.890056	0.011590
972.064875	0.009244
972.239677	0.008181
972.414460	0.005778
972.589225	0.006884
972.763972	0.008559
972.938700	0.007271
973.113411	0.007636
973.288103	0.005869
973.462777	0.005093
973.637432	0.007867
973.812070	0.009486
973.986689	0.011790
974.161290	0.010433
974.335873	0.010687
974.510437	0.012793
974.684984	0.012368
974.859512	0.013366
975.034022	0.013431
975.208513	0.014441
975.382987	0.013849
975.557442	0.012883
975.731879	0.013870
975.906298	0.013779
976.080698	0.013460
976.255080	0.013793
976.429445	0.013725
976.603790	0.014480
976.778118	0.012637
976.952427	0.013677
977.126719	0.012859
977.300992	0.011853
977.475246	0.012469
977.649483	0.013169
977.823701	0.009711
977.997901	0.009169
978.172083	0.007514
978.346247	0.010185
978.520392	0.009640
978.694519	0.011061
978.868628	0.011651
979.042719	0.010186
979.216791	0.006717
979.390845	0.009468
979.564882	0.008805
979.738899	0.008728
979.912899	0.006763
980.086880	0.005909
980.260843	0.004465
980.434788	0.004860
980.608715	0.004265
980.782623	0.006758
980.956514	0.007237
981.130386	0.008701
981.304240	0.009112
981.478075	0.009587
981.651892	0.010842
981.825692	0.011883
981.999472	0.012475
982.173235	0.012663
982.346980	0.012625
982.520706	0.013786
982.694414	0.014528
982.868104	0.015406
983.041775	0.015598
983.215428	0.016108
983.389064	0.015270
983.562680	0.015868
983.736279	0.016577
983.909860	0.015867
984.083422	0.013869
984.256966	0.014523
984.430491	0.012833
984.603999	0.011020
984.777488	0.010494
984.950959	0.010380
985.124412	0.009740
985.297847	0.008931
985.471263	0.010227
985.644661	0.010747
985.818041	0.009879
985.991403	0.011272
986.164747	0.013210
986.338072	0.012782
986.511379	0.012800
986.684668	0.012157
986.857938	0.014292
987.031191	0.014362
987.204425	0.013183
987.377641	0.012222
987.550839	0.013413
987.724018	0.014098
987.897179	0.015336
988.070322	0.015984
988.243447	0.015557
988.416554	0.013989
988.589642	0.014188
988.762712	0.014101
988.935764	0.014074
989.108798	0.013194
989.281813	0.011803
989.454811	0.010799
989.627790	0.010561
989.800751	0.010786
989.973693	0.010175
990.146617	0.009906
990.319524	0.009494
990.492412	0.009485
990.665281	0.009239
990.838133	0.009108
991.010966	0.008808
991.183781	0.009873
991.356578	0.009486
991.529356	0.009351
991.702117	0.006927
991.874859	0.008164
992.047583	0.009317
992.220288	0.008364
992.392976	0.008789
992.565645	0.008777
992.738296	0.008325
992.910929	0.008117
993.083543	0.008926
993.256139	0.011052
993.428718	0.011067
993.601277	0.011353
993.773819	0.012182
993.946342	0.011668
994.118848	0.011785
994.291335	0.010815
994.463803	0.011750
994.636254	0.011756
994.808686	0.010625
994.981100	0.009850
995.153496	0.007385
995.325874	0.007839
995.498233	0.008280
995.670574	0.008173
995.842897	0.007630
996.015202	0.008087
996.187488	0.007770
996.359757	0.008592
996.532007	0.009682
996.704239	0.010960
996.876452	0.010073
997.048648	0.010699
997.220825	0.011060
997.392984	0.010565
997.565124	0.011244
997.737247	0.010421
997.909351	0.010335
998.081437	0.009132
998.253505	0.009139
998.425554	0.010067
998.597586	0.009742
998.769599	0.009458
998.941594	0.010415
999.113571	0.009491
999.285529	0.010653
999.457469	0.010685
999.629391	0.010912
999.801295	0.011309
999.973181	0.009936
1000.145048	0.010007
1000.316897	0.010031
1000.488728	0.010171
1000.660541	0.009416
1000.832335	0.008938
1001.004111	0.008093
1001.175869	0.008607
1001.347609	0.008341
1001.519331	0.008546
1001.691034	0.008277
1001.862719	0.007401
1002.034386	0.008417
1002.206035	0.008350
1002.377665	0.007887
1002.549277	0.008755
1002.720871	0.009339
1002.892447	0.010225
1003.064004	0.010269
1003.235544	0.010615
1003.407065	0.011609
1003.578568	0.011183
1003.750052	0.011374
1003.921519	0.011782
1004.092967	0.010913
1004.264397	0.009353
1004.435809	0.008627
1004.607202	0.008588
1004.778577	0.008449
1004.949934	0.008386
1005.121273	0.008643
1005.292594	0.008209
1005.463896	0.009030
1005.635180	0.010050
1005.806446	0.012261
1005.977694	0.013134
1006.148923	0.013151
1006.320135	0.012493
1006.491328	0.012739
1006.662503	0.011696
1006.833659	0.010979
1007.004798	0.009015
1007.175918	0.009960
1007.347020	0.007340
1007.518103	0.007115
1007.689169	0.008184
1007.860216	0.010485
1008.031245	0.009181
1008.202256	0.008237
1008.373248	0.008739
1008.544223	0.009731
1008.715179	0.007634
1008.886117	0.008432
1009.057036	0.006929
1009.227938	0.006371
1009.398821	0.005471
1009.569686	0.006217
1009.740533	0.008347
1009.911361	0.007571
1010.082172	0.006872
1010.252964	0.008194
1010.423738	0.007454
1010.594493	0.006087
1010.765231	0.007196
1010.935950	0.006602
1011.106651	0.006748
1011.277334	0.005423
1011.447998	0.006884
1011.618645	0.007357
1011.789273	0.006471
1011.959882	0.008749
1012.130474	0.010518
1012.301048	0.010188
1012.471603	0.009754
1012.642140	0.008675
1012.812658	0.007866
1012.983159	0.006591
1013.153641	0.006156
1013.324105	0.006791
1013.494551	0.007413
1013.664979	0.006890
1013.835388	0.005977
1014.005779	0.005931
1014.176152	0.006709
1014.346507	0.007717
1014.516843	0.008740
1014.687162	0.009238
1014.857462	0.008940
1015.027744	0.006777
1015.198007	0.007779
1015.368252	0.007681
1015.538480	0.007480
1015.708689	0.007974
1015.878879	0.007872
1016.049052	0.006980
1016.219206	0.007416
1016.389342	0.006646
1016.559460	0.008018
1016.729559	0.007679
1016.899641	0.006855
1017.069704	0.006314
1017.239749	0.005546
1017.409775	0.005118
1017.579784	0.005576
1017.749774	0.004384
1017.919746	0.003411
1018.089700	0.002679
1018.259635	0.003264
1018.429553	0.002862
1018.599452	0.003611
1018.769333	0.003027
1018.939195	0.004001
1019.109040	0.003816
1019.278866	0.003846
1019.448674	0.004645
1019.618464	0.004316
1019.788235	0.003250
1019.957989	0.004515
1020.127724	0.003958
1020.297441	0.004780
1020.467139	0.003619
1020.636820	0.004263
1020.806482	0.004587
1020.976126	0.005498
1021.145752	0.006317
1021.315359	0.006076
1021.484948	0.004285
1021.654519	0.004221
1021.824072	0.003521
1021.993607	0.003389
1022.163123	0.002889
1022.332621	0.002421
1022.502101	0.001189
1022.671563	0.001207
1022.841007	0.002095
1023.010432	0.004423
1023.179839	0.002330
1023.349228	0.002697
1023.518598	0.003067
1023.687951	0.003869
1023.857285	0.003747
1024.026601	0.004270
1024.195899	0.003014
1024.365178	0.001476
1024.534439	0.001799
1024.703682	0.003237
1024.872907	0.002513
1025.042114	0.002100
1025.211302	0.001986
1025.380472	0.002643
1025.549624	0.002675
1025.718758	0.003688
1025.887873	0.004513
1026.056970	0.003915
1026.226049	0.004552
1026.395110	0.005506
1026.564153	0.006147
1026.733177	0.006395
1026.902183	0.006157
1027.071171	0.005841
1027.240141	0.004201
1027.409092	0.005286
1027.578026	0.004725
1027.746940	0.004266
1027.915837	0.005484
1028.084716	0.005100
1028.253576	0.004021
1028.422418	0.004469
1028.591242	0.003793
1028.760048	0.004952
1028.928835	0.003853
1029.097604	0.004456
1029.266355	0.005415
1029.435088	0.003273
1029.603803	0.002986
1029.772499	0.002560
1029.941177	0.001784
1030.109837	0.002481
1030.278478	0.001727
1030.447102	0.001856
1030.615707	-0.000098
1030.784294	-0.000963
1030.952863	-0.000402
1031.121413	0.000199
1031.289945	0.002155
1031.458460	0.000978
1031.626955	0.000249
1031.795433	0.001940
1031.963892	0.001188
1032.132334	0.001965
1032.300756	0.002505
1032.469161	0.002120
1032.637548	0.002687
1032.805916	0.000144
1032.974266	0.001178
1033.142598	0.003751
1033.310911	0.003141
1033.479207	0.004334
1033.647484	0.005699
1033.815743	0.004701
1033.983983	0.004148
1034.152206	0.003503
1034.320410	0.006287
1034.488596	0.007607
1034.656764	0.008493
1034.824914	0.008084
1034.993045	0.007654
1035.161158	0.006634
1035.329253	0.007868
1035.497330	0.009705
1035.665388	0.010415
1035.833428	0.010153
1036.001450	0.008664
1036.169454	0.007727
1036.337440	0.008116
1036.505407	0.008958
1036.673356	0.008852
1036.841287	0.008459
1037.009200	0.006736
1037.177094	0.006500
1037.344970	0.005446
1037.512828	0.005788
1037.680668	0.003154
1037.848489	0.003680
1038.016293	0.002455
1038.184078	0.002115
1038.351845	0.001253
1038.519593	0.001558
1038.687324	0.000599
1038.855036	0.000215
1039.022730	0.000163
1039.190406	0.002529
1039.358063	0.001273
1039.525702	0.001163
1039.693323	0.002669
1039.860926	0.003399
1040.028511	0.005482
1040.196077	0.007347
1040.363625	0.007772
1040.531155	0.007544
1040.698667	0.006107
1040.866161	0.007273
1041.033636	0.007381
1041.201093	0.005733
1041.368532	0.006143
1041.535952	0.004870
1041.703355	0.003583
1041.870739	0.003858
1042.038105	0.003058
1042.205452	0.002899
1042.372782	0.001778
1042.540093	0.003311
1042.707386	0.003328
1042.874661	0.001405
1043.041918	0.001575
1043.209156	0.000404
1043.376376	0.000191
1043.543578	0.001915
1043.710762	0.001946
1043.877927	0.001225
1044.045074	-0.001280
1044.212203	0.000212
1044.379314	0.002595
1044.546407	0.002153
1044.713481	0.003627
1044.880537	0.003000
1045.047575	0.002687
1045.214595	0.002725
1045.381596	0.003257
1045.548579	0.003787
1045.715544	0.003577
1045.882491	0.002030
1046.049420	0.001109
1046.216330	0.001904
1046.383222	0.002491
1046.550096	0.001700
1046.716951	0.002316
1046.883789	0.003418
1047.050608	0.004385
1047.217409	0.004166
1047.384192	0.004889
1047.550956	0.005153
1047.717703	0.005688
1047.884431	0.005136
1048.051140	0.006856
1048.217832	0.006010
1048.384505	0.005197
1048.551161	0.004820
1048.717798	0.003421
1048.884416	0.002145
1049.051017	0.002831
1049.217599	-0.000640
1049.384163	-0.000736
1049.550709	-0.001960
1049.717237	-0.001506
1049.883746	-0.003363
1050.050237	-0.002236
1050.216710	-0.002117
1050.383165	-0.002333
1050.549601	-0.002601
1050.716019	-0.000457
1050.882420	-0.000974
1051.048801	-0.000487
1051.215165	-0.001035
1051.381510	0.000662
1051.547837	-0.000607
1051.714146	-0.000409
1051.880437	-0.000722
1052.046709	-0.000159
1052.212964	-0.000090
1052.379200	0.000133
1052.545417	0.000425
1052.711617	0.001642
1052.877798	0.002269
1053.043961	0.002800
1053.210106	0.002606
1053.376233	0.003360
1053.542341	0.001327
1053.708432	0.000281
1053.874504	0.000765
1054.040557	0.002498
1054.206593	0.001062
1054.372610	0.001028
1054.538609	0.000189
1054.704590	-0.001285
1054.870553	0.000067
1055.036497	0.001584
1055.202424	0.003434
1055.368331	0.003970
1055.534221	0.002008
1055.700093	0.003632
1055.865946	0.003889
1056.031781	0.005909
1056.197598	0.007123
1056.363397	0.007333
1056.529177	0.006885
1056.694939	0.006312
1056.860683	0.004444
1057.026409	0.005112
1057.192116	0.005368
1057.357806	0.003756
1057.523477	0.001820
1057.689130	0.002515
1057.854764	0.001742
1058.020381	0.003433
1058.185979	0.002428
1058.351559	0.002794
1058.517120	0.003349
1058.682664	0.001824
1058.848189	0.002664
1059.013696	0.002507
1059.179185	0.003290
1059.344656	0.001917
1059.510108	0.000074
1059.675542	-0.002703
1059.840958	-0.001486
1060.006356	-0.003185
1060.171735	-0.003438
1060.337096	-0.003927
1060.502439	-0.004113
1060.667764	-0.005118
1060.833071	-0.001878
1060.998359	0.000240
1061.163629	0.002068
1061.328881	0.000762
1061.494115	0.000199
1061.659330	0.000623
1061.824527	0.000864
1061.989706	0.001768
1062.154867	0.004358
1062.320010	0.002821
1062.485134	0.001389
1062.650240	0.004790
1062.815328	0.005263
1062.980398	0.006042
1063.145449	0.004887
1063.310482	0.005379
1063.475497	0.005214
1063.640494	0.003409
1063.805473	0.003587
1063.970433	0.003685
1064.135375	0.001589
1064.300299	0.001599
1064.465204	0.003122
1064.630092	0.003508
1064.794961	0.003353
1064.959812	0.003815
1065.124645	0.002317
1065.289459	0.001263
1065.454256	0.002205
1065.619034	0.001663
1065.783793	0.002963
1065.948535	0.002480
1066.113258	0.003423
1066.277964	0.004743
1066.442651	0.002213
1066.607319	0.002482
1066.771970	0.003807
1066.936602	0.001699
1067.101216	0.002771
1067.265812	0.003156
1067.430389	0.002666
1067.594949	0.001561
1067.759490	0.000149
1067.924013	0.003109
1068.088518	0.002548
1068.253004	0.002175
1068.417472	0.004940
1068.581922	0.003414
1068.746354	0.002954
1068.910768	0.002121
1069.075163	0.003008
1069.239540	0.004196
1069.403899	0.004357
1069.568240	0.006893
1069.732562	0.006427
1069.896866	0.005428
1070.061152	0.007142
1070.225420	0.005830
1070.389670	0.004257
1070.553901	0.006028
1070.718114	0.003815
1070.882309	0.004893
1071.046486	0.003789
1071.210644	0.005941
1071.374784	0.005689
1071.538906	0.002268
1071.703010	0.003432
1071.867096	0.004703
1072.031163	0.001343
1072.195212	0.002467
1072.359243	0.002381
1072.523256	0.001932
1072.687250	0.000211
1072.851226	0.000770
1073.015184	0.001795
1073.179124	-0.000283
1073.343045	-0.000057
1073.506949	-0.000391
1073.670834	-0.001593
1073.834701	-0.004019
1073.998549	-0.003418
1074.162380	-0.005133
1074.326192	-0.006628
1074.489986	-0.006046
1074.653761	-0.004801
1074.817519	-0.004522
1074.981258	-0.002748
1075.144979	-0.001144
1075.308682	-0.000698
1075.472367	-0.001947
1075.636033	-0.002088
1075.799681	-0.002045
1075.963311	-0.001007
1076.126923	0.001288
1076.290516	0.000502
1076.454092	-0.000436
1076.617649	0.000351
1076.781187	-0.000270
1076.944708	0.001641
1077.108210	0.002162
1077.271695	0.002673
1077.435160	0.003318
1077.598608	0.000179
1077.762038	0.001471
1077.925449	0.002588
1078.088842	0.001207
1078.252217	0.002000
1078.415573	0.000367
1078.578912	0.002268
1078.742232	0.002366
1078.905534	0.003725
1079.068817	0.007691
1079.232083	0.008878
1079.395330	0.009312
1079.558559	0.008442
1079.721770	0.008006
1079.884962	0.008262
1080.048136	0.006938
1080.211293	0.005648
1080.374430	0.003620
1080.537550	0.001295
1080.700651	-0.002053
1080.863735	-0.003751
1081.026800	-0.004078
1081.189846	-0.005570
1081.352875	-0.004576
1081.515885	-0.004280
1081.678877	-0.005221
1081.841851	-0.006868
1082.004807	-0.007258
1082.167744	-0.005290
1082.330663	-0.001826
1082.493564	-0.000061
1082.656447	0.002133
1082.819312	0.003244
1082.982158	0.001958
1083.144986	0.004076
1083.307796	0.004841
1083.470587	0.005477
1083.633361	0.003748
1083.796116	0.000927
1083.958853	-0.001550
1084.121571	-0.002072
1084.284272	-0.004538
1084.446954	-0.004422
1084.609618	-0.004903
1084.772264	-0.005932
1084.934892	-0.005953
1085.097501	-0.003805
1085.260092	-0.005799
1085.422665	-0.006480
1085.585220	-0.005255
1085.747756	-0.006277
1085.910274	-0.006701
1086.072774	-0.007988
1086.235256	-0.005742
1086.397720	-0.008677
1086.560165	-0.009736
1086.722592	-0.006998
1086.885001	-0.005133
1087.047392	-0.005529
1087.209764	-0.004823
1087.372119	-0.004939
1087.534455	-0.003106
1087.696772	-0.002843
1087.859072	-0.001873
1088.021353	-0.001246
1088.183616	-0.002180
1088.345861	-0.001500
1088.508088	-0.001933
1088.670296	0.000127
1088.832486	-0.000016
1088.994658	-0.000955
1089.156812	0.000878
1089.318948	-0.000371
1089.481065	-0.001505
1089.643164	-0.000808
1089.805245	-0.002349
1089.967308	-0.004813
1090.129352	-0.006074
1090.291378	-0.003789
1090.453386	-0.006218
1090.615376	-0.006016
1090.777347	-0.003921
1090.939301	-0.003414
1091.101236	-0.003509
1091.263153	-0.002641
1091.425051	-0.000218
1091.586932	0.001840
1091.748794	-0.000752
1091.910638	0.003155
1092.072463	-0.002604
1092.234271	-0.004089
1092.396060	-0.004763
1092.557831	-0.005783
1092.719584	-0.007340
1092.881319	-0.007946
1093.043035	-0.009515
1093.204733	-0.010577
1093.366413	-0.012707
1093.528075	-0.010082
1093.689718	-0.007852
1093.851343	-0.006188
1094.012950	-0.004599
1094.174539	-0.003064
1094.336110	-0.004301
1094.497662	-0.005711
1094.659196	-0.001894
1094.820712	0.000232
1094.982210	-0.001255
1095.143689	-0.002379
1095.305151	-0.002213
1095.466594	-0.002902
1095.628018	-0.002387
1095.789425	-0.000487
1095.950813	-0.001415
1096.112183	-0.001849
1096.273535	-0.001303
1096.434869	0.000021
1096.596184	0.000615
1096.757482	-0.003299
1096.918761	-0.004518
1097.080021	-0.004025
1097.241264	-0.002536
1097.402488	-0.001865
1097.563694	-0.001328
1097.724882	-0.002967
1097.886052	-0.003066
1098.047203	-0.001317
1098.208336	0.004206
1098.369451	0.006433
1098.530548	0.004796
1098.691627	0.001884
1098.852687	0.002475
1099.013729	-0.000700
1099.174753	-0.001313
1099.335758	-0.001302
1099.496746	-0.002440
1099.657715	-0.003431
1099.818666	-0.006629
1099.979599	-0.003710
1100.140513	-0.003792
1100.301409	-0.003849
1100.462287	-0.001455
1100.623147	0.000390
1100.783989	-0.000882
1100.944812	-0.004426
1101.105617	-0.008056
1101.266404	-0.003893
1101.427173	-0.007101
1101.587923	-0.009103
1101.748656	-0.008880
1101.909370	-0.009348
1102.070066	-0.011610
1102.230743	-0.011840
1102.391403	-0.008935
1102.552044	-0.005566
1102.712667	-0.009320
1102.873271	-0.008896
1103.033858	-0.005259
1103.194426	-0.005699
1103.354976	-0.006865
1103.515508	-0.003082
1103.676021	-0.001647
1103.836517	0.000954
1103.996994	-0.001621
1104.157453	0.002155
1104.317893	0.001626
1104.478316	0.000406
1104.638720	-0.000521
1104.799106	-0.001224
1104.959474	-0.001839
1105.119823	0.000380
1105.280155	-0.001375
1105.440468	-0.000670
1105.600763	-0.002025
1105.761039	-0.000850
1105.921298	-0.001037
1106.081538	-0.000087
1106.241760	0.005249
1106.401964	0.000288
1106.562149	-0.000935
1106.722316	-0.002314
1106.882465	-0.001793
1107.042596	-0.002887
1107.202709	-0.002948
1107.362803	-0.001288
1107.522879	-0.002934
1107.682937	-0.008586
1107.842977	-0.004791
1108.002999	-0.006049
1108.163002	-0.006910
1108.322987	-0.007109
1108.482954	-0.008541
1108.642902	-0.012543
1108.802833	-0.015007
1108.962745	-0.009925
1109.122639	-0.005959
1109.282515	-0.007400
1109.442372	-0.006703
1109.602211	-0.004150
1109.762032	-0.003697
1109.921835	-0.003739
1110.081620	-0.000986
1110.241386	0.000931
1110.401134	-0.001687
1110.560864	-0.004172
1110.720576	-0.005550
1110.880269	-0.005751
1111.039945	-0.007049
1111.199602	-0.009302
1111.359240	-0.009370
1111.518861	-0.005501
1111.678463	-0.007588
1111.838047	-0.009023
1111.997613	-0.007940
1112.157161	-0.007754
1112.316690	-0.004217
1112.476202	-0.007696
1112.635695	-0.008079
1112.795169	-0.004531
1112.954626	-0.009085
1113.114064	-0.006669
1113.273484	-0.004671
1113.432886	-0.005157
1113.592270	-0.002476
1113.751635	-0.007183
1113.910983	-0.006284
1114.070312	-0.005761
1114.229622	-0.006206
1114.388915	-0.003532
1114.548189	-0.004031
1114.707445	-0.002028
1114.866683	-0.000351
1115.025903	-0.002290
1115.185104	-0.002015
1115.344287	0.002160
1115.503452	0.001342
1115.662599	-0.000506
1115.821727	-0.001960
1115.980838	-0.008549
1116.139930	-0.012735
1116.299004	-0.013679
1116.458059	-0.013248
1116.617097	-0.013656
1116.776116	-0.014931
1116.935117	-0.012897
1117.094099	-0.009173
1117.253064	-0.009372
1117.412010	-0.003047
1117.570938	-0.001284
1117.729848	-0.004590
1117.888740	-0.007064
1118.047613	-0.003783
1118.206468	-0.007493
1118.365305	-0.006886
1118.524124	-0.010437
1118.682924	-0.010579
1118.841707	-0.010120
1119.000471	-0.010984
1119.159216	-0.008396
1119.317944	-0.005579
1119.476653	-0.005322
1119.635344	-0.001250
1119.794017	-0.003214
1119.952672	-0.005339
1120.111308	-0.000510
1120.269927	-0.004782
1120.428527	-0.000409
1120.587108	0.000449
1120.745672	-0.000052
1120.904217	-0.001887
1121.062744	-0.001324
1121.221253	0.001549
1121.379744	0.004889
1121.538216	-0.001348
1121.696671	0.004227
1121.855107	0.000199
1122.013524	0.001700
1122.171924	-0.000232
1122.330305	-0.002453
1122.488668	-0.004121
1122.647013	-0.006210
1122.805340	-0.009662
1122.963648	-0.006094
1123.121938	-0.007056
1123.280210	-0.006506
1123.438464	-0.007976
1123.596700	-0.005047
1123.754917	-0.003614
1123.913116	-0.003290
1124.071297	-0.001955
1124.229459	-0.001182
1124.387604	-0.007058
1124.545730	-0.006838
1124.703838	-0.009611
1124.861928	-0.011057
1125.019999	-0.013967
1125.178052	-0.014238
1125.336088	-0.014041
1125.494104	-0.012432
1125.652103	-0.008535
1125.810083	-0.004995
1125.968045	-0.011993
1126.125989	-0.008761
1126.283915	-0.009189
1126.441823	-0.004927
1126.599712	-0.007770
1126.757583	-0.008460
1126.915436	-0.013497
1127.073270	-0.013648
1127.231087	-0.010630
1127.388885	-0.000463
1127.546665	0.001303
1127.704426	0.004166
1127.862170	0.005189
1128.019895	0.010686
1128.177602	0.013005
1128.335291	0.019292
1128.492961	0.018770
1128.650614	0.015907
1128.808248	0.009871
1128.965864	0.007549
1129.123461	0.007565
1129.281041	0.002375
1129.438602	-0.003992
1129.596145	-0.001684
1129.753670	-0.006350
1129.911176	-0.010040
1130.068665	-0.010745
1130.226135	-0.006853
1130.383587	-0.010434
1130.541020	-0.012062
1130.698436	-0.011861
1130.855833	-0.006222
1131.013212	-0.009954
1131.170573	-0.007091
1131.327915	-0.002546
1131.485239	-0.004593
1131.642545	-0.004583
1131.799833	-0.002934
1131.957103	-0.002015
1132.114354	0.002195
1132.271588	0.000400
1132.428803	-0.002184
1132.585999	-0.004127
1132.743178	-0.006158
1132.900338	-0.003904
1133.057480	-0.007858
1133.214604	-0.008556
1133.371710	-0.009213
1133.528797	-0.011025
1133.685866	-0.013713
1133.842917	-0.013418
1133.999950	-0.009488
1134.156964	-0.009342
1134.313960	-0.009538
1134.470938	-0.002398
1134.627898	0.001069
1134.784840	0.001428
1134.941763	-0.002879
1135.098668	-0.002227
1135.255555	-0.000188
1135.412424	-0.004526
1135.569274	-0.003992
1135.726107	-0.003930
1135.882921	-0.012743
1136.039716	-0.016434
1136.196494	-0.018581
1136.353253	-0.017627
1136.509995	-0.016793
1136.666717	-0.018524
1136.823422	-0.019532
1136.980109	-0.017743
1137.136777	-0.015535
1137.293427	-0.011344
1137.450059	-0.007607
1137.606672	-0.004024
1137.763267	-0.001521
1137.919844	0.001188
1138.076403	0.006277
1138.232944	0.008887
1138.389466	0.004964
1138.545971	-0.000510
1138.702457	-0.002535
1138.858924	0.002418
1139.015374	0.000199
1139.171805	0.001719
1139.328218	0.001691
1139.484613	-0.002677
1139.640990	-0.005383
1139.797348	-0.000242
1139.953688	0.003912
1140.110010	0.004036
1140.266314	-0.003437
1140.422600	-0.008000
1140.578867	-0.007888
1140.735116	-0.007895
1140.891347	-0.006089
1141.047559	-0.005271
1141.203754	-0.009423
1141.359930	-0.012833
1141.516088	-0.009405
1141.672228	-0.014757
1141.828349	-0.005650
1141.984452	-0.004270
1142.140537	-0.007691
1142.296604	-0.005724
1142.452653	-0.003430
1142.608683	0.000602
1142.764695	0.006310
1142.920689	0.006983
1143.076665	0.014393
1143.232622	0.014147
1143.388562	0.012773
1143.544483	0.013877
1143.700385	0.004805
1143.856270	0.008321
1144.012136	0.005458
1144.167985	-0.001700
1144.323814	0.001540
1144.479626	0.009544
1144.635420	0.012699
1144.791195	0.015246
1144.946952	0.009109
1145.102691	0.014768
1145.258411	0.013247
1145.414113	0.011962
1145.569798	0.015982
1145.725463	0.012108
1145.881111	0.001240
1146.036741	-0.006419
1146.192352	-0.007099
1146.347945	-0.000359
1146.503519	-0.005822
1146.659076	-0.017425
1146.814614	-0.024863
1146.970134	-0.016579
1147.125636	-0.025008
1147.281120	-0.020260
1147.436585	-0.019170
1147.592032	-0.019118
1147.747461	-0.013326
1147.902872	-0.008867
1148.058265	-0.004071
1148.213639	0.002389
1148.368995	0.004614
1148.524333	0.010994
1148.679653	0.012165
1148.834954	0.012597
1148.990237	0.008479
1149.145502	0.000132
1149.300749	0.000996
1149.455977	0.007569
1149.611188	0.006690
1149.766380	0.002683
1149.921553	-0.007983
1150.076709	-0.009967
1150.231846	-0.011185
1150.386966	-0.003109
1150.542066	-0.005284
1150.697149	-0.001776
1150.852214	-0.005207
1151.007260	0.001245
1151.162288	-0.001185
1151.317298	0.007188
1151.472289	0.011784
1151.627263	0.010426
1151.782218	0.002538
1151.937155	0.005138
1152.092073	0.000024
1152.246974	0.001949
1152.401856	-0.002307
1152.556720	-0.006147
1152.711566	-0.010693
1152.866393	-0.018879
1153.021203	-0.017775
1153.175994	-0.019960
1153.330767	-0.020721
1153.485521	-0.017901
1153.640258	-0.015375
1153.794976	-0.012851
1153.949676	-0.015682
1154.104358	-0.015504
1154.259021	-0.015162
1154.413667	-0.014025
1154.568294	-0.008306
1154.722903	-0.000750
1154.877493	-0.006595
1155.032066	-0.011458
1155.186620	-0.010639
1155.341156	-0.009989
1155.495674	-0.008965
1155.650173	-0.011925
1155.804654	-0.018214
1155.959118	-0.020082
1156.113562	-0.030485
1156.267989	-0.031158
1156.422397	-0.033281
1156.576788	-0.029908
1156.731160	-0.021097
1156.885513	-0.019995
1157.039849	-0.012338
1157.194166	-0.005642
1157.348465	-0.004361
1157.502746	0.003233
1157.657009	0.002761
1157.811253	0.002315
1157.965479	-0.003611
1158.119687	-0.011028
1158.273877	-0.008830
1158.428048	-0.013897
1158.582201	-0.003547
1158.736337	-0.005744
1158.890453	-0.005788
1159.044552	-0.010645
1159.198632	-0.007204
1159.352694	-0.002830
1159.506738	0.000592
1159.660764	0.010277
1159.814771	0.012692
1159.968761	0.003356
1160.122732	0.000064
1160.276685	-0.000321
1160.430619	0.012585
1160.584535	0.020567
1160.738434	0.025074
1160.892313	0.019870
1161.046175	0.011605
1161.200019	0.002144
1161.353844	-0.005957
1161.507651	-0.001692
1161.661440	-0.002253
1161.815210	-0.006756
1161.968962	-0.015524
1162.122697	-0.023995
1162.276412	-0.025992
1162.430110	-0.035897
1162.583789	-0.032549
1162.737451	-0.029751
1162.891094	-0.032666
1163.044718	-0.029684
1163.198325	-0.024630
1163.351913	-0.016077
1163.505483	-0.007700
1163.659035	-0.005726
1163.812569	0.008105
1163.966084	0.014724
1164.119581	0.010967
1164.273060	0.004583
1164.426521	-0.004806
1164.579964	-0.004485
1164.733388	-0.021123
1164.886794	-0.030624
1165.040182	-0.022797
1165.193551	-0.019874
1165.346903	-0.017303
1165.500236	-0.014719
1165.653551	-0.012966
1165.806848	-0.005107
1165.960126	-0.013355
1166.113386	-0.014638
1166.266628	-0.014344
1166.419852	-0.015914
1166.573058	-0.023172
1166.726245	-0.033140
1166.879414	-0.034221
1167.032565	-0.029964
1167.185698	-0.030572
1167.338812	-0.035509
1167.491909	-0.025470
1167.644987	-0.034669
1167.798046	-0.036793
1167.951088	-0.034507
1168.104111	-0.030224
1168.257117	-0.014886
1168.410103	-0.011517
1168.563072	-0.018716
1168.716023	-0.010656
1168.868955	-0.004762
1169.021869	-0.001350
1169.174765	0.001825
1169.327642	-0.004966
1169.480501	0.004973
1169.633343	-0.016769
1169.786165	-0.019297
1169.938970	-0.016502
1170.091757	-0.012595
1170.244525	-0.022816
1170.397275	-0.011312
1170.550007	-0.022936
1170.702720	-0.012057
1170.855415	-0.028143
1171.008092	-0.019367
1171.160751	-0.018735
1171.313392	-0.015220
1171.466014	-0.081436
1171.618619	-0.004510
1171.771205	-0.004510
1171.923772	-0.004510
