sample name	sample
index	1114
start time	 04-22-2021  01:15:54 PM


Wavelength (nm)	Absorbance
494.344910	0.870040
494.563924	0.870040
494.782919	0.870040
495.001897	-0.621522
495.220856	0.040223
495.439797	0.023423
495.658719	-0.019462
495.877624	-0.136377
496.096510	-0.135586
496.315378	-0.092159
496.534227	-0.097176
496.753059	-0.076328
496.971872	-0.067724
497.190667	0.023234
497.409444	0.027890
497.628203	0.032019
497.846943	0.034658
498.065665	0.035311
498.284369	0.035958
498.503055	0.036640
498.721723	0.035636
498.940372	0.036824
499.159003	0.037345
499.377616	0.038881
499.596210	0.038762
499.814787	0.038904
500.033345	0.040091
500.251885	0.040539
500.470406	0.039451
500.688910	0.040224
500.907395	0.039381
501.125862	0.038513
501.344311	0.037868
501.562742	0.037658
501.781154	0.038028
501.999548	0.038347
502.217924	0.039175
502.436282	0.040210
502.654621	0.041217
502.872942	0.040988
503.091245	0.041071
503.309530	0.040788
503.527797	0.041855
503.746045	0.041997
503.964275	0.040751
504.182487	0.039731
504.400681	0.039415
504.618856	0.038783
504.837013	0.038538
505.055152	0.037483
505.273273	0.037458
505.491376	0.037119
505.709460	0.036865
505.927526	0.036746
506.145574	0.037018
506.363604	0.038026
506.581615	0.038337
506.799608	0.040103
507.017583	0.041543
507.235540	0.042314
507.453478	0.042225
507.671399	0.042049
507.889301	0.042844
508.107185	0.042710
508.325050	0.042836
508.542898	0.042940
508.760727	0.042208
508.978538	0.042741
509.196330	0.042402
509.414105	0.041948
509.631861	0.041356
509.849599	0.041451
510.067319	0.041326
510.285021	0.040515
510.502704	0.040409
510.720369	0.040440
510.938016	0.040384
511.155645	0.040317
511.373255	0.040214
511.590848	0.040780
511.808422	0.040822
512.025977	0.041156
512.243515	0.040929
512.461034	0.040973
512.678536	0.040758
512.896018	0.040250
513.113483	0.040046
513.330930	0.040676
513.548358	0.041029
513.765768	0.041189
513.983160	0.041026
514.200533	0.040903
514.417889	0.040827
514.635226	0.041213
514.852545	0.040859
515.069845	0.041377
515.287128	0.041428
515.504392	0.041367
515.721638	0.041396
515.938866	0.041754
516.156075	0.042749
516.373267	0.043082
516.590440	0.043594
516.807594	0.044371
517.024731	0.044703
517.241850	0.045347
517.458950	0.045865
517.676032	0.046361
517.893095	0.046885
518.110141	0.046961
518.327168	0.047056
518.544177	0.047270
518.761168	0.047783
518.978141	0.047459
519.195095	0.046184
519.412031	0.045853
519.628949	0.045926
519.845849	0.045441
520.062731	0.045373
520.279594	0.045921
520.496439	0.045645
520.713266	0.045490
520.930074	0.045870
521.146865	0.046811
521.363637	0.046916
521.580391	0.046247
521.797127	0.046297
522.013844	0.046169
522.230543	0.045633
522.447224	0.046019
522.663887	0.046544
522.880532	0.046499
523.097158	0.046815
523.313766	0.046863
523.530356	0.046634
523.746928	0.047669
523.963481	0.047426
524.180017	0.047808
524.396534	0.047796
524.613032	0.047694
524.829513	0.047576
525.045975	0.047257
525.262420	0.047871
525.478845	0.048493
525.695253	0.047603
525.911643	0.048671
526.128014	0.048583
526.344367	0.048276
526.560702	0.048091
526.777018	0.048881
526.993316	0.048928
527.209597	0.048660
527.425858	0.048588
527.642102	0.049696
527.858328	0.050065
528.074535	0.050214
528.290724	0.050997
528.506894	0.051373
528.723047	0.051035
528.939181	0.051997
529.155297	0.051798
529.371395	0.053066
529.587475	0.053089
529.803536	0.052902
530.019579	0.053842
530.235604	0.053942
530.451611	0.054509
530.667600	0.055220
530.883570	0.054650
531.099522	0.055641
531.315456	0.055208
531.531372	0.055206
531.747269	0.055285
531.963148	0.054876
532.179009	0.055230
532.394852	0.055163
532.610676	0.054989
532.826482	0.055508
533.042271	0.055097
533.258040	0.055274
533.473792	0.055654
533.689525	0.055718
533.905240	0.055850
534.120937	0.056242
534.336616	0.056466
534.552277	0.056611
534.767919	0.056829
534.983543	0.057061
535.199149	0.057091
535.414736	0.056872
535.630306	0.057617
535.845857	0.058089
536.061390	0.057639
536.276904	0.058051
536.492401	0.058362
536.707879	0.058513
536.923339	0.058822
537.138781	0.058936
537.354204	0.059797
537.569610	0.059590
537.784997	0.059540
538.000366	0.059918
538.215716	0.059796
538.431049	0.059936
538.646363	0.060178
538.861659	0.060562
539.076937	0.060818
539.292196	0.060814
539.507438	0.060978
539.722661	0.061076
539.937866	0.061495
540.153052	0.061496
540.368221	0.061857
540.583371	0.061490
540.798503	0.061532
541.013617	0.061723
541.228712	0.061671
541.443789	0.061481
541.658848	0.061365
541.873889	0.061352
542.088912	0.061365
542.303916	0.061689
542.518902	0.062184
542.733870	0.062502
542.948820	0.062734
543.163752	0.062309
543.378665	0.062872
543.593560	0.063191
543.808437	0.062890
544.023295	0.063039
544.238136	0.062667
544.452958	0.062831
544.667762	0.062854
544.882548	0.062962
545.097315	0.063208
545.312064	0.063200
545.526795	0.063404
545.741508	0.063674
545.956203	0.063658
546.170879	0.064207
546.385537	0.064321
546.600177	0.064142
546.814799	0.064239
547.029402	0.064784
547.243988	0.064737
547.458555	0.064939
547.673103	0.065012
547.887634	0.065238
548.102146	0.065042
548.316640	0.064925
548.531116	0.065164
548.745574	0.065219
548.960013	0.064814
549.174435	0.064751
549.388838	0.064406
549.603222	0.064423
549.817589	0.064758
550.031937	0.064814
550.246267	0.064600
550.460579	0.064720
550.674873	0.065149
550.889148	0.065703
551.103405	0.066186
551.317644	0.066676
551.531865	0.066676
551.746068	0.066590
551.960252	0.066718
552.174418	0.066913
552.388566	0.067112
552.602696	0.066731
552.816807	0.066307
553.030900	0.065826
553.244975	0.065900
553.459032	0.066311
553.673070	0.066171
553.887091	0.065884
554.101093	0.066606
554.315077	0.066445
554.529042	0.066616
554.742990	0.067108
554.956919	0.067623
555.170830	0.067924
555.384722	0.067564
555.598597	0.067712
555.812453	0.068276
556.026291	0.068012
556.240111	0.068219
556.453913	0.068267
556.667696	0.067796
556.881461	0.067588
557.095208	0.067020
557.308937	0.067311
557.522647	0.067431
557.736339	0.067447
557.950013	0.067593
558.163669	0.067804
558.377307	0.067602
558.590926	0.067879
558.804527	0.068105
559.018110	0.068506
559.231675	0.068395
559.445221	0.068465
559.658749	0.068585
559.872259	0.068433
560.085751	0.068275
560.299225	0.068092
560.512680	0.068272
560.726117	0.068562
560.939536	0.068609
561.152937	0.068357
561.366319	0.068562
561.579683	0.068198
561.793029	0.068018
562.006357	0.068085
562.219667	0.068511
562.432958	0.068225
562.646231	0.068098
562.859486	0.067845
563.072723	0.068354
563.285941	0.067836
563.499141	0.068000
563.712323	0.068002
563.925487	0.067849
564.138632	0.067627
564.351760	0.067380
564.564869	0.067177
564.777960	0.067253
564.991032	0.067047
565.204087	0.067366
565.417123	0.067448
565.630141	0.067542
565.843140	0.067472
566.056122	0.067856
566.269085	0.068308
566.482030	0.068504
566.694957	0.068608
566.907866	0.068798
567.120756	0.068822
567.333628	0.068972
567.546482	0.069253
567.759318	0.069661
567.972135	0.069280
568.184935	0.069158
568.397716	0.069010
568.610478	0.069393
568.823223	0.069379
569.035949	0.069753
569.248657	0.069700
569.461347	0.070023
569.674019	0.069764
569.886672	0.070322
570.099308	0.070148
570.311925	0.070062
570.524523	0.069721
570.737104	0.069741
570.949666	0.069544
571.162210	0.069385
571.374736	0.068919
571.587244	0.069108
571.799733	0.068623
572.012205	0.069424
572.224658	0.069687
572.437092	0.070131
572.649509	0.069863
572.861907	0.069654
573.074287	0.069872
573.286649	0.069983
573.498993	0.069821
573.711318	0.069943
573.923625	0.069589
574.135914	0.069305
574.348185	0.068620
574.560438	0.068907
574.772672	0.069237
574.984888	0.068923
575.197086	0.068992
575.409266	0.069027
575.621427	0.069279
575.833570	0.069178
576.045695	0.069205
576.257802	0.069459
576.469890	0.069172
576.681961	0.068957
576.894013	0.069072
577.106046	0.068934
577.318062	0.068824
577.530059	0.068556
577.742039	0.068594
577.954000	0.069163
578.165942	0.069456
578.377867	0.069690
578.589773	0.069671
578.801661	0.069622
579.013531	0.069981
579.225382	0.070267
579.437216	0.070356
579.649031	0.070583
579.860828	0.070206
580.072606	0.070132
580.284367	0.070455
580.496109	0.070678
580.707833	0.071041
580.919539	0.071094
581.131227	0.071295
581.342896	0.071534
581.554547	0.071637
581.766180	0.071874
581.977795	0.071764
582.189391	0.071685
582.400969	0.071530
582.612529	0.071534
582.824071	0.071526
583.035595	0.071630
583.247100	0.071830
583.458587	0.071876
583.670056	0.071969
583.881506	0.072170
584.092939	0.072440
584.304353	0.072917
584.515749	0.072862
584.727127	0.072989
584.938486	0.072794
585.149828	0.072724
585.361151	0.072850
585.572456	0.072878
585.783742	0.072429
585.995011	0.072545
586.206261	0.072192
586.417493	0.072059
586.628706	0.071961
586.839902	0.072096
587.051079	0.072137
587.262238	0.072169
587.473379	0.072084
587.684502	0.072643
587.895606	0.072201
588.106692	0.072590
588.317760	0.072861
588.528810	0.072752
588.739841	0.072849
588.950855	0.072989
589.161850	0.073058
589.372827	0.073087
589.583785	0.073116
589.794726	0.073340
590.005648	0.073340
590.216552	0.073486
590.427437	0.073839
590.638305	0.074026
590.849154	0.074011
591.059985	0.073914
591.270798	0.073954
591.481592	0.073989
591.692369	0.074303
591.903127	0.074326
592.113867	0.074468
592.324588	0.074563
592.535292	0.074405
592.745977	0.074667
592.956644	0.074872
593.167293	0.075171
593.377923	0.075470
593.588536	0.075343
593.799130	0.075427
594.009706	0.075622
594.220263	0.075582
594.430803	0.075758
594.641324	0.075656
594.851827	0.075566
595.062312	0.075654
595.272778	0.075365
595.483227	0.075412
595.693657	0.075266
595.904069	0.075166
596.114462	0.075371
596.324838	0.075265
596.535195	0.075438
596.745534	0.075594
596.955855	0.075831
597.166157	0.076230
597.376441	0.076510
597.586707	0.076823
597.796955	0.076756
598.007185	0.076567
598.217396	0.077017
598.427589	0.076875
598.637764	0.076821
598.847921	0.076583
599.058060	0.076348
599.268180	0.076044
599.478282	0.075889
599.688366	0.075728
599.898431	0.075695
600.108479	0.075415
600.318508	0.075555
600.528519	0.075420
600.738511	0.075469
600.948486	0.075805
601.158442	0.075949
601.368380	0.076504
601.578300	0.076621
601.788202	0.076852
601.998085	0.077071
602.207950	0.077135
602.417797	0.077489
602.627626	0.077461
602.837436	0.077456
603.047228	0.077636
603.257002	0.077256
603.466758	0.077864
603.676496	0.077899
603.886215	0.078064
604.095916	0.078228
604.305599	0.078661
604.515264	0.079094
604.724910	0.079189
604.934538	0.079344
605.144148	0.079462
605.353740	0.079526
605.563314	0.079662
605.772869	0.079600
605.982406	0.079591
606.191925	0.079152
606.401425	0.079236
606.610908	0.079329
606.820372	0.079462
607.029818	0.079584
607.239246	0.079451
607.448655	0.079657
607.658047	0.079629
607.867420	0.079992
608.076775	0.080405
608.286111	0.080316
608.495430	0.080239
608.704730	0.080088
608.914012	0.080303
609.123275	0.080529
609.332521	0.080592
609.541748	0.080981
609.750957	0.080662
609.960148	0.080705
610.169321	0.080772
610.378475	0.080983
610.587611	0.081318
610.796729	0.081384
611.005829	0.081298
611.214910	0.081454
611.423974	0.081493
611.633019	0.081666
611.842045	0.081796
612.051054	0.081783
612.260044	0.082016
612.469017	0.081984
612.677970	0.081780
612.886906	0.081854
613.095824	0.081506
613.304723	0.081373
613.513604	0.081330
613.722467	0.081224
613.931311	0.081466
614.140138	0.081409
614.348946	0.081418
614.557736	0.081851
614.766507	0.081792
614.975261	0.082042
615.183996	0.082277
615.392713	0.082493
615.601412	0.082492
615.810092	0.082428
616.018754	0.082345
616.227399	0.082346
616.436024	0.082295
616.644632	0.082260
616.853222	0.082394
617.061793	0.082450
617.270346	0.082569
617.478880	0.082804
617.687397	0.082935
617.895895	0.083161
618.104375	0.083385
618.312837	0.083259
618.521281	0.083564
618.729706	0.083439
618.938113	0.083406
619.146502	0.083558
619.354873	0.083591
619.563226	0.083721
619.771560	0.083901
619.979876	0.083990
620.188174	0.084080
620.396453	0.084038
620.604715	0.084204
620.812958	0.084333
621.021183	0.084350
621.229390	0.084616
621.437578	0.084637
621.645748	0.084400
621.853900	0.084336
622.062034	0.084404
622.270150	0.084382
622.478247	0.084593
622.686326	0.084490
622.894387	0.084436
623.102430	0.084149
623.310454	0.084103
623.518461	0.084412
623.726449	0.084516
623.934418	0.084586
624.142370	0.084728
624.350303	0.084685
624.558218	0.084650
624.766115	0.084807
624.973994	0.084967
625.181855	0.084957
625.389697	0.084837
625.597521	0.084853
625.805327	0.085029
626.013114	0.085195
626.220883	0.085172
626.428634	0.085142
626.636367	0.085369
626.844082	0.085442
627.051778	0.085881
627.259457	0.086051
627.467117	0.086086
627.674758	0.086005
627.882382	0.085999
628.089987	0.086256
628.297574	0.086525
628.505143	0.086252
628.712694	0.086195
628.920226	0.085862
629.127740	0.086137
629.335236	0.086212
629.542714	0.086506
629.750174	0.086595
629.957615	0.086802
630.165038	0.086909
630.372443	0.087143
630.579829	0.087387
630.787198	0.087825
630.994548	0.087542
631.201880	0.087592
631.409194	0.087454
631.616489	0.087269
631.823766	0.087171
632.031025	0.087325
632.238266	0.087387
632.445489	0.087479
632.652693	0.087352
632.859879	0.087487
633.067047	0.087642
633.274197	0.087754
633.481329	0.088018
633.688442	0.088039
633.895537	0.087978
634.102614	0.088102
634.309672	0.088207
634.516713	0.088142
634.723735	0.088270
634.930739	0.088143
635.137724	0.088085
635.344692	0.088173
635.551641	0.088121
635.758572	0.088236
635.965485	0.088156
636.172379	0.088228
636.379256	0.088350
636.586114	0.088347
636.792954	0.088645
636.999775	0.089024
637.206579	0.089162
637.413364	0.089249
637.620131	0.088984
637.826880	0.088794
638.033610	0.088854
638.240323	0.088883
638.447017	0.088923
638.653692	0.088824
638.860350	0.088747
639.066990	0.088863
639.273611	0.089156
639.480214	0.089542
639.686798	0.089926
639.893365	0.089973
640.099913	0.090167
640.306443	0.090094
640.512955	0.090093
640.719449	0.090150
640.925924	0.090165
641.132381	0.090198
641.338820	0.090300
641.545241	0.090342
641.751644	0.090305
641.958028	0.090445
642.164394	0.090807
642.370742	0.090945
642.577071	0.090965
642.783383	0.090994
642.989676	0.090872
643.195951	0.091072
643.402207	0.091334
643.608446	0.091326
643.814666	0.091307
644.020868	0.091345
644.227052	0.091420
644.433218	0.091671
644.639365	0.091899
644.845494	0.092043
645.051605	0.092043
645.257698	0.092008
645.463772	0.092269
645.669828	0.092502
645.875866	0.092625
646.081886	0.093041
646.287888	0.093133
646.493871	0.093063
646.699836	0.093162
646.905783	0.093150
647.111712	0.093496
647.317622	0.093619
647.523514	0.093837
647.729388	0.094014
647.935244	0.093907
648.141082	0.093813
648.346901	0.093845
648.552702	0.094050
648.758485	0.094201
648.964250	0.094022
649.169996	0.094123
649.375724	0.093804
649.581434	0.093711
649.787126	0.093941
649.992800	0.094095
650.198455	0.094354
650.404092	0.094390
650.609711	0.094533
650.815311	0.094668
651.020894	0.094608
651.226458	0.095017
651.432004	0.095329
651.637532	0.095577
651.843041	0.095824
652.048532	0.096051
652.254006	0.096275
652.459460	0.096324
652.664897	0.096452
652.870315	0.096736
653.075716	0.096828
653.281097	0.096680
653.486461	0.096595
653.691807	0.096615
653.897134	0.096733
654.102443	0.096968
654.307734	0.097468
654.513006	0.097592
654.718261	0.097637
654.923497	0.097892
655.128715	0.098221
655.333915	0.098405
655.539096	0.098713
655.744259	0.098709
655.949404	0.098788
656.154531	0.098515
656.359640	0.098693
656.564730	0.098799
656.769802	0.098876
656.974856	0.099115
657.179892	0.099178
657.384909	0.099087
657.589908	0.099188
657.794889	0.099289
657.999852	0.099384
658.204797	0.099394
658.409723	0.099497
658.614631	0.099473
658.819521	0.099359
659.024393	0.099559
659.229246	0.099768
659.434081	0.099654
659.638898	0.099608
659.843697	0.099821
660.048478	0.099954
660.253240	0.100149
660.457984	0.100245
660.662710	0.100401
660.867417	0.100448
661.072107	0.100645
661.276778	0.101153
661.481431	0.101212
661.686066	0.101452
661.890682	0.101409
662.095281	0.101490
662.299861	0.101534
662.504422	0.101613
662.708966	0.101671
662.913491	0.101742
663.117999	0.101367
663.322488	0.101461
663.526958	0.101360
663.731411	0.101443
663.935845	0.101358
664.140261	0.101392
664.344659	0.101333
664.549038	0.101330
664.753400	0.101211
664.957743	0.101377
665.162068	0.101572
665.366375	0.101497
665.570663	0.101769
665.774933	0.101878
665.979185	0.102218
666.183419	0.102476
666.387635	0.102578
666.591832	0.102681
666.796011	0.102816
667.000172	0.102754
667.204315	0.102948
667.408439	0.103054
667.612545	0.103191
667.816634	0.103004
668.020703	0.102909
668.224755	0.103038
668.428788	0.103228
668.632803	0.103526
668.836800	0.103640
669.040779	0.104029
669.244739	0.104113
669.448681	0.104389
669.652605	0.104680
669.856511	0.105143
670.060399	0.105289
670.264268	0.105339
670.468119	0.105416
670.671952	0.105550
670.875767	0.105598
671.079563	0.105662
671.283341	0.105812
671.487101	0.106091
671.690843	0.106137
671.894567	0.106228
672.098272	0.106365
672.301959	0.106655
672.505628	0.106862
672.709278	0.107029
672.912911	0.107337
673.116525	0.107606
673.320121	0.107523
673.523699	0.107582
673.727258	0.107780
673.930799	0.108021
674.134322	0.108147
674.337827	0.108208
674.541314	0.108061
674.744782	0.108152
674.948232	0.107997
675.151664	0.108148
675.355078	0.108134
675.558474	0.107980
675.761851	0.108014
675.965210	0.107876
676.168551	0.108096
676.371873	0.108399
676.575178	0.108157
676.778464	0.108213
676.981732	0.108280
677.184981	0.108305
677.388213	0.108649
677.591426	0.108712
677.794621	0.108763
677.997798	0.108950
678.200956	0.108811
678.404097	0.109050
678.607219	0.109092
678.810323	0.109203
679.013408	0.109468
679.216476	0.109571
679.419525	0.109632
679.622556	0.109889
679.825569	0.109771
680.028563	0.109837
680.231540	0.109966
680.434498	0.110177
680.637438	0.110213
680.840359	0.110362
681.043263	0.110280
681.246148	0.110381
681.449015	0.110376
681.651864	0.110470
681.854694	0.110762
682.057506	0.110951
682.260301	0.111056
682.463076	0.110937
682.665834	0.110964
682.868573	0.111225
683.071295	0.111472
683.273998	0.111510
683.476682	0.111772
683.679349	0.111937
683.881997	0.112015
684.084627	0.112200
684.287239	0.112618
684.489833	0.112677
684.692408	0.112672
684.894965	0.112517
685.097504	0.112678
685.300025	0.112545
685.502527	0.112294
685.705012	0.112249
685.907478	0.112081
686.109925	0.111932
686.312355	0.112004
686.514766	0.111993
686.717159	0.112156
686.919534	0.112147
687.121891	0.112233
687.324230	0.112592
687.526550	0.112741
687.728852	0.112818
687.931136	0.112942
688.133401	0.113078
688.335649	0.113270
688.537878	0.113336
688.740089	0.113446
688.942281	0.113601
689.144456	0.113556
689.346612	0.113503
689.548750	0.113571
689.750870	0.113875
689.952971	0.113827
690.155055	0.113952
690.357120	0.114114
690.559167	0.114130
690.761195	0.114352
690.963206	0.114463
691.165198	0.114508
691.367172	0.114562
691.569128	0.114386
691.771065	0.114626
691.972984	0.114432
692.174885	0.114388
692.376768	0.114449
692.578633	0.114332
692.780479	0.114225
692.982308	0.114249
693.184118	0.114299
693.385909	0.114162
693.587683	0.114061
693.789438	0.114140
693.991175	0.114343
694.192894	0.114436
694.394595	0.114388
694.596277	0.114273
694.797941	0.114408
694.999587	0.114471
695.201215	0.114712
695.402824	0.114816
695.604416	0.114840
695.805989	0.114791
696.007543	0.114618
696.209080	0.114793
696.410598	0.115111
696.612099	0.115183
696.813580	0.115127
697.015044	0.115157
697.216490	0.115193
697.417917	0.115320
697.619326	0.115151
697.820717	0.115515
698.022089	0.115500
698.223444	0.115674
698.424780	0.115704
698.626098	0.115895
698.827397	0.116171
699.028679	0.116196
699.229942	0.116370
699.431187	0.116461
699.632414	0.116409
699.833622	0.116371
700.034813	0.116284
700.235985	0.116291
700.437139	0.116536
700.638274	0.116223
700.839392	0.116485
701.040491	0.116828
701.241572	0.117206
701.442635	0.117293
701.643679	0.117429
701.844706	0.117454
702.045714	0.117685
702.246704	0.117400
702.447675	0.117517
702.648629	0.117368
702.849564	0.117095
703.050481	0.116894
703.251380	0.116847
703.452260	0.116912
703.653122	0.116919
703.853966	0.116758
704.054792	0.116951
704.255600	0.116974
704.456389	0.116859
704.657160	0.116794
704.857913	0.116704
705.058648	0.116672
705.259365	0.116669
705.460063	0.116610
705.660743	0.116494
705.861405	0.116172
706.062048	0.116257
706.262674	0.116001
706.463281	0.116113
706.663870	0.116213
706.864441	0.116350
707.064993	0.116386
707.265527	0.116376
707.466043	0.116387
707.666541	0.116540
707.867021	0.116766
708.067482	0.116962
708.267925	0.116784
708.468350	0.116754
708.668757	0.116543
708.869145	0.116451
709.069516	0.116575
709.269868	0.116693
709.470201	0.116735
709.670517	0.116632
709.870814	0.116703
710.071093	0.116785
710.271354	0.116825
710.471597	0.116842
710.671821	0.116925
710.872028	0.116867
711.072216	0.116918
711.272385	0.116885
711.472537	0.116718
711.672670	0.116746
711.872785	0.116865
712.072882	0.117079
712.272961	0.117140
712.473021	0.117194
712.673063	0.117181
712.873087	0.117221
713.073093	0.117393
713.273081	0.117403
713.473050	0.117459
713.673001	0.117290
713.872934	0.117021
714.072849	0.117226
714.272745	0.117119
714.472623	0.117312
714.672483	0.117219
714.872325	0.117073
715.072148	0.117081
715.271954	0.116855
715.471741	0.116941
715.671509	0.117067
715.871260	0.116941
716.070992	0.116999
716.270707	0.116613
716.470403	0.116557
716.670080	0.116565
716.869740	0.116609
717.069381	0.116476
717.269004	0.116222
717.468609	0.116026
717.668195	0.115855
717.867764	0.115685
718.067314	0.115688
718.266846	0.115628
718.466360	0.115653
718.665855	0.115484
718.865332	0.115637
719.064791	0.115624
719.264232	0.115554
719.463655	0.115560
719.663059	0.115386
719.862445	0.115565
720.061813	0.115473
720.261163	0.115429
720.460494	0.115275
720.659807	0.115113
720.859102	0.115203
721.058379	0.115127
721.257638	0.115181
721.456878	0.115196
721.656100	0.115001
721.855304	0.115081
722.054490	0.114969
722.253657	0.114895
722.452806	0.115085
722.651937	0.115020
722.851050	0.114993
723.050145	0.114887
723.249221	0.114935
723.448279	0.114933
723.647319	0.114713
723.846340	0.114666
724.045344	0.114874
724.244329	0.114751
724.443296	0.114604
724.642245	0.114429
724.841175	0.114296
725.040088	0.114215
725.238982	0.114132
725.437857	0.114340
725.636715	0.114333
725.835554	0.114238
726.034376	0.114238
726.233179	0.114357
726.431963	0.114445
726.630730	0.114554
726.829478	0.114289
727.028208	0.114305
727.226920	0.113878
727.425614	0.113850
727.624289	0.113557
727.822946	0.113459
728.021585	0.113432
728.220206	0.113350
728.418808	0.113019
728.617392	0.113293
728.815958	0.113222
729.014506	0.113280
729.213036	0.112936
729.411547	0.112803
729.610040	0.112638
729.808515	0.112254
730.006972	0.112214
730.205410	0.112293
730.403831	0.111846
730.602233	0.111771
730.800616	0.111677
730.998982	0.111623
731.197329	0.111785
731.395658	0.111662
731.593969	0.111591
731.792262	0.111442
731.990536	0.111177
732.188793	0.111329
732.387031	0.111101
732.585250	0.111249
732.783452	0.111156
732.981635	0.111186
733.179800	0.111232
733.377947	0.111147
733.576076	0.110980
733.774186	0.111157
733.972278	0.110943
734.170352	0.110966
734.368408	0.110746
734.566446	0.110972
734.764465	0.110690
734.962466	0.110722
735.160449	0.110832
735.358413	0.110879
735.556360	0.110799
735.754288	0.111017
735.952198	0.110886
736.150090	0.110811
736.347963	0.110675
736.545818	0.110777
736.743655	0.110584
736.941474	0.110658
737.139275	0.110907
737.337057	0.110938
737.534821	0.110804
737.732567	0.110907
737.930295	0.110856
738.128005	0.111020
738.325696	0.110876
738.523369	0.110890
738.721024	0.110870
738.918660	0.110639
739.116279	0.110307
739.313879	0.110250
739.511461	0.110157
739.709024	0.110026
739.906570	0.109615
740.104097	0.109588
740.301606	0.109525
740.499097	0.109212
740.696569	0.109021
740.894024	0.109066
741.091460	0.108766
741.288878	0.108615
741.486277	0.108549
741.683659	0.108365
741.881022	0.108204
742.078367	0.107985
742.275694	0.107932
742.473002	0.107875
742.670293	0.107696
742.867565	0.107843
743.064819	0.107833
743.262054	0.107787
743.459272	0.108050
743.656471	0.108011
743.853652	0.108001
744.050815	0.107940
744.247959	0.107848
744.445085	0.107881
744.642194	0.107706
744.839283	0.107736
745.036355	0.107633
745.233408	0.107497
745.430444	0.107358
745.627461	0.107571
745.824459	0.107736
746.021440	0.107952
746.218402	0.108110
746.415346	0.108075
746.612272	0.108103
746.809180	0.108197
747.006069	0.108203
747.202940	0.108228
747.399793	0.108023
747.596628	0.107808
747.793444	0.107643
747.990243	0.107343
748.187023	0.107358
748.383784	0.107037
748.580528	0.107002
748.777253	0.106743
748.973960	0.106763
749.170649	0.106739
749.367320	0.106487
749.563973	0.106341
749.760607	0.106214
749.957223	0.105902
750.153821	0.105701
750.350400	0.105569
750.546962	0.105507
750.743505	0.105292
750.940030	0.105096
751.136536	0.105214
751.333025	0.105076
751.529495	0.105169
751.725947	0.105284
751.922381	0.105287
752.118796	0.105194
752.315194	0.105108
752.511573	0.105165
752.707934	0.105087
752.904276	0.104917
753.100601	0.104822
753.296907	0.104734
753.493195	0.104648
753.689465	0.104514
753.885716	0.104325
754.081949	0.104185
754.278164	0.104034
754.474361	0.104096
754.670540	0.104144
754.866700	0.104221
755.062843	0.104176
755.258967	0.104217
755.455072	0.104234
755.651160	0.104301
755.847229	0.104454
756.043280	0.104557
756.239313	0.104452
756.435328	0.104228
756.631324	0.103977
756.827302	0.103765
757.023262	0.103532
757.219204	0.103543
757.415127	0.103456
757.611033	0.103249
757.806920	0.103161
758.002788	0.103013
758.198639	0.103123
758.394471	0.103131
758.590286	0.103090
758.786081	0.103106
758.981859	0.102878
759.177619	0.102762
759.373360	0.102511
759.569083	0.102314
759.764788	0.102219
759.960474	0.101783
760.156143	0.101602
760.351793	0.101418
760.547425	0.101083
760.743038	0.101011
760.938634	0.101100
761.134211	0.101166
761.329770	0.101001
761.525311	0.100710
761.720833	0.100709
761.916338	0.100845
762.111824	0.100969
762.307292	0.100866
762.502741	0.101070
762.698173	0.100719
762.893586	0.100680
763.088981	0.100624
763.284358	0.100625
763.479716	0.100566
763.675057	0.100344
763.870379	0.100087
764.065683	0.100328
764.260968	0.100090
764.456236	0.099952
764.651485	0.099897
764.846716	0.100082
765.041929	0.100064
765.237123	0.100039
765.432299	0.100023
765.627457	0.100072
765.822597	0.100237
766.017719	0.100345
766.212822	0.100614
766.407907	0.100628
766.602974	0.100468
766.798023	0.100338
766.993054	0.100486
767.188066	0.100539
767.383060	0.100398
767.578036	0.100190
767.772993	0.100074
767.967933	0.099998
768.162854	0.099895
768.357757	0.099892
768.552642	0.100015
768.747508	0.100003
768.942356	0.099907
769.137186	0.100171
769.331998	0.100048
769.526792	0.100071
769.721567	0.099979
769.916324	0.099957
770.111063	0.099963
770.305784	0.099762
770.500486	0.099536
770.695171	0.099789
770.889837	0.099641
771.084484	0.099557
771.279114	0.099477
771.473725	0.099515
771.668318	0.099494
771.862893	0.099246
772.057450	0.099389
772.251988	0.099735
772.446509	0.099470
772.641011	0.099410
772.835494	0.099413
773.029960	0.099467
773.224407	0.099410
773.418836	0.099347
773.613247	0.099345
773.807640	0.099361
774.002014	0.099051
774.196370	0.098988
774.390708	0.098834
774.585028	0.098704
774.779330	0.098743
774.973613	0.098696
775.167878	0.098620
775.362125	0.098803
775.556354	0.098722
775.750564	0.098603
775.944756	0.098383
776.138930	0.098299
776.333086	0.098295
776.527223	0.098167
776.721343	0.098398
776.915444	0.098551
777.109526	0.098327
777.303591	0.098359
777.497637	0.098410
777.691666	0.098427
777.885676	0.098287
778.079667	0.098244
778.273641	0.098058
778.467596	0.097824
778.661533	0.097566
778.855452	0.097508
779.049352	0.097414
779.243235	0.097440
779.437099	0.097647
779.630945	0.097949
779.824773	0.098073
780.018582	0.098195
780.212373	0.098073
780.406146	0.098083
780.599901	0.098152
780.793638	0.098004
780.987356	0.098105
781.181056	0.097956
781.374738	0.097901
781.568402	0.097899
781.762047	0.097836
781.955674	0.097990
782.149283	0.098061
782.342874	0.098296
782.536447	0.098526
782.730001	0.098623
782.923537	0.098651
783.117055	0.098644
783.310555	0.098650
783.504036	0.098863
783.697499	0.098836
783.890944	0.098760
784.084371	0.098496
784.277780	0.098359
784.471170	0.098235
784.664542	0.098422
784.857896	0.098470
785.051231	0.098580
785.244549	0.098448
785.437848	0.098490
785.631129	0.098784
785.824392	0.098697
786.017636	0.098729
786.210863	0.098747
786.404071	0.098660
786.597260	0.098778
786.790432	0.098785
786.983585	0.098786
787.176721	0.098694
787.369838	0.098788
787.562936	0.099005
787.756017	0.099134
787.949079	0.098994
788.142123	0.098858
788.335149	0.098712
788.528156	0.098508
788.721146	0.098454
788.914117	0.098640
789.107070	0.098675
789.300005	0.098833
789.492921	0.098931
789.685819	0.099279
789.878699	0.099508
790.071561	0.099469
790.264405	0.099509
790.457230	0.099515
790.650037	0.099486
790.842826	0.099380
791.035597	0.099222
791.228349	0.099342
791.421084	0.099206
791.613800	0.099144
791.806497	0.099347
791.999177	0.099464
792.191838	0.099427
792.384481	0.099293
792.577106	0.099241
792.769713	0.099349
792.962301	0.099335
793.154871	0.099405
793.347423	0.099458
793.539957	0.099565
793.732473	0.099646
793.924970	0.100006
794.117449	0.100332
794.309910	0.100469
794.502353	0.100643
794.694777	0.100653
794.887183	0.100808
795.079571	0.100986
795.271941	0.101182
795.464293	0.101370
795.656626	0.101361
795.848941	0.101390
796.041238	0.101500
796.233516	0.101474
796.425777	0.101860
796.618019	0.101994
796.810243	0.101945
797.002449	0.101859
797.194636	0.102059
797.386805	0.102184
797.578956	0.102458
797.771089	0.102536
797.963204	0.102673
798.155300	0.102494
798.347378	0.102284
798.539438	0.102696
798.731480	0.102749
798.923503	0.102737
799.115509	0.102817
799.307496	0.102546
799.499465	0.102536
799.691415	0.102563
799.883348	0.102440
800.075262	0.102814
800.267158	0.102704
800.459035	0.102924
800.650895	0.102954
800.842736	0.102779
801.034559	0.103165
801.226364	0.103359
801.418150	0.103310
801.609919	0.103732
801.801669	0.103710
801.993401	0.103961
802.185114	0.103939
802.376810	0.104072
802.568487	0.104327
802.760146	0.104314
802.951787	0.104400
803.143409	0.104820
803.335014	0.104795
803.526600	0.104920
803.718168	0.104832
803.909717	0.104861
804.101249	0.105007
804.292762	0.105412
804.484257	0.105613
804.675734	0.105772
804.867192	0.105799
805.058632	0.105969
805.250054	0.106103
805.441458	0.106184
805.632844	0.106358
805.824211	0.106446
806.015561	0.106780
806.206891	0.107075
806.398204	0.107232
806.589499	0.107251
806.780775	0.107151
806.972033	0.107309
807.163273	0.107275
807.354495	0.107546
807.545698	0.107735
807.736883	0.107543
807.928050	0.107432
808.119199	0.107636
808.310329	0.107703
808.501441	0.108070
808.692535	0.108201
808.883611	0.108655
809.074669	0.108635
809.265708	0.108811
809.456729	0.109005
809.647732	0.109049
809.838717	0.109177
810.029683	0.109497
810.220632	0.109492
810.411562	0.109712
810.602474	0.109954
810.793367	0.110168
810.984242	0.110260
811.175100	0.110478
811.365938	0.110681
811.556759	0.110610
811.747562	0.110677
811.938346	0.111037
812.129112	0.111109
812.319860	0.111196
812.510589	0.111330
812.701300	0.111689
812.891994	0.111745
813.082668	0.111961
813.273325	0.112276
813.463964	0.112488
813.654584	0.112599
813.845186	0.112912
814.035769	0.113066
814.226335	0.113277
814.416882	0.113177
814.607411	0.113305
814.797922	0.113498
814.988415	0.113780
815.178889	0.113977
815.369345	0.114299
815.559783	0.114266
815.750203	0.114450
815.940605	0.114665
816.130988	0.114807
816.321353	0.115041
816.511700	0.115155
816.702028	0.115328
816.892339	0.115619
817.082631	0.115646
817.272905	0.115777
817.463161	0.115702
817.653398	0.115934
817.843617	0.116243
818.033819	0.116219
818.224001	0.116305
818.414166	0.116372
818.604312	0.116349
818.794440	0.116499
818.984550	0.116854
819.174642	0.117076
819.364716	0.116984
819.554771	0.117099
819.744808	0.117516
819.934827	0.117678
820.124827	0.117738
820.314810	0.117993
820.504774	0.118155
820.694720	0.118018
820.884647	0.118346
821.074557	0.118459
821.264448	0.118715
821.454321	0.118712
821.644176	0.119013
821.834012	0.119284
822.023831	0.119532
822.213631	0.119655
822.403413	0.119826
822.593176	0.119880
822.782922	0.120170
822.972649	0.120348
823.162358	0.120576
823.352049	0.120713
823.541721	0.120883
823.731376	0.120717
823.921012	0.120892
824.110629	0.121425
824.300229	0.121380
824.489811	0.121463
824.679374	0.121519
824.868919	0.121643
825.058445	0.121478
825.247954	0.121628
825.437444	0.121983
825.626916	0.122249
825.816370	0.122296
826.005806	0.122657
826.195223	0.123299
826.384622	0.123324
826.574003	0.123480
826.763366	0.123997
826.952711	0.124333
827.142037	0.124523
827.331345	0.124831
827.520635	0.125034
827.709906	0.125280
827.899160	0.125248
828.088395	0.125634
828.277612	0.125967
828.466810	0.126220
828.655991	0.126300
828.845153	0.126535
829.034297	0.126466
829.223423	0.126411
829.412531	0.126688
829.601620	0.126717
829.790691	0.126840
829.979744	0.126844
830.168779	0.126893
830.357795	0.127234
830.546793	0.127621
830.735773	0.128011
830.924735	0.128395
831.113679	0.128799
831.302604	0.129027
831.491511	0.129165
831.680400	0.129303
831.869271	0.129707
832.058123	0.129608
832.246957	0.129599
832.435773	0.129730
832.624571	0.129916
832.813351	0.129740
833.002112	0.130089
833.190855	0.130385
833.379580	0.130699
833.568287	0.130773
833.756975	0.130928
833.945645	0.131488
834.134297	0.131602
834.322931	0.131959
834.511547	0.132328
834.700144	0.132644
834.888723	0.133187
835.077284	0.133614
835.265826	0.134080
835.454351	0.134512
835.642857	0.134547
835.831345	0.134988
836.019815	0.135201
836.208266	0.135540
836.396699	0.135437
836.585114	0.135266
836.773511	0.135391
836.961890	0.135242
837.150250	0.135623
837.338592	0.135692
837.526916	0.135824
837.715222	0.136042
837.903510	0.136325
838.091779	0.136985
838.280030	0.137554
838.468263	0.137839
838.656477	0.138516
838.844674	0.138701
839.032852	0.139104
839.221012	0.139419
839.409153	0.140179
839.597277	0.140331
839.785382	0.140353
839.973469	0.140392
840.161538	0.140782
840.349589	0.141170
840.537621	0.141469
840.725635	0.141817
840.913631	0.142263
841.101609	0.142245
841.289568	0.142569
841.477509	0.143016
841.665432	0.143458
841.853337	0.143797
842.041224	0.143907
842.229092	0.144538
842.416942	0.145047
842.604774	0.145240
842.792588	0.145572
842.980383	0.145966
843.168160	0.146186
843.355919	0.146488
843.543660	0.146871
843.731382	0.147090
843.919087	0.146964
844.106773	0.147113
844.294441	0.147183
844.482090	0.147174
844.669722	0.147522
844.857335	0.147840
845.044930	0.147936
845.232507	0.147877
845.420065	0.147845
845.607605	0.148142
845.795127	0.148160
845.982631	0.148543
846.170117	0.148559
846.357584	0.148699
846.545033	0.148949
846.732464	0.149448
846.919877	0.149761
847.107272	0.150138
847.294648	0.150216
847.482006	0.150159
847.669346	0.150255
847.856667	0.150865
848.043971	0.150992
848.231256	0.151211
848.418523	0.151365
848.605771	0.151858
848.793002	0.152197
848.980214	0.152792
849.167408	0.153623
849.354584	0.154152
849.541742	0.154490
849.728881	0.154881
849.916002	0.155443
850.103105	0.155666
850.290190	0.155808
850.477256	0.156109
850.664304	0.156290
850.851334	0.156284
851.038346	0.156518
851.225340	0.156540
851.412315	0.156838
851.599272	0.157258
851.786211	0.157873
851.973132	0.158118
852.160034	0.158767
852.346918	0.158994
852.533784	0.159251
852.720632	0.159255
852.907462	0.159599
853.094273	0.159867
853.281066	0.159719
853.467841	0.159595
853.654598	0.159985
853.841336	0.159935
854.028056	0.160171
854.214758	0.160459
854.401442	0.161140
854.588107	0.161497
854.774755	0.161839
854.961384	0.162144
855.147995	0.162237
855.334587	0.162268
855.521162	0.162465
855.707718	0.162635
855.894256	0.163233
856.080775	0.163279
856.267277	0.163555
856.453760	0.163717
856.640225	0.164019
856.826672	0.164251
857.013101	0.164569
857.199511	0.164711
857.385903	0.165092
857.572277	0.164760
857.758633	0.165025
857.944970	0.165029
858.131290	0.165076
858.317591	0.165264
858.503873	0.165677
858.690138	0.165729
858.876384	0.166313
859.062612	0.166445
859.248822	0.166947
859.435014	0.167122
859.621188	0.167586
859.807343	0.167858
859.993480	0.168064
860.179599	0.167985
860.365699	0.168468
860.551781	0.168447
860.737846	0.168810
860.923891	0.169111
861.109919	0.169068
861.295929	0.169166
861.481920	0.169351
861.667893	0.169523
861.853848	0.170069
862.039784	0.170110
862.225702	0.170253
862.411603	0.170217
862.597484	0.170317
862.783348	0.170463
862.969193	0.170963
863.155021	0.171003
863.340830	0.170917
863.526620	0.170881
863.712393	0.170656
863.898147	0.170513
864.083883	0.170532
864.269601	0.170540
864.455301	0.170906
864.640982	0.170505
864.826645	0.171026
865.012290	0.171323
865.197917	0.171653
865.383526	0.172309
865.569116	0.172872
865.754688	0.173587
865.940242	0.173874
866.125777	0.174213
866.311295	0.174837
866.496794	0.174732
866.682275	0.174992
866.867737	0.174898
867.053182	0.174902
867.238608	0.175018
867.424016	0.174969
867.609406	0.174999
867.794778	0.175108
867.980131	0.174854
868.165466	0.175081
868.350783	0.175098
868.536082	0.175729
868.721362	0.176073
868.906625	0.175958
869.091869	0.175894
869.277094	0.176135
869.462302	0.176261
869.647491	0.176772
869.832662	0.177001
870.017815	0.177276
870.202950	0.177138
870.388066	0.176850
870.573165	0.177421
870.758245	0.177567
870.943306	0.177752
871.128350	0.177789
871.313375	0.177855
871.498382	0.177910
871.683371	0.178197
871.868342	0.178444
872.053294	0.178929
872.238229	0.178916
872.423144	0.179208
872.608042	0.179478
872.792922	0.179594
872.977783	0.179513
873.162626	0.179577
873.347451	0.179454
873.532258	0.179806
873.717046	0.179820
873.901816	0.180191
874.086568	0.180358
874.271302	0.180436
874.456017	0.180633
874.640715	0.181101
874.825394	0.181441
875.010055	0.181504
875.194697	0.181364
875.379322	0.181709
875.563928	0.181502
875.748516	0.181448
875.933085	0.181627
876.117637	0.181710
876.302170	0.181847
876.486685	0.182098
876.671182	0.182319
876.855661	0.182691
877.040121	0.182526
877.224563	0.182915
877.408987	0.183079
877.593393	0.182673
877.777780	0.183237
877.962150	0.183514
878.146501	0.183379
878.330833	0.183793
878.515148	0.183896
878.699444	0.184189
878.883722	0.184098
879.067982	0.184487
879.252224	0.184855
879.436447	0.184743
879.620653	0.184595
879.804840	0.185194
879.989008	0.185284
880.173159	0.185095
880.357291	0.185482
880.541405	0.185933
880.725501	0.185786
880.909579	0.185944
881.093638	0.185554
881.277680	0.185460
881.461703	0.185292
881.645707	0.185052
881.829694	0.185366
882.013662	0.185326
882.197612	0.185112
882.381544	0.185468
882.565458	0.185888
882.749353	0.186386
882.933230	0.186544
883.117089	0.186153
883.300930	0.186261
883.484753	0.186032
883.668557	0.185470
883.852343	0.185438
884.036111	0.185166
884.219861	0.184820
884.403592	0.184345
884.587305	0.183846
884.771000	0.183737
884.954677	0.183465
885.138335	0.183394
885.321976	0.183704
885.505598	0.183395
885.689201	0.183073
885.872787	0.183043
886.056354	0.183316
886.239904	0.183458
886.423434	0.183634
886.606947	0.184087
886.790442	0.184208
886.973918	0.184172
887.157376	0.184173
887.340816	0.184316
887.524237	0.183805
887.707641	0.183803
887.891026	0.183797
888.074393	0.183740
888.257741	0.183585
888.441072	0.183624
888.624384	0.183482
888.807678	0.183624
888.990954	0.183759
889.174211	0.184298
889.357451	0.184255
889.540672	0.184533
889.723875	0.184489
889.907059	0.184263
890.090226	0.184238
890.273374	0.184212
890.456504	0.184258
890.639616	0.183706
890.822709	0.183848
891.005785	0.183621
891.188842	0.183241
891.371881	0.183340
891.554901	0.183421
891.737904	0.183229
891.920888	0.183121
892.103854	0.183182
892.286802	0.183698
892.469731	0.183554
892.652643	0.183793
892.835536	0.183973
893.018410	0.183925
893.201267	0.183744
893.384106	0.183921
893.566926	0.184436
893.749728	0.184116
893.932511	0.183809
894.115277	0.183556
894.298024	0.183470
894.480753	0.183584
894.663464	0.183207
894.846157	0.183177
895.028831	0.183057
895.211487	0.182286
895.394125	0.182371
895.576745	0.182710
895.759346	0.183112
895.941930	0.183355
896.124495	0.183283
896.307041	0.183568
896.489570	0.183866
896.672080	0.183831
896.854573	0.183856
897.037046	0.183779
897.219502	0.183810
897.401940	0.183491
897.584359	0.183100
897.766760	0.183209
897.949143	0.183150
898.131507	0.182885
898.313854	0.182579
898.496182	0.182556
898.678492	0.182224
898.860783	0.181982
899.043057	0.181679
899.225312	0.181408
899.407549	0.181187
899.589768	0.180712
899.771968	0.180483
899.954151	0.180568
900.136315	0.180509
900.318461	0.181051
900.500588	0.180627
900.682698	0.180238
900.864789	0.180152
901.046862	0.179847
901.228917	0.179984
901.410953	0.180032
901.592971	0.179762
901.774972	0.179793
901.956953	0.179322
902.138917	0.179627
902.320862	0.179963
902.502790	0.179852
902.684699	0.179654
902.866589	0.179445
903.048462	0.178965
903.230316	0.178399
903.412152	0.178312
903.593970	0.178017
903.775770	0.177459
903.957551	0.177205
904.139314	0.176947
904.321059	0.176829
904.502786	0.176834
904.684494	0.176648
904.866185	0.176821
905.047857	0.176175
905.229510	0.175961
905.411146	0.175335
905.592763	0.174896
905.774363	0.174663
905.955943	0.174280
906.137506	0.173796
906.319051	0.173425
906.500577	0.172973
906.682085	0.172985
906.863575	0.172559
907.045046	0.172878
907.226500	0.173060
907.407935	0.172448
907.589352	0.171738
907.770750	0.171355
907.952131	0.171306
908.133493	0.171319
908.314837	0.171099
908.496163	0.171025
908.677470	0.170533
908.858760	0.170121
909.040031	0.170244
909.221284	0.170465
909.402518	0.170011
909.583735	0.169880
909.764933	0.169428
909.946113	0.169192
910.127275	0.168852
910.308418	0.168325
910.489544	0.167649
910.670651	0.167306
910.851740	0.167151
911.032810	0.167171
911.213863	0.166251
911.394897	0.165990
911.575913	0.165337
911.756911	0.165049
911.937890	0.164721
912.118851	0.164124
912.299794	0.163612
912.480719	0.163302
912.661626	0.162787
912.842514	0.163293
913.023384	0.163103
913.204236	0.162939
913.385070	0.162645
913.565886	0.162704
913.746683	0.162890
913.927462	0.163143
914.108223	0.162492
914.288965	0.162409
914.469690	0.161357
914.650396	0.160455
914.831084	0.159909
915.011754	0.159459
915.192405	0.159080
915.373038	0.158375
915.553653	0.157509
915.734250	0.157475
915.914829	0.157252
916.095389	0.157100
916.275931	0.157011
916.456455	0.156753
916.636961	0.156615
916.817448	0.155659
916.997917	0.155164
917.178368	0.154467
917.358801	0.153860
917.539216	0.152789
917.719612	0.152713
917.899990	0.152344
918.080350	0.152070
918.260692	0.151582
918.441015	0.151756
918.621320	0.151403
918.801607	0.151318
918.981876	0.150891
919.162127	0.150879
919.342359	0.150461
919.522573	0.149932
919.702769	0.149235
919.882947	0.148458
920.063106	0.147903
920.243247	0.147653
920.423370	0.147260
920.603475	0.146894
920.783562	0.146443
920.963630	0.145538
921.143680	0.145432
921.323712	0.144768
921.503725	0.144349
921.683721	0.143526
921.863698	0.142963
922.043657	0.142626
922.223598	0.142483
922.403520	0.142002
922.583424	0.141891
922.763311	0.141465
922.943178	0.141537
923.123028	0.140703
923.302859	0.140818
923.482673	0.140399
923.662467	0.139603
923.842244	0.138461
924.022003	0.138006
924.201743	0.137460
924.381465	0.136428
924.561169	0.136069
924.740854	0.135984
924.920522	0.135042
925.100171	0.134573
925.279802	0.134172
925.459414	0.133932
925.639009	0.133453
925.818585	0.132586
925.998143	0.131652
926.177683	0.130505
926.357205	0.129758
926.536708	0.129396
926.716193	0.128843
926.895660	0.128281
927.075109	0.127581
927.254539	0.126982
927.433951	0.126861
927.613345	0.126186
927.792721	0.125636
927.972079	0.125019
928.151418	0.124466
928.330739	0.123863
928.510042	0.123106
928.689327	0.122425
928.868593	0.121248
929.047841	0.119809
929.227071	0.120004
929.406283	0.118995
929.585476	0.118867
929.764652	0.118496
929.943809	0.118152
930.122948	0.117196
930.302068	0.116446
930.481171	0.115627
930.660255	0.115480
930.839321	0.115060
931.018369	0.115229
931.197398	0.114022
931.376409	0.113472
931.555402	0.113037
931.734377	0.113340
931.913334	0.112991
932.092272	0.112752
932.271192	0.111705
932.450094	0.110489
932.628978	0.109617
932.807844	0.109702
932.986691	0.108315
933.165520	0.107008
933.344331	0.106203
933.523123	0.105643
933.701898	0.105192
933.880654	0.105615
934.059392	0.105257
934.238111	0.104625
934.416813	0.102806
934.595496	0.102544
934.774161	0.102641
934.952808	0.102003
935.131437	0.101055
935.310047	0.100937
935.488639	0.099634
935.667213	0.098714
935.845769	0.097658
936.024306	0.097304
936.202825	0.096163
936.381326	0.094383
936.559809	0.093172
936.738274	0.092225
936.916720	0.091547
937.095148	0.090542
937.273558	0.089694
937.451950	0.089394
937.630323	0.088622
937.808678	0.088286
937.987015	0.087216
938.165334	0.087542
938.343635	0.086568
938.521917	0.085320
938.700181	0.084708
938.878427	0.083874
939.056655	0.083691
939.234864	0.083150
939.413055	0.081671
939.591228	0.081833
939.769383	0.080497
939.947519	0.080598
940.125638	0.079700
940.303738	0.079186
940.481820	0.078347
940.659883	0.077187
940.837929	0.077543
941.015956	0.077466
941.193965	0.076375
941.371955	0.075346
941.549928	0.074271
941.727882	0.074039
941.905818	0.072702
942.083736	0.072625
942.261636	0.071841
942.439517	0.069929
942.617380	0.069235
942.795225	0.069046
942.973052	0.068444
943.150860	0.067104
943.328651	0.065261
943.506423	0.064528
943.684176	0.063121
943.861912	0.062203
944.039629	0.062267
944.217328	0.061947
944.395009	0.060746
944.572672	0.059393
944.750317	0.059842
944.927943	0.058786
945.105551	0.058835
945.283141	0.059095
945.460712	0.057686
945.638265	0.056386
945.815801	0.055636
945.993317	0.055401
946.170816	0.055282
946.348297	0.054986
946.525759	0.057182
946.703203	0.056313
946.880629	0.054655
947.058036	0.054933
947.235425	0.055179
947.412797	0.054357
947.590149	0.053853
947.767484	0.052849
947.944800	0.052390
948.122099	0.051307
948.299379	0.051007
948.476640	0.052549
948.653884	0.050431
948.831109	0.049489
949.008316	0.048903
949.185505	0.047819
949.362676	0.048229
949.539828	0.046489
949.716962	0.045804
949.894078	0.045775
950.071176	0.043425
950.248256	0.045605
950.425317	0.045769
950.602360	0.046886
950.779385	0.047463
950.956391	0.046092
951.133380	0.045537
951.310350	0.044031
951.487302	0.043134
951.664235	0.042395
951.841151	0.041160
952.018048	0.038953
952.194927	0.036185
952.371788	0.035191
952.548631	0.034796
952.725455	0.034391
952.902261	0.033744
953.079049	0.032861
953.255819	0.033492
953.432570	0.033034
953.609303	0.032823
953.786018	0.033164
953.962715	0.032129
954.139394	0.031650
954.316054	0.032540
954.492696	0.033716
954.669320	0.035134
954.845926	0.034846
955.022513	0.035996
955.199083	0.036524
955.375634	0.036268
955.552166	0.036815
955.728681	0.036562
955.905177	0.037306
956.081655	0.037169
956.258115	0.037153
956.434557	0.036594
956.610980	0.034765
956.787385	0.037170
956.963772	0.037457
957.140141	0.040212
957.316492	0.041546
957.492824	0.040864
957.669138	0.040506
957.845434	0.039397
958.021712	0.040043
958.197971	0.040475
958.374212	0.038924
958.550435	0.037853
958.726640	0.034412
958.902826	0.035003
959.078995	0.034751
959.255145	0.035403
959.431277	0.035698
959.607390	0.036588
959.783486	0.036566
959.959563	0.033408
960.135622	0.034747
960.311662	0.033813
960.487685	0.032347
960.663689	0.032625
960.839675	0.030817
961.015643	0.030547
961.191593	0.029562
961.367524	0.029409
961.543437	0.032880
961.719332	0.033960
961.895209	0.035560
962.071067	0.037148
962.246907	0.036731
962.422730	0.037727
962.598533	0.037149
962.774319	0.035911
962.950086	0.035784
963.125835	0.035766
963.301566	0.035005
963.477279	0.035351
963.652973	0.033327
963.828650	0.032182
964.004308	0.031435
964.179947	0.031206
964.355569	0.032024
964.531172	0.031767
964.706757	0.031745
964.882324	0.029425
965.057873	0.029916
965.233403	0.029314
965.408916	0.029375
965.584410	0.028823
965.759885	0.030748
965.935343	0.032156
966.110782	0.032757
966.286203	0.032412
966.461606	0.033957
966.636991	0.033787
966.812357	0.034431
966.987705	0.036395
967.163035	0.039497
967.338347	0.037933
967.513641	0.038238
967.688916	0.038546
967.864173	0.038085
968.039412	0.039844
968.214632	0.040476
968.389835	0.041334
968.565019	0.039915
968.740185	0.037892
968.915333	0.040136
969.090462	0.039784
969.265573	0.040399
969.440667	0.039565
969.615741	0.038879
969.790798	0.037903
969.965836	0.037099
970.140856	0.038956
970.315858	0.039209
970.490842	0.038733
970.665808	0.039616
970.840755	0.040100
971.015684	0.042275
971.190595	0.042106
971.365487	0.042705
971.540362	0.043042
971.715218	0.043182
971.890056	0.042544
972.064875	0.040974
972.239677	0.038826
972.414460	0.037048
972.589225	0.033757
972.763972	0.033497
972.938700	0.034014
973.113411	0.035509
973.288103	0.033211
973.462777	0.034834
973.637432	0.033369
973.812070	0.034958
973.986689	0.035699
974.161290	0.038130
974.335873	0.037388
974.510437	0.036846
974.684984	0.036077
974.859512	0.038688
975.034022	0.037331
975.208513	0.038751
975.382987	0.035571
975.557442	0.033978
975.731879	0.033860
975.906298	0.034357
976.080698	0.032028
976.255080	0.032433
976.429445	0.028809
976.603790	0.027388
976.778118	0.026976
976.952427	0.029265
977.126719	0.030886
977.300992	0.031699
977.475246	0.030681
977.649483	0.033499
977.823701	0.032476
977.997901	0.033587
978.172083	0.035655
978.346247	0.035215
978.520392	0.034390
978.694519	0.034318
978.868628	0.032472
979.042719	0.032369
979.216791	0.031109
979.390845	0.032615
979.564882	0.033334
979.738899	0.034845
979.912899	0.037153
980.086880	0.038971
980.260843	0.039954
980.434788	0.041303
980.608715	0.042264
980.782623	0.044685
980.956514	0.044789
981.130386	0.043908
981.304240	0.043191
981.478075	0.042241
981.651892	0.041528
981.825692	0.041991
981.999472	0.041381
982.173235	0.041636
982.346980	0.040932
982.520706	0.041236
982.694414	0.042071
982.868104	0.040487
983.041775	0.041482
983.215428	0.041398
983.389064	0.040490
983.562680	0.042411
983.736279	0.041801
983.909860	0.041299
984.083422	0.039723
984.256966	0.038897
984.430491	0.038329
984.603999	0.038337
984.777488	0.039191
984.950959	0.037255
985.124412	0.033981
985.297847	0.034452
985.471263	0.033151
985.644661	0.034058
985.818041	0.034469
985.991403	0.034628
986.164747	0.035503
986.338072	0.035451
986.511379	0.036996
986.684668	0.038810
986.857938	0.037589
987.031191	0.037439
987.204425	0.037510
987.377641	0.039090
987.550839	0.039498
987.724018	0.037573
987.897179	0.037040
988.070322	0.037967
988.243447	0.037108
988.416554	0.037649
988.589642	0.038388
988.762712	0.037277
988.935764	0.036804
989.108798	0.038397
989.281813	0.038831
989.454811	0.038899
989.627790	0.038230
989.800751	0.037631
989.973693	0.037152
990.146617	0.037876
990.319524	0.037306
990.492412	0.036689
990.665281	0.035994
990.838133	0.036367
991.010966	0.036491
991.183781	0.035910
991.356578	0.037414
991.529356	0.038166
991.702117	0.038960
991.874859	0.039241
992.047583	0.038620
992.220288	0.038295
992.392976	0.039606
992.565645	0.039541
992.738296	0.040198
992.910929	0.038937
993.083543	0.039045
993.256139	0.036746
993.428718	0.037388
993.601277	0.039669
993.773819	0.041569
993.946342	0.038851
994.118848	0.038718
994.291335	0.038279
994.463803	0.037871
994.636254	0.038661
994.808686	0.039432
994.981100	0.038634
995.153496	0.036016
995.325874	0.033300
995.498233	0.035042
995.670574	0.034542
995.842897	0.034474
996.015202	0.034833
996.187488	0.034287
996.359757	0.034758
996.532007	0.036263
996.704239	0.037208
996.876452	0.038125
997.048648	0.037429
997.220825	0.038413
997.392984	0.039361
997.565124	0.041240
997.737247	0.040838
997.909351	0.041080
998.081437	0.040050
998.253505	0.041464
998.425554	0.042843
998.597586	0.043857
998.769599	0.043319
998.941594	0.042729
999.113571	0.042692
999.285529	0.043539
999.457469	0.041589
999.629391	0.042584
999.801295	0.041935
999.973181	0.041587
1000.145048	0.041647
1000.316897	0.040866
1000.488728	0.039740
1000.660541	0.038520
1000.832335	0.038065
1001.004111	0.038685
1001.175869	0.038164
1001.347609	0.037983
1001.519331	0.036097
1001.691034	0.035574
1001.862719	0.035179
1002.034386	0.036802
1002.206035	0.037050
1002.377665	0.037085
1002.549277	0.037042
1002.720871	0.036064
1002.892447	0.034784
1003.064004	0.036407
1003.235544	0.034763
1003.407065	0.036379
1003.578568	0.036044
1003.750052	0.035057
1003.921519	0.035542
1004.092967	0.035907
1004.264397	0.037635
1004.435809	0.037791
1004.607202	0.035608
1004.778577	0.036475
1004.949934	0.035028
1005.121273	0.035985
1005.292594	0.036518
1005.463896	0.034825
1005.635180	0.033797
1005.806446	0.032344
1005.977694	0.032904
1006.148923	0.034135
1006.320135	0.034750
1006.491328	0.034720
1006.662503	0.033668
1006.833659	0.034493
1007.004798	0.035621
1007.175918	0.036847
1007.347020	0.038268
1007.518103	0.037534
1007.689169	0.037663
1007.860216	0.037274
1008.031245	0.038280
1008.202256	0.038163
1008.373248	0.036962
1008.544223	0.035977
1008.715179	0.035181
1008.886117	0.034360
1009.057036	0.035311
1009.227938	0.035449
1009.398821	0.035154
1009.569686	0.034750
1009.740533	0.034819
1009.911361	0.034041
1010.082172	0.035405
1010.252964	0.036761
1010.423738	0.037095
1010.594493	0.035935
1010.765231	0.034982
1010.935950	0.034055
1011.106651	0.033205
1011.277334	0.032716
1011.447998	0.033529
1011.618645	0.033654
1011.789273	0.033066
1011.959882	0.031316
1012.130474	0.030020
1012.301048	0.030044
1012.471603	0.031581
1012.642140	0.032948
1012.812658	0.032015
1012.983159	0.032103
1013.153641	0.030922
1013.324105	0.029625
1013.494551	0.030602
1013.664979	0.032034
1013.835388	0.031063
1014.005779	0.030393
1014.176152	0.030297
1014.346507	0.031144
1014.516843	0.031787
1014.687162	0.032886
1014.857462	0.035474
1015.027744	0.034840
1015.198007	0.035095
1015.368252	0.035590
1015.538480	0.035724
1015.708689	0.036158
1015.878879	0.037594
1016.049052	0.037722
1016.219206	0.036756
1016.389342	0.035800
1016.559460	0.036760
1016.729559	0.037176
1016.899641	0.038533
1017.069704	0.037943
1017.239749	0.036249
1017.409775	0.036190
1017.579784	0.036471
1017.749774	0.037613
1017.919746	0.037335
1018.089700	0.038279
1018.259635	0.038413
1018.429553	0.038300
1018.599452	0.039042
1018.769333	0.040549
1018.939195	0.037445
1019.109040	0.036010
1019.278866	0.034795
1019.448674	0.035035
1019.618464	0.032390
1019.788235	0.033060
1019.957989	0.031572
1020.127724	0.030709
1020.297441	0.030139
1020.467139	0.031901
1020.636820	0.032369
1020.806482	0.032898
1020.976126	0.033105
1021.145752	0.035453
1021.315359	0.034230
1021.484948	0.035558
1021.654519	0.035102
1021.824072	0.034627
1021.993607	0.033677
1022.163123	0.034971
1022.332621	0.034984
1022.502101	0.034472
1022.671563	0.032219
1022.841007	0.033824
1023.010432	0.034011
1023.179839	0.034236
1023.349228	0.035653
1023.518598	0.036902
1023.687951	0.036432
1023.857285	0.036203
1024.026601	0.035477
1024.195899	0.037473
1024.365178	0.036831
1024.534439	0.036996
1024.703682	0.038140
1024.872907	0.036449
1025.042114	0.036132
1025.211302	0.034767
1025.380472	0.033398
1025.549624	0.033254
1025.718758	0.030525
1025.887873	0.029835
1026.056970	0.029049
1026.226049	0.028404
1026.395110	0.028453
1026.564153	0.028078
1026.733177	0.028686
1026.902183	0.031012
1027.071171	0.032319
1027.240141	0.034250
1027.409092	0.034461
1027.578026	0.033544
1027.746940	0.032771
1027.915837	0.032757
1028.084716	0.032868
1028.253576	0.033287
1028.422418	0.033597
1028.591242	0.033016
1028.760048	0.033611
1028.928835	0.033285
1029.097604	0.033071
1029.266355	0.032773
1029.435088	0.034481
1029.603803	0.034188
1029.772499	0.032937
1029.941177	0.031664
1030.109837	0.031668
1030.278478	0.031222
1030.447102	0.031226
1030.615707	0.033780
1030.784294	0.036000
1030.952863	0.035916
1031.121413	0.037101
1031.289945	0.038802
1031.458460	0.036970
1031.626955	0.036140
1031.795433	0.036732
1031.963892	0.036571
1032.132334	0.035960
1032.300756	0.035503
1032.469161	0.035162
1032.637548	0.034697
1032.805916	0.033389
1032.974266	0.035628
1033.142598	0.037843
1033.310911	0.037708
1033.479207	0.038969
1033.647484	0.038267
1033.815743	0.036759
1033.983983	0.037347
1034.152206	0.036585
1034.320410	0.038207
1034.488596	0.036887
1034.656764	0.036246
1034.824914	0.035763
1034.993045	0.035045
1035.161158	0.036144
1035.329253	0.037844
1035.497330	0.036455
1035.665388	0.038050
1035.833428	0.037447
1036.001450	0.038249
1036.169454	0.037728
1036.337440	0.036872
1036.505407	0.038184
1036.673356	0.036844
1036.841287	0.036135
1037.009200	0.034771
1037.177094	0.034909
1037.344970	0.032839
1037.512828	0.033087
1037.680668	0.032879
1037.848489	0.032594
1038.016293	0.030772
1038.184078	0.032106
1038.351845	0.033011
1038.519593	0.035735
1038.687324	0.035048
1038.855036	0.036304
1039.022730	0.035051
1039.190406	0.034621
1039.358063	0.034404
1039.525702	0.034355
1039.693323	0.032528
1039.860926	0.031244
1040.028511	0.030366
1040.196077	0.030247
1040.363625	0.031446
1040.531155	0.034191
1040.698667	0.035261
1040.866161	0.037389
1041.033636	0.037394
1041.201093	0.036743
1041.368532	0.036922
1041.535952	0.035770
1041.703355	0.034880
1041.870739	0.035402
1042.038105	0.032710
1042.205452	0.032178
1042.372782	0.031802
1042.540093	0.031394
1042.707386	0.031975
1042.874661	0.033954
1043.041918	0.034138
1043.209156	0.033614
1043.376376	0.034141
1043.543578	0.035082
1043.710762	0.033961
1043.877927	0.033506
1044.045074	0.033222
1044.212203	0.033477
1044.379314	0.032451
1044.546407	0.032548
1044.713481	0.033545
1044.880537	0.032450
1045.047575	0.030211
1045.214595	0.032188
1045.381596	0.031556
1045.548579	0.032042
1045.715544	0.032766
1045.882491	0.030949
1046.049420	0.032363
1046.216330	0.031205
1046.383222	0.031654
1046.550096	0.032889
1046.716951	0.031397
1046.883789	0.033173
1047.050608	0.034669
1047.217409	0.033479
1047.384192	0.035565
1047.550956	0.034935
1047.717703	0.036522
1047.884431	0.037415
1048.051140	0.037738
1048.217832	0.037814
1048.384505	0.036135
1048.551161	0.035499
1048.717798	0.035968
1048.884416	0.033296
1049.051017	0.031343
1049.217599	0.031786
1049.384163	0.028527
1049.550709	0.029386
1049.717237	0.030905
1049.883746	0.031075
1050.050237	0.027751
1050.216710	0.029071
1050.383165	0.030660
1050.549601	0.031776
1050.716019	0.031367
1050.882420	0.032818
1051.048801	0.032814
1051.215165	0.032048
1051.381510	0.032957
1051.547837	0.035636
1051.714146	0.034078
1051.880437	0.035304
1052.046709	0.036981
1052.212964	0.035114
1052.379200	0.034178
1052.545417	0.034281
1052.711617	0.033057
1052.877798	0.033377
1053.043961	0.033746
1053.210106	0.034272
1053.376233	0.032658
1053.542341	0.031005
1053.708432	0.032967
1053.874504	0.034004
1054.040557	0.033903
1054.206593	0.033742
1054.372610	0.032921
1054.538609	0.032986
1054.704590	0.032909
1054.870553	0.032208
1055.036497	0.031990
1055.202424	0.032089
1055.368331	0.031753
1055.534221	0.030535
1055.700093	0.031200
1055.865946	0.031661
1056.031781	0.031186
1056.197598	0.030245
1056.363397	0.030329
1056.529177	0.031618
1056.694939	0.030019
1056.860683	0.031837
1057.026409	0.033243
1057.192116	0.032253
1057.357806	0.032854
1057.523477	0.032902
1057.689130	0.033086
1057.854764	0.034433
1058.020381	0.034182
1058.185979	0.035292
1058.351559	0.033650
1058.517120	0.032774
1058.682664	0.034439
1058.848189	0.032289
1059.013696	0.033249
1059.179185	0.033380
1059.344656	0.033044
1059.510108	0.031009
1059.675542	0.031070
1059.840958	0.032247
1060.006356	0.031919
1060.171735	0.030975
1060.337096	0.033189
1060.502439	0.032119
1060.667764	0.032731
1060.833071	0.032797
1060.998359	0.033698
1061.163629	0.032976
1061.328881	0.032615
1061.494115	0.032549
1061.659330	0.033260
1061.824527	0.030903
1061.989706	0.031026
1062.154867	0.030138
1062.320010	0.030521
1062.485134	0.032465
1062.650240	0.034138
1062.815328	0.034730
1062.980398	0.034450
1063.145449	0.035055
1063.310482	0.036849
1063.475497	0.038076
1063.640494	0.040344
1063.805473	0.039828
1063.970433	0.039651
1064.135375	0.039512
1064.300299	0.038219
1064.465204	0.039385
1064.630092	0.039130
1064.794961	0.036979
1064.959812	0.035748
1065.124645	0.034263
1065.289459	0.034603
1065.454256	0.033736
1065.619034	0.032029
1065.783793	0.033450
1065.948535	0.033539
1066.113258	0.032683
1066.277964	0.033812
1066.442651	0.035664
1066.607319	0.035579
1066.771970	0.035353
1066.936602	0.035452
1067.101216	0.037549
1067.265812	0.035022
1067.430389	0.035395
1067.594949	0.034805
1067.759490	0.035757
1067.924013	0.033344
1068.088518	0.033354
1068.253004	0.034963
1068.417472	0.034954
1068.581922	0.031578
1068.746354	0.033214
1068.910768	0.033074
1069.075163	0.033696
1069.239540	0.032489
1069.403899	0.033176
1069.568240	0.034375
1069.732562	0.032843
1069.896866	0.032581
1070.061152	0.034613
1070.225420	0.033262
1070.389670	0.034243
1070.553901	0.034829
1070.718114	0.034457
1070.882309	0.030688
1071.046486	0.030312
1071.210644	0.031186
1071.374784	0.032475
1071.538906	0.031508
1071.703010	0.032873
1071.867096	0.030920
1072.031163	0.029846
1072.195212	0.029960
1072.359243	0.033916
1072.523256	0.033584
1072.687250	0.032527
1072.851226	0.031670
1073.015184	0.035196
1073.179124	0.034045
1073.343045	0.033956
1073.506949	0.034063
1073.670834	0.033724
1073.834701	0.034185
1073.998549	0.034805
1074.162380	0.034625
1074.326192	0.036077
1074.489986	0.034855
1074.653761	0.036849
1074.817519	0.039464
1074.981258	0.040503
1075.144979	0.041253
1075.308682	0.040314
1075.472367	0.038550
1075.636033	0.038616
1075.799681	0.036762
1075.963311	0.037349
1076.126923	0.034596
1076.290516	0.032445
1076.454092	0.031925
1076.617649	0.034561
1076.781187	0.035633
1076.944708	0.036108
1077.108210	0.035750
1077.271695	0.034946
1077.435160	0.034570
1077.598608	0.034528
1077.762038	0.033501
1077.925449	0.033096
1078.088842	0.030572
1078.252217	0.027834
1078.415573	0.028227
1078.578912	0.028083
1078.742232	0.028351
1078.905534	0.025403
1079.068817	0.025460
1079.232083	0.026928
1079.395330	0.028304
1079.558559	0.029517
1079.721770	0.032168
1079.884962	0.033641
1080.048136	0.035401
1080.211293	0.034851
1080.374430	0.038619
1080.537550	0.038301
1080.700651	0.038718
1080.863735	0.037792
1081.026800	0.038158
1081.189846	0.035842
1081.352875	0.036078
1081.515885	0.033803
1081.678877	0.033961
1081.841851	0.033363
1082.004807	0.033311
1082.167744	0.031262
1082.330663	0.032944
1082.493564	0.031992
1082.656447	0.033513
1082.819312	0.032274
1082.982158	0.033262
1083.144986	0.035149
1083.307796	0.035944
1083.470587	0.035511
1083.633361	0.036630
1083.796116	0.033767
1083.958853	0.033900
1084.121571	0.033499
1084.284272	0.030448
1084.446954	0.030928
1084.609618	0.030854
1084.772264	0.029422
1084.934892	0.030735
1085.097501	0.031487
1085.260092	0.031390
1085.422665	0.031382
1085.585220	0.032526
1085.747756	0.034950
1085.910274	0.035546
1086.072774	0.034970
1086.235256	0.033559
1086.397720	0.033662
1086.560165	0.032858
1086.722592	0.033757
1086.885001	0.034266
1087.047392	0.034514
1087.209764	0.034268
1087.372119	0.033243
1087.534455	0.033063
1087.696772	0.035994
1087.859072	0.035954
1088.021353	0.036461
1088.183616	0.039557
1088.345861	0.038058
1088.508088	0.037568
1088.670296	0.039225
1088.832486	0.039255
1088.994658	0.037874
1089.156812	0.036440
1089.318948	0.036814
1089.481065	0.040123
1089.643164	0.038009
1089.805245	0.038413
1089.967308	0.037321
1090.129352	0.036364
1090.291378	0.036777
1090.453386	0.035901
1090.615376	0.034811
1090.777347	0.036628
1090.939301	0.031730
1091.101236	0.031384
1091.263153	0.033088
1091.425051	0.033419
1091.586932	0.034164
1091.748794	0.034826
1091.910638	0.038843
1092.072463	0.038541
1092.234271	0.039631
1092.396060	0.039416
1092.557831	0.037208
1092.719584	0.036515
1092.881319	0.036839
1093.043035	0.037259
1093.204733	0.037085
1093.366413	0.035762
1093.528075	0.037370
1093.689718	0.034013
1093.851343	0.036751
1094.012950	0.041674
1094.174539	0.036154
1094.336110	0.033453
1094.497662	0.034857
1094.659196	0.032461
1094.820712	0.030001
1094.982210	0.026199
1095.143689	0.027078
1095.305151	0.025494
1095.466594	0.024007
1095.628018	0.028324
1095.789425	0.034016
1095.950813	0.030252
1096.112183	0.030006
1096.273535	0.032213
1096.434869	0.033274
1096.596184	0.035830
1096.757482	0.037581
1096.918761	0.034195
1097.080021	0.032324
1097.241264	0.028188
1097.402488	0.024173
1097.563694	0.026163
1097.724882	0.024280
1097.886052	0.025985
1098.047203	0.020526
1098.208336	0.017846
1098.369451	0.021321
1098.530548	0.023021
1098.691627	0.021504
1098.852687	0.027251
1099.013729	0.029088
1099.174753	0.030133
1099.335758	0.030690
1099.496746	0.032821
1099.657715	0.032671
1099.818666	0.029457
1099.979599	0.030161
1100.140513	0.035174
1100.301409	0.033357
1100.462287	0.032139
1100.623147	0.031441
1100.783989	0.030492
1100.944812	0.029820
1101.105617	0.030192
1101.266404	0.030976
1101.427173	0.030903
1101.587923	0.029792
1101.748656	0.033602
1101.909370	0.031321
1102.070066	0.035405
1102.230743	0.035623
1102.391403	0.034730
1102.552044	0.038650
1102.712667	0.040034
1102.873271	0.041042
1103.033858	0.037463
1103.194426	0.035390
1103.354976	0.034486
1103.515508	0.032783
1103.676021	0.033474
1103.836517	0.035862
1103.996994	0.033188
1104.157453	0.032820
1104.317893	0.032207
1104.478316	0.034277
1104.638720	0.033107
1104.799106	0.037717
1104.959474	0.037415
1105.119823	0.032035
1105.280155	0.028318
1105.440468	0.026682
1105.600763	0.026067
1105.761039	0.025710
1105.921298	0.030524
1106.081538	0.028412
1106.241760	0.026056
1106.401964	0.023140
1106.562149	0.029153
1106.722316	0.030385
1106.882465	0.030193
1107.042596	0.028875
1107.202709	0.027337
1107.362803	0.024762
1107.522879	0.028596
1107.682937	0.033749
1107.842977	0.038523
1108.002999	0.035620
1108.163002	0.039127
1108.322987	0.040570
1108.482954	0.043190
1108.642902	0.047677
1108.802833	0.045176
1108.962745	0.043671
1109.122639	0.040490
1109.282515	0.038857
1109.442372	0.042578
1109.602211	0.040238
1109.762032	0.041662
1109.921835	0.039478
1110.081620	0.035235
1110.241386	0.038333
1110.401134	0.037156
1110.560864	0.037079
1110.720576	0.037111
1110.880269	0.034272
1111.039945	0.033207
1111.199602	0.032892
1111.359240	0.034150
1111.518861	0.033205
1111.678463	0.027878
1111.838047	0.027859
1111.997613	0.022842
1112.157161	0.021132
1112.316690	0.021400
1112.476202	0.021717
1112.635695	0.018853
1112.795169	0.019723
1112.954626	0.024681
1113.114064	0.023298
1113.273484	0.024419
1113.432886	0.029548
1113.592270	0.026766
1113.751635	0.026276
1113.910983	0.024301
1114.070312	0.028129
1114.229622	0.029991
1114.388915	0.028688
1114.548189	0.037061
1114.707445	0.040006
1114.866683	0.036150
1115.025903	0.038495
1115.185104	0.035817
1115.344287	0.041922
1115.503452	0.044889
1115.662599	0.045156
1115.821727	0.045632
1115.980838	0.041539
1116.139930	0.036232
1116.299004	0.039109
1116.458059	0.042004
1116.617097	0.048306
1116.776116	0.048183
1116.935117	0.042894
1117.094099	0.039533
1117.253064	0.036058
1117.412010	0.038311
1117.570938	0.039410
1117.729848	0.038075
1117.888740	0.037648
1118.047613	0.031532
1118.206468	0.028638
1118.365305	0.027603
1118.524124	0.024144
1118.682924	0.022569
1118.841707	0.020634
1119.000471	0.021758
1119.159216	0.019134
1119.317944	0.018806
1119.476653	0.019998
1119.635344	0.021921
1119.794017	0.028046
1119.952672	0.036499
1120.111308	0.040704
1120.269927	0.040154
1120.428527	0.040285
1120.587108	0.041883
1120.745672	0.042478
1120.904217	0.043408
1121.062744	0.044764
1121.221253	0.037659
1121.379744	0.030706
1121.538216	0.028263
1121.696671	0.027209
1121.855107	0.028851
1122.013524	0.035271
1122.171924	0.037766
1122.330305	0.039713
1122.488668	0.041420
1122.647013	0.045533
1122.805340	0.048464
1122.963648	0.051051
1123.121938	0.050999
1123.280210	0.050467
1123.438464	0.043069
1123.596700	0.039781
1123.754917	0.036751
1123.913116	0.031216
1124.071297	0.029872
1124.229459	0.031499
1124.387604	0.033547
1124.545730	0.039539
1124.703838	0.035341
1124.861928	0.039421
1125.019999	0.041504
1125.178052	0.050232
1125.336088	0.050265
1125.494104	0.053587
1125.652103	0.054360
1125.810083	0.046992
1125.968045	0.045437
1126.125989	0.047572
1126.283915	0.048666
1126.441823	0.052451
1126.599712	0.043042
1126.757583	0.045274
1126.915436	0.042749
1127.073270	0.039169
1127.231087	0.045047
1127.388885	0.041427
1127.546665	0.044161
1127.704426	0.044304
1127.862170	0.037953
1128.019895	0.044521
1128.177602	0.044557
1128.335291	0.047405
1128.492961	0.048985
1128.650614	0.057961
1128.808248	0.061841
1128.965864	0.063421
1129.123461	0.063518
1129.281041	0.066826
1129.438602	0.064781
1129.596145	0.060016
1129.753670	0.057998
1129.911176	0.061248
1130.068665	0.055238
1130.226135	0.050591
1130.383587	0.047551
1130.541020	0.044814
1130.698436	0.036726
1130.855833	0.039528
1131.013212	0.042679
1131.170573	0.044425
1131.327915	0.041024
1131.485239	0.037727
1131.642545	0.039399
1131.799833	0.042393
1131.957103	0.036746
1132.114354	0.043769
1132.271588	0.038538
1132.428803	0.035092
1132.585999	0.037318
1132.743178	0.036337
1132.900338	0.034324
1133.057480	0.032836
1133.214604	0.035446
1133.371710	0.042880
1133.528797	0.037244
1133.685866	0.039276
1133.842917	0.037441
1133.999950	0.033461
1134.156964	0.032134
1134.313960	0.034850
1134.470938	0.036876
1134.627898	0.026100
1134.784840	0.020806
1134.941763	0.025883
1135.098668	0.031014
1135.255555	0.027044
1135.412424	0.034022
1135.569274	0.037875
1135.726107	0.034048
1135.882921	0.036642
1136.039716	0.046905
1136.196494	0.050880
1136.353253	0.049736
1136.509995	0.043764
1136.666717	0.053189
1136.823422	0.047139
1136.980109	0.040594
1137.136777	0.047298
1137.293427	0.041722
1137.450059	0.035562
1137.606672	0.039011
1137.763267	0.041227
1137.919844	0.038838
1138.076403	0.036156
1138.232944	0.024068
1138.389466	0.030493
1138.545971	0.030521
1138.702457	0.030564
1138.858924	0.036624
1139.015374	0.033433
1139.171805	0.028715
1139.328218	0.028771
1139.484613	0.037627
1139.640990	0.041801
1139.797348	0.035685
1139.953688	0.029100
1140.110010	0.030250
1140.266314	0.025640
1140.422600	0.027225
1140.578867	0.032961
1140.735116	0.034631
1140.891347	0.030969
1141.047559	0.034635
1141.203754	0.038337
1141.359930	0.043661
1141.516088	0.044263
1141.672228	0.050289
1141.828349	0.042736
1141.984452	0.043959
1142.140537	0.045980
1142.296604	0.041371
1142.452653	0.043418
1142.608683	0.045264
1142.764695	0.044353
1142.920689	0.043840
1143.076665	0.040045
1143.232622	0.045135
1143.388562	0.047385
1143.544483	0.047799
1143.700385	0.052853
1143.856270	0.048803
1144.012136	0.048932
1144.167985	0.051645
1144.323814	0.055617
1144.479626	0.048674
1144.635420	0.053499
1144.791195	0.043253
1144.946952	0.045876
1145.102691	0.056860
1145.258411	0.063149
1145.414113	0.054576
1145.569798	0.049110
1145.725463	0.051410
1145.881111	0.055774
1146.036741	0.049774
1146.192352	0.054908
1146.347945	0.050807
1146.503519	0.043485
1146.659076	0.040658
1146.814614	0.052662
1146.970134	0.049559
1147.125636	0.048872
1147.281120	0.046559
1147.436585	0.059736
1147.592032	0.061351
1147.747461	0.055896
1147.902872	0.049170
1148.058265	0.051894
1148.213639	0.040628
1148.368995	0.050990
1148.524333	0.041524
1148.679653	0.049592
1148.834954	0.047247
1148.990237	0.043550
1149.145502	0.049196
1149.300749	0.057677
1149.455977	0.057921
1149.611188	0.072508
1149.766380	0.067979
1149.921553	0.081172
1150.076709	0.078442
1150.231846	0.071690
1150.386966	0.072610
1150.542066	0.076203
1150.697149	0.065119
1150.852214	0.053497
1151.007260	0.052947
1151.162288	0.052697
1151.317298	0.043509
1151.472289	0.035271
1151.627263	0.041731
1151.782218	0.041122
1151.937155	0.042035
1152.092073	0.056222
1152.246974	0.063627
1152.401856	0.048608
1152.556720	0.041760
1152.711566	0.048949
1152.866393	0.056313
1153.021203	0.043895
1153.175994	0.038561
1153.330767	0.038895
1153.485521	0.021325
1153.640258	0.028390
1153.794976	0.043080
1153.949676	0.053192
1154.104358	0.052667
1154.259021	0.044321
1154.413667	0.041650
1154.568294	0.042923
1154.722903	0.045360
1154.877493	0.062293
1155.032066	0.049999
1155.186620	0.046574
1155.341156	0.045552
1155.495674	0.047186
1155.650173	0.053416
1155.804654	0.059337
1155.959118	0.068210
1156.113562	0.065319
1156.267989	0.051040
1156.422397	0.055077
1156.576788	0.047753
1156.731160	0.046350
1156.885513	0.041964
1157.039849	0.051610
1157.194166	0.046395
1157.348465	0.041157
1157.502746	0.044142
1157.657009	0.040241
1157.811253	0.043977
1157.965479	0.053822
1158.119687	0.050958
1158.273877	0.053326
1158.428048	0.049729
1158.582201	0.057546
1158.736337	0.065228
1158.890453	0.056089
1159.044552	0.065642
1159.198632	0.056430
1159.352694	0.052481
1159.506738	0.061618
1159.660764	0.050325
1159.814771	0.042491
1159.968761	0.042466
1160.122732	0.042147
1160.276685	0.045894
1160.430619	0.052845
1160.584535	0.059270
1160.738434	0.057936
1160.892313	0.038691
1161.046175	0.048052
1161.200019	0.053288
1161.353844	0.057679
1161.507651	0.041584
1161.661440	0.043978
1161.815210	0.040260
1161.968962	0.041012
1162.122697	0.048677
1162.276412	0.055935
1162.430110	0.063556
1162.583789	0.065448
1162.737451	0.070158
1162.891094	0.077371
1163.044718	0.076499
1163.198325	0.073241
1163.351913	0.076595
1163.505483	0.067692
1163.659035	0.057828
1163.812569	0.053509
1163.966084	0.040401
1164.119581	0.030111
1164.273060	0.027458
1164.426521	0.025691
1164.579964	0.021777
1164.733388	0.026022
1164.886794	0.019833
1165.040182	0.037184
1165.193551	0.033307
1165.346903	0.049717
1165.500236	0.061591
1165.653551	0.077148
1165.806848	0.076109
1165.960126	0.093902
1166.113386	0.093486
1166.266628	0.085762
1166.419852	0.083977
1166.573058	0.090708
1166.726245	0.077606
1166.879414	0.059326
1167.032565	0.051467
1167.185698	0.043918
1167.338812	0.037579
1167.491909	0.030879
1167.644987	0.043575
1167.798046	0.032691
1167.951088	0.021068
1168.104111	0.023574
1168.257117	0.012743
1168.410103	0.014758
1168.563072	-0.005052
1168.716023	-0.025182
1168.868955	-0.024710
1169.021869	-0.018947
1169.174765	-0.012637
1169.327642	-0.006380
1169.480501	0.009222
1169.633343	0.022668
1169.786165	0.013207
1169.938970	0.033244
1170.091757	0.049305
1170.244525	0.055264
1170.397275	0.077077
1170.550007	0.079327
1170.702720	0.069062
1170.855415	0.056804
1171.008092	0.063846
1171.160751	0.077897
1171.313392	0.090771
1171.466014	0.062860
1171.618619	0.094142
1171.771205	0.094142
1171.923772	0.094142
