sample name	sample
index	912
start time	 04-12-2021  10:48:47 AM
880	0.464394
Peak Time (s)	122.535
Peak Height 	0.4644
calc peak height	120,123
Baseline Time (s)	11.036
Baseline Value 	-0.001812
subtract baseline	10,4
Abs	0.378504
Peak Time (s)	120.036
Peak Height 	0.3785
calc peak height	120,123
Baseline Time (s)	11.036
Baseline Value 	8.6878E-4
subtract baseline	10,3
PK_550	0.220651
Peak Time (s)	121.537
Peak Height 	0.2207
calc peak height	120,123
Baseline Time (s)	11.036
Baseline Value 	-1.3026E-4
subtract baseline	10,2
PK_880	0.380940
Peak Time (s)	121.037
Peak Height 	0.3809
calc peak height	120,123
Baseline Time (s)	9.536
Baseline Value 	1.7808E-4
subtract baseline	10,1


Time (s)	A880-A510	A880-A775	A880-A975	A880	I510	I775	I975	I880	
0.035500	-0.003235	-0.000432	-0.001893	0.006417	7078.791166	43081.990664	3839.182574	23076.124299
0.536000	-0.002706	-0.000969	-0.001235	0.003037	7117.914705	43346.566252	3849.593927	23234.932475
1.036500	-0.002502	-0.000859	-0.003057	0.002287	7127.515755	43426.917025	3846.819808	23270.329645
1.537500	0.000430	-0.000209	0.003101	-0.000368	7184.166992	43737.259074	3869.824272	23396.145693
2.039500	-0.004123	-0.000201	-0.001541	0.005778	7076.315950	43162.814456	3841.728457	23106.073807
2.537000	-0.000432	0.000612	0.000967	-0.000087	7172.506746	43788.162320	3863.472116	23382.755000
3.037500	0.002785	-0.000155	-0.000672	-0.001620	7221.126145	43860.511693	3863.194510	23455.735117
3.537500	0.000404	-0.000384	0.001173	-0.000056	7180.716998	43691.358451	3863.932757	23381.304362
4.035500	-0.000913	-0.000432	-0.001349	0.000108	7165.630374	43671.353449	3856.906577	23373.493172
4.535500	-0.001531	0.000243	-0.001934	0.000465	7155.744533	43701.362564	3854.455234	23356.575436
5.035500	0.000581	0.000037	-0.004251	0.001215	7169.573959	43611.437760	3846.504624	23321.041673
5.535500	-0.000251	-0.000284	-0.001730	-0.000142	7174.916791	43708.923354	3856.565779	23385.395749
6.036500	-0.000187	0.000189	0.006621	0.000505	7168.983775	43692.563312	3876.822427	23354.686466
6.537000	0.000427	0.000049	-0.002965	0.000435	7175.950219	43685.936549	3851.854371	23358.002404
7.037000	0.000908	-0.000107	0.005020	0.000262	7182.613294	43687.494037	3873.225903	23366.215257
7.537000	-0.000554	-0.000362	0.002350	-0.000302	7173.465616	43716.654525	3867.670675	23393.002327
8.035000	0.000949	0.001114	0.000624	0.000863	7176.896489	43745.927349	3860.086339	23337.695545
8.535500	-0.001467	-0.000369	-0.004290	-0.000279	7163.937344	43713.812983	3850.270274	23391.900866
9.035000	-0.000583	-0.000511	0.002689	-0.000301	7173.153206	43702.463896	3868.559267	23392.935459
9.535500	0.000000	0.000023	-0.001349	0.000393	7172.026940	43687.416711	3856.164802	23360.001471
10.036000	-0.000359	0.000675	-0.003589	0.000536	7166.918452	43735.310030	3849.972596	23353.191941
10.536500	0.000122	-0.000029	0.001022	-0.000024	7177.512613	43721.754671	3863.452354	23379.780058
11.036000	0.002847	0.000000	0.000000	0.000000	7205.124674	43722.261658	3860.712129	23378.641776
11.539000	0.001757	0.000449	0.003318	0.000481	7189.043804	43719.248160	3868.157377	23355.800682
12.037000	0.000416	0.000453	0.002401	0.000891	7171.189517	43681.029837	3864.669661	23336.391634
12.537500	0.000353	0.000085	0.001693	0.000180	7177.788855	43713.336520	3864.676942	23370.116293
13.034500	0.002130	0.000178	0.003340	-0.002038	7218.691939	43931.607443	3874.867924	23475.668977
13.535000	0.001623	0.000386	0.003464	-0.000928	7202.089365	43846.291693	3872.259694	23422.769004
14.035500	-0.000426	-0.000011	0.002325	0.000974	7161.788472	43629.576336	3864.251470	23332.455137
14.535000	0.001178	-0.000049	-0.001734	0.002374	7163.868765	43494.628302	3850.019331	23266.227641
15.036500	0.002444	-0.000354	0.002440	-0.000135	7202.369412	43701.611058	3867.466089	23385.041127
15.544000	0.001799	0.000939	-0.000996	-0.000280	7197.251536	43837.252132	3858.841027	23391.929439
16.040000	-0.000021	0.000399	-0.000495	0.001219	7163.419445	43645.152864	3856.239854	23320.851833
16.539500	-0.001415	0.000051	0.005898	0.003269	7128.571367	43420.197354	3867.608912	23223.982737
17.037500	0.000334	0.000825	0.000195	-0.000342	7182.922641	43832.368381	3862.119957	23394.909978
17.534500	-0.000262	0.000435	0.006670	-0.000523	7178.681962	43812.568788	3879.682271	23403.488734
18.035000	0.001888	0.000044	0.003291	-0.001474	7210.407920	43865.505417	3873.245217	23448.762066
18.535000	-0.000560	0.000733	-0.002114	0.002544	7144.517698	43552.028800	3848.593687	23258.178547
19.035500	-0.000363	0.000319	0.003369	0.001955	7152.473990	43568.377160	3864.414725	23285.985737
19.536000	0.000049	0.000165	0.005063	0.001249	7163.815799	43620.283228	3870.731731	23319.405166
20.036500	0.000225	-0.000256	-0.000182	0.001137	7166.741125	43591.168297	3857.266242	23324.699480
20.536000	0.000426	0.000538	-0.001991	0.002494	7155.006717	43538.373246	3849.039523	23260.530372
21.037000	-0.000819	0.000250	0.004212	0.001463	7152.834968	43608.060722	3867.924698	23309.264353
21.537500	0.000241	0.000159	-0.003442	0.001590	7162.304592	43587.636295	3847.627185	23303.271180
22.037000	0.002098	0.000904	-0.002437	0.001935	7177.684653	43625.220537	3849.333294	23286.945252
22.537500	0.000870	0.000940	0.001178	0.003028	7154.095921	43526.023151	3855.883202	23235.351590
23.035500	0.000149	0.000078	-0.000460	0.001553	7161.751959	43583.563213	3855.458624	23305.033334
23.570000	-0.001428	-0.000026	0.003817	0.001202	7149.309132	43606.674237	3867.572694	23321.619674
24.039000	0.002692	0.001276	0.006341	0.002549	7177.481584	43602.440680	3870.672446	23257.919731
24.536000	-0.002482	-0.000173	0.000291	0.002410	7126.473188	43479.636123	3855.182739	23264.492890
25.036000	0.000778	-0.000309	-0.000967	0.001418	7169.509382	43559.857128	3854.491297	23311.405884
25.543000	0.000586	0.001373	0.002201	0.002375	7157.844541	43628.000208	3860.259372	23266.175629
26.037000	-0.000859	0.000289	0.002714	0.001585	7151.198412	43600.374503	3863.669420	23303.524611
26.534500	0.000461	0.001088	0.004464	0.002447	7155.835593	43594.410092	3866.000629	23262.745446
27.038500	0.001789	0.000135	0.001970	0.002317	7170.647901	43517.163053	3859.803466	23268.892304
27.617500	-0.000044	-0.000397	0.003052	0.001668	7158.619068	43528.204942	3864.339518	23299.595027
28.041500	0.002040	-0.000020	0.004664	-0.000050	7197.368091	43725.101443	3873.110123	23381.020883
28.536000	0.001799	-0.000137	0.002084	-0.000437	7198.862202	43750.507710	3867.325969	23399.403663
29.036000	0.001391	0.000401	0.002244	-0.000281	7193.083291	43786.559074	3867.334232	23391.980939
29.536500	0.001535	0.000801	-0.000357	-0.000345	7195.217193	43830.403316	3860.682900	23395.052802
30.036000	0.001365	0.000396	0.002757	-0.000954	7199.715981	43849.680707	3870.461630	23424.003422
30.537000	0.001407	-0.000421	0.001388	-0.001782	7208.628623	43850.678767	3869.031854	23463.425227
31.037000	0.000500	0.000427	0.003889	-0.001392	7195.347483	43894.045887	3874.612248	23444.876185
31.537500	0.000373	0.000544	0.000463	0.001951	7159.980913	43589.917146	3856.825363	23286.186889
32.037500	-0.001439	-0.000649	-0.001923	0.001362	7147.590508	43533.282126	3852.154304	23314.079032
32.535000	0.002077	-0.000253	0.000578	-0.001890	7216.615252	43876.775677	3867.185402	23468.590764
33.038500	0.001311	-0.000440	0.005032	-0.001803	7207.858889	43850.840285	3878.730711	23464.427453
33.535500	0.001704	0.000262	0.005722	-0.000809	7201.700817	43823.237176	3877.924470	23417.090892
34.036000	0.001072	0.000230	0.001297	-0.000728	7194.394493	43812.654684	3866.020838	23413.244725
34.536000	-0.001452	-0.000079	0.000160	0.002698	7133.958074	43461.443732	3854.093916	23250.920360
35.039000	-0.000378	-0.000031	0.000276	0.002194	7149.899118	43513.100994	3855.706193	23274.694979
35.537000	0.000069	0.000989	0.006441	0.002142	7154.962496	43613.838400	3872.014088	23277.179066
36.037000	0.000938	-0.000000	0.003879	0.001424	7171.083239	43588.309853	3867.152936	23311.136604
36.534500	0.000867	0.000298	0.002363	0.002509	7159.331093	43514.480136	3860.328796	23259.821371
37.035000	-0.000678	0.000029	0.005508	0.001292	7156.000123	43603.408289	3871.791480	23317.355233
37.535000	-0.001529	0.000285	0.000964	0.001222	7148.090423	43634.076277	3860.037728	23320.675112
38.035500	0.000499	0.000187	0.003101	0.000818	7172.777109	43662.846930	3866.698235	23339.819868
38.536000	-0.000714	0.000816	0.000954	0.002591	7142.477277	43555.292605	3856.437227	23255.936696
39.036000	0.000506	0.000514	0.007162	0.000917	7171.840769	43684.351467	3877.165325	23335.144492
39.536500	-0.000431	0.000182	0.003794	0.000524	7166.312013	43690.074323	3869.298340	23353.788647
40.039000	-0.001288	0.000234	-0.002253	0.000586	7156.977274	43689.127038	3853.310742	23350.834067
40.537000	-0.000948	0.000961	-0.000272	0.001936	7146.737570	43630.490423	3854.949974	23286.884488
41.037500	0.000141	0.000512	0.003173	0.000898	7168.320220	43685.881471	3866.678026	23336.028807
41.540500	0.001115	-0.000851	0.001595	-0.000158	7189.014258	43657.068190	3865.307155	23386.153028
42.035000	0.001604	0.000809	0.002286	0.001126	7180.901044	43692.484430	3863.752064	23325.257234
42.535500	0.001546	0.000894	0.004669	0.002338	7167.964775	43586.440827	3866.824308	23267.896303
43.038000	0.001209	0.000578	-0.000328	0.001608	7171.958658	43625.327874	3855.658631	23302.411029
43.536000	-0.000004	0.001019	-0.000442	0.001692	7158.791256	43658.988230	3855.146005	23298.465559
44.036000	0.000475	0.000725	0.002928	0.001448	7166.124310	43654.181933	3864.589565	23309.969688
44.539000	0.000497	0.000552	0.009397	0.001855	7162.214718	43599.677818	3880.611884	23290.732311
45.037000	0.003252	0.001146	0.004548	-0.002297	7232.916533	44047.981032	3878.757616	23488.020533
45.541000	0.002501	0.001130	0.004396	-0.000345	7205.110050	43861.483330	3873.180975	23395.026422
46.034500	0.003038	0.000841	0.003465	-0.000704	7214.308717	43868.163359	3871.671258	23412.126446
46.535000	-0.000790	-0.000243	0.003356	0.002032	7147.366490	43508.406832	3864.180015	23282.340960
47.037500	0.000717	0.000937	0.002030	0.003254	7150.256243	43504.559575	3857.515308	23224.691075
47.535500	0.001981	0.001022	0.006294	-0.000394	7200.283585	43855.970791	3878.342438	23397.378576
48.035500	0.002354	0.000530	0.004967	-0.000611	7206.336466	43829.952452	3875.398056	23407.691059
48.536000	-0.000650	0.000820	0.004552	0.004000	7128.912285	43423.756840	3862.158344	23189.564214
49.039000	-0.000021	0.000637	-0.000157	0.001545	7160.103495	43636.815902	3856.268636	23305.409434
49.536500	0.000999	0.000776	0.000237	0.000031	7185.893966	43792.509587	3861.249319	23377.161206
50.037000	0.000316	0.000856	0.005877	-0.000998	7189.422273	43897.311982	3878.836128	23426.070562
50.537500	-0.001552	0.000554	0.001235	0.002562	7134.316928	43533.527947	3857.246928	23257.344831
51.034500	0.001782	0.000852	-0.002918	0.001196	7181.992180	43689.822478	3850.000999	23321.902312
51.535000	-0.004958	0.000885	0.003945	0.000572	7120.045939	43751.765471	3869.569801	23351.489796
52.035000	-0.087420	-0.020611	0.031534	0.462656	3998.687387	16250.818979	3145.701609	9861.235420
52.535500	-0.119881	-0.006004	-0.076557	0.024013	5928.332555	40989.610306	3625.890662	22269.194493
53.035500	-0.133799	-0.035191	-0.055630	-0.143591	7276.907744	55323.487365	4115.748604	31460.627970
53.536000	-0.112265	-0.091678	-0.029127	-0.275395	9192.894685	65269.480588	4727.539353	41639.639986
54.037000	-0.065122	-0.168024	-0.002595	-0.353584	11347.607308	65535.000000	5273.669641	49310.384475
54.536000	-0.041440	-0.141514	0.007650	-0.327074	11291.812567	65535.000000	5179.971065	46553.413357
55.037000	-0.027703	-0.066364	0.016406	-0.248007	10099.145105	64971.785029	4812.984477	39263.022193
55.537500	-0.018905	-0.031311	0.017411	-0.192384	9348.213069	62095.871113	4566.207704	34874.064847
56.035000	-0.008690	-0.011350	0.017029	-0.132302	8632.686982	56863.603013	4326.875953	30724.005614
56.535000	-0.017195	-0.002339	0.028258	0.021129	6802.366687	41569.827073	3879.514575	22399.226430
57.035500	0.033733	0.013523	0.028012	-0.038123	7972.020038	48889.532800	4047.564363	25270.991662
57.535500	0.044058	0.011492	0.034555	-0.082498	8672.680308	53609.410018	4212.115676	27693.461475
58.036000	0.054546	0.019744	0.046457	-0.039589	8246.790074	49712.518492	4109.625304	25347.127534
58.539000	0.069223	0.029032	0.057205	-0.005326	8004.489543	47090.947168	4036.632276	23633.118593
59.036500	0.080339	0.035349	0.070841	0.018631	7851.459413	45328.103742	4005.824913	22512.522644
59.537000	0.091781	0.043752	0.085205	0.063818	7470.248649	41874.659657	3918.054053	20559.994358
60.037500	0.104075	0.050219	0.101386	0.092908	7291.252895	39891.493580	3883.108087	19406.333244
60.537500	0.119910	0.058547	0.120553	0.125652	7117.924933	37863.854123	3847.453774	18196.919920
61.034500	0.132334	0.067514	0.137456	0.146304	7035.986796	36933.029468	3837.803976	17479.705825
61.535500	0.149966	0.078945	0.148245	0.175679	6921.705985	35551.596924	3791.173543	16516.584673
62.035500	0.170329	0.088653	0.167522	0.194290	6938.553872	34887.033006	3792.807681	15939.215719
62.536000	0.187660	0.098629	0.187619	0.216159	6895.037971	34020.342051	3788.460429	15291.675999
63.036000	0.205826	0.109111	0.200400	0.214108	7092.459026	34934.391233	3825.416034	15351.033353
63.536000	0.213957	0.114782	0.215794	0.247496	6847.236973	32947.759272	3780.744839	14418.829641
64.036500	0.220992	0.120388	0.230988	0.280610	6608.568507	31097.667112	3738.057668	13562.429234
64.537000	0.230367	0.129352	0.237189	0.296246	6553.364740	30666.215709	3716.279289	13180.174512
65.037500	0.234770	0.132282	0.256741	0.337100	6247.338818	28336.327963	3668.818860	12244.036288
65.537500	0.232197	0.136220	0.264922	0.371684	5960.725180	26596.613140	3613.131799	11517.566744
66.035000	0.234349	0.139451	0.277602	0.381163	5907.053668	26256.772038	3619.704618	11328.354722
66.535000	0.238953	0.144778	0.279113	0.410538	5732.129170	24993.366154	3564.086912	10767.524969
67.035500	0.244776	0.150468	0.297470	0.418427	5717.988373	24881.246556	3584.565342	10623.255691
67.536000	0.241446	0.152825	0.302121	0.428853	5625.512401	24474.832205	3573.206646	10436.567012
68.038500	0.251012	0.156346	0.310422	0.439489	5618.443485	24122.684753	3568.657822	10250.690390
68.536500	0.253019	0.159047	0.303099	0.400200	5904.381610	26286.936208	3633.116538	10960.583493
69.036500	0.255018	0.161092	0.315515	0.448821	5583.504199	23898.689656	3560.459127	10091.303611
69.537500	0.255763	0.164253	0.312219	0.466019	5478.251992	23227.780686	3521.940460	9806.408572
70.037500	0.262315	0.165746	0.318909	0.467219	5512.048263	23241.546105	3532.080128	9786.938224
70.534500	0.265133	0.168077	0.320243	0.468990	5518.711783	23267.921044	3531.267792	9758.312807
71.035500	0.275528	0.171717	0.323171	0.462604	5627.706087	23745.885250	3548.753023	9862.083121
71.535500	0.278600	0.174856	0.317617	0.464942	5632.573017	23784.539916	3533.913515	9823.913062
72.036000	0.287984	0.178058	0.325473	0.453843	5771.683354	24486.989671	3570.012167	10006.942429
72.536000	0.288088	0.179546	0.317459	0.452190	5783.925088	24644.336810	3557.721828	10034.599914
73.036500	0.297457	0.181957	0.328843	0.439791	5939.762607	25402.018748	3604.610707	10245.478080
73.536500	0.299461	0.183537	0.322401	0.439072	5959.812458	25522.013348	3593.093336	10257.898550
74.036500	0.306146	0.186024	0.334443	0.427731	6095.758332	26257.037177	3641.128154	10456.459271
74.534000	0.305669	0.187975	0.323389	0.427450	6094.242826	26377.860683	3618.675012	10461.433645
75.037500	0.312028	0.189735	0.332158	0.415728	6236.330763	27121.189192	3661.863017	10672.314699
75.535000	0.316433	0.190717	0.335093	0.408582	6330.241507	27580.631103	3683.871820	10803.692983
76.035500	0.321159	0.193523	0.338421	0.402567	6419.841363	28089.045803	3704.728470	10915.977530
76.535500	0.323366	0.193474	0.335808	0.400594	6455.314210	28201.300131	3703.284959	10953.140040
77.036000	0.327118	0.196223	0.342146	0.388981	6588.686793	29055.304423	3744.581050	11175.374877
77.539000	0.326453	0.197530	0.336338	0.388287	6588.932452	29176.501247	3732.642027	11188.833821
78.036500	0.335642	0.201003	0.340383	0.377096	6773.273064	30082.224819	3768.629185	11409.023414
78.537000	0.337422	0.201656	0.340430	0.369872	6857.518131	30581.531952	3786.252884	11554.211927
79.037000	0.344078	0.204017	0.339609	0.365529	6962.827849	31013.738249	3794.898397	11642.674211
79.537000	0.339881	0.203234	0.335974	0.365811	6919.610424	30944.582058	3785.287432	11636.886368
80.035000	0.348109	0.205002	0.341784	0.355178	7104.603376	31759.781848	3826.213652	11857.090671
80.535000	0.346113	0.205574	0.340480	0.356726	7069.230186	31694.797616	3819.004972	11824.698648
81.035500	0.353116	0.206980	0.341276	0.347670	7231.847038	32399.223184	3844.109999	12015.835499
81.535000	0.350770	0.206538	0.344246	0.350157	7182.277811	32200.280044	3845.355622	11962.949213
82.039500	0.357311	0.208824	0.348030	0.342680	7327.604076	32868.630756	3874.791512	12122.875820
82.542500	0.360861	0.209854	0.348242	0.340874	7384.384665	33065.572137	3880.148093	12161.916172
83.039500	0.360324	0.210314	0.350114	0.338755	7401.288482	33245.876820	3890.816172	12207.940916
83.537500	0.360059	0.210498	0.349557	0.343304	7350.034575	32941.362693	3877.185173	12109.414829
84.040000	0.365194	0.210149	0.348041	0.335748	7486.379422	33445.687630	3893.324322	12273.622390
84.587000	0.362538	0.211432	0.352548	0.342131	7388.863541	33088.011543	3888.289311	12134.735497
85.035000	0.365634	0.211619	0.354538	0.336578	7482.123773	33490.915189	3908.673909	12255.443520
85.568000	0.363170	0.212512	0.352026	0.343059	7385.694631	33098.535697	3884.409086	12114.691692
86.035500	0.364752	0.212370	0.356803	0.338076	7456.286957	33438.191165	3910.767774	12222.740554
86.536000	0.366062	0.212755	0.351873	0.338649	7464.266719	33424.928337	3895.835173	12210.247229
87.407000	0.367034	0.213081	0.356679	0.341696	7441.818877	33233.682732	3900.589341	12144.138582
87.866000	0.366979	0.213735	0.357271	0.342006	7437.866696	33257.754810	3901.348778	12137.422751
88.037000	0.367689	0.212724	0.359308	0.341805	7447.702486	33201.020748	3907.428734	12141.764799
88.537000	0.362850	0.213963	0.351807	0.349512	7313.998026	32751.633028	3866.730390	11976.634245
89.037500	0.365785	0.214066	0.357509	0.344420	7399.105617	33112.078239	3895.469880	12085.414037
89.535000	0.368881	0.215276	0.353933	0.346233	7412.848627	33069.951538	3881.031728	12046.527996
90.035000	0.366348	0.213712	0.354625	0.345608	7392.415268	33004.615082	3884.543423	12059.915711
90.535500	0.364637	0.214400	0.358054	0.353807	7287.727503	32486.747495	3871.874794	11885.861226
91.036000	0.368364	0.214971	0.355080	0.349022	7377.509528	32855.134394	3876.669156	11987.055107
91.539000	0.369031	0.215722	0.358588	0.350987	7363.697148	32771.232980	3880.769820	11945.357883
92.035500	0.368149	0.215751	0.356937	0.351747	7346.301717	32720.827711	3874.368518	11929.286312
92.536500	0.363689	0.214880	0.356011	0.358823	7225.874445	32178.357657	3853.379184	11780.989810
93.036500	0.367528	0.215811	0.362173	0.354162	7314.294774	32559.023954	3881.858935	11878.399336
93.537000	0.363671	0.214060	0.355164	0.360507	7208.373577	32009.468438	3846.821994	11746.050469
94.035000	0.367707	0.215313	0.359656	0.356309	7293.673267	32378.364520	3869.500533	11833.409276
94.535000	0.366347	0.216719	0.358711	0.364140	7198.564615	31944.011021	3846.599076	11671.135839
95.035000	0.367404	0.215612	0.364550	0.359116	7261.259642	32208.085263	3875.015635	11774.906695
95.535500	0.365160	0.215183	0.356377	0.365815	7169.363034	31729.367829	3836.292985	11636.819951
96.036000	0.370467	0.216347	0.361339	0.361944	7263.706201	32066.708442	3859.129977	11716.351415
96.536000	0.365259	0.215828	0.360281	0.368573	7142.397285	31588.958397	3839.229844	11580.577116
97.036500	0.368412	0.216682	0.361881	0.364617	7214.857201	31909.590663	3853.578433	11661.358883
97.536500	0.368143	0.216802	0.363387	0.372089	7136.005857	31420.942688	3838.175276	11509.391430
98.036500	0.370400	0.216654	0.360900	0.367655	7204.075683	31704.789497	3843.178579	11599.251080
98.537000	0.369942	0.217150	0.363627	0.375552	7119.243891	31216.405471	3829.943910	11439.850974
99.037500	0.371432	0.217151	0.361945	0.370667	7183.828742	31537.915257	3838.125615	11538.121681
99.535000	0.369097	0.216933	0.360811	0.377489	7091.359342	31075.841809	3817.913602	11401.198843
100.035500	0.371391	0.217212	0.362199	0.374039	7149.130915	31319.645104	3830.159082	11470.170143
100.535500	0.368743	0.218150	0.359453	0.381971	7043.309968	30864.128673	3803.312556	11312.417045
101.039000	0.371969	0.217641	0.362579	0.377041	7124.657032	31151.213908	3823.507148	11410.131015
101.536000	0.370179	0.218029	0.360226	0.385068	7026.923853	30656.946130	3797.555376	11251.586193
102.036000	0.374071	0.218869	0.369166	0.382121	7094.772873	30900.866101	3827.325610	11309.453438
102.540000	0.370488	0.218478	0.363011	0.389689	6984.693263	30390.610537	3793.031426	11161.643942
103.037000	0.375995	0.219332	0.367283	0.385945	7075.820680	30684.272766	3812.931180	11234.448898
103.534500	0.371525	0.218810	0.368528	0.392564	6966.819360	30229.608862	3799.549471	11106.169308
104.035000	0.374552	0.218607	0.372611	0.388358	7037.596226	30483.526133	3820.259237	11187.448400
104.535000	0.373963	0.219065	0.370211	0.390405	7011.668647	30382.418248	3809.100324	11147.793799
105.035500	0.373390	0.218012	0.364926	0.391009	7000.135529	30277.423811	3794.494630	11136.128171
105.536000	0.374407	0.220129	0.371468	0.399669	6926.039699	29866.626707	3789.290339	10970.630119
106.036000	0.377234	0.219934	0.369163	0.396377	6985.259335	30060.286924	3791.714417	11033.158090
106.536500	0.375117	0.219303	0.371080	0.397311	6955.623850	29962.250489	3794.131661	11015.368709
107.036500	0.375103	0.219093	0.370691	0.399155	6937.680577	29834.057284	3788.647061	10980.353473
107.536500	0.372726	0.218709	0.369063	0.405430	6855.119350	29422.742591	3769.461506	10862.340190
108.037500	0.377814	0.219164	0.371078	0.402865	6928.066533	29608.551043	3780.537172	10910.377030
108.540500	0.378277	0.219202	0.373197	0.404279	6918.929724	29523.761359	3782.253419	10883.869048
109.034500	0.377825	0.220026	0.371346	0.407009	6888.511608	29406.707436	3771.157475	10832.916404
109.535500	0.375521	0.219067	0.370302	0.412258	6817.191891	29029.158331	3756.101727	10735.847691
110.036000	0.378074	0.220042	0.373888	0.410652	6856.305894	29185.476556	3768.505367	10765.418724
110.538500	0.375326	0.218297	0.374811	0.410285	6833.865564	29101.867764	3771.611643	10772.196190
111.036500	0.379528	0.218298	0.371543	0.412706	6850.639684	28955.741409	3757.986962	10727.616730
111.536500	0.375433	0.217970	0.366985	0.418161	6761.504218	28609.794082	3734.437854	10628.082941
112.037000	0.378755	0.219956	0.375384	0.417310	6800.209465	28778.916634	3756.173629	10643.518061
112.537000	0.374440	0.218903	0.372742	0.424844	6691.258986	28270.406444	3732.288232	10507.833405
113.037500	0.378261	0.220196	0.369384	0.421329	6758.359666	28553.913260	3732.652028	10570.849972
113.534500	0.377323	0.219503	0.375619	0.422876	6735.504650	28421.427354	3743.591327	10543.051802
114.035500	0.378516	0.219788	0.373399	0.425338	6723.879187	28293.309587	3732.666298	10499.012712
114.535500	0.372268	0.218033	0.373435	0.432458	6603.483043	27777.648583	3716.357043	10373.054863
115.035500	0.377753	0.219492	0.378569	0.429788	6676.490108	28016.267796	3734.336946	10420.052176
115.536000	0.377734	0.219247	0.378078	0.433647	6641.602207	27779.139256	3724.275051	10352.229446
116.036500	0.376664	0.217965	0.373292	0.432843	6639.225315	27751.659981	3715.153267	10366.311300
116.537000	0.373981	0.217836	0.371512	0.441270	6541.048003	27264.920071	3692.146771	10220.011519
117.037000	0.378672	0.219042	0.372471	0.437953	6611.556730	27521.033873	3701.718368	10277.258565
117.537500	0.377170	0.219187	0.374088	0.442829	6555.285197	27253.229746	3694.414806	10193.251853
118.037500	0.378854	0.220490	0.380504	0.444523	6555.202487	27231.198722	3705.015407	10164.286042
118.537500	0.372490	0.217691	0.374455	0.449870	6454.018128	26777.284109	3679.627059	10073.604895
119.035500	0.377926	0.219003	0.378254	0.446986	6525.619572	27010.036507	3694.435618	10122.377653
119.536000	0.380286	0.219756	0.377560	0.449587	6523.532065	26907.270901	3687.107182	10078.384312
120.036000	0.378592	0.219625	0.378504	0.451119	6495.622613	26815.139459	3685.805511	10052.590868
120.536000	0.374479	0.218388	0.370576	0.457936	6402.583583	26373.928153	3653.720749	9938.903600
121.036500	0.380940	0.220497	0.375208	0.455425	6478.787523	26626.034280	3669.127813	9980.577063
121.536500	0.375105	0.220651	0.371476	0.459229	6396.978293	26426.617112	3652.882042	9917.541846
122.037000	0.377123	0.219930	0.378217	0.458582	6419.414474	26422.628021	3668.806087	9928.223984
122.534500	0.374887	0.218629	0.373882	0.464394	6352.078609	26038.913179	3647.005399	9832.848993
123.035000	0.377362	0.219863	0.372342	0.461914	6393.384273	26238.455574	3649.001594	9873.386007
123.535500	0.378653	0.220936	0.377291	0.465885	6370.983370	26082.593266	3651.085700	9808.573535
124.035500	0.374778	0.218777	0.380522	0.463824	6355.896746	26077.318436	3662.441003	9842.134642
124.538500	0.375643	0.219274	0.378591	0.472955	6287.958000	25619.187936	3638.859224	9694.651006
125.036000	0.377048	0.219830	0.380092	0.468445	6336.446220	25886.901297	3651.600202	9767.106669
125.536000	0.375906	0.220058	0.377539	0.473275	6287.491584	25643.541357	3635.976158	9689.532639
126.036500	0.377898	0.219328	0.376210	0.471594	6317.528119	25693.685883	3636.715094	9716.444844
126.536500	0.374504	0.220593	0.380368	0.480097	6221.181193	25315.336161	3627.637120	9581.441151
127.036500	0.378769	0.219826	0.378516	0.474849	6297.999873	25548.800790	3634.724975	9664.441063
127.534500	0.377330	0.219351	0.377443	0.477204	6267.163515	25401.043833	3627.571380	9627.072802
128.035000	0.375524	0.219002	0.373776	0.476766	6256.106891	25405.698444	3620.882626	9634.009849
128.535000	0.376290	0.219352	0.383199	0.478444	6248.747552	25336.665263	3637.006230	9607.465497
129.035500	0.375696	0.219887	0.379780	0.479975	6231.687406	25285.075916	3626.667382	9583.351002
129.536000	0.375556	0.220593	0.380790	0.484010	6198.391594	25113.396570	3620.408318	9520.185532
130.036000	0.377161	0.219557	0.383850	0.482586	6222.519569	25133.332577	3629.702582	9542.413012
130.536500	0.371514	0.218681	0.381329	0.488822	6128.844701	24770.584872	3611.638763	9445.620530
131.037000	0.378555	0.220405	0.381468	0.485915	6207.088717	25006.105937	3617.879804	9490.569079
131.537000	0.376623	0.219858	0.376867	0.488462	6171.635237	24848.475532	3603.299724	9451.167277
132.034500	0.376211	0.219602	0.389186	0.487737	6174.108278	24872.310359	3630.090271	9462.367168
132.534500	0.378945	0.220922	0.381183	0.489516	6181.634421	24849.000078	3609.924839	9434.931710
133.035500	0.373656	0.218955	0.382121	0.489077	6143.558736	24771.618840	3612.737724	9441.703219
