sample name	sample
index	124
start time	 02-15-2021  12:59:18 PM
880	-0.003995
Peak Time (s)	92.038
Peak Height 	-0.003995
calc peak height	90,93
Baseline Time (s)	9.537
Baseline Value 	-0.003701
subtract baseline	10,4
Abs	-0.004802
Peak Time (s)	90.036
Peak Height 	-0.004802
calc peak height	90,93
Baseline Time (s)	10.037
Baseline Value 	-7.0321E-4
subtract baseline	10,3
PK_550	0.001676
Peak Time (s)	90.537
Peak Height 	0.001676
calc peak height	90,93
Baseline Time (s)	8.536
Baseline Value 	-6.4062E-4
subtract baseline	10,2
PK_880	-0.003420
Peak Time (s)	90.036
Peak Height 	-0.00342
calc peak height	90,93
Baseline Time (s)	9.537
Baseline Value 	-4.3655E-5
subtract baseline	10,1


Time (s)	A880-A510	A880-A775	A880-A975	A880	I510	I775	I975	I880	
0.036500	-0.001865	0.001843	0.010131	0.002458	4294.826184	16121.807158	3272.720139	9067.850679
0.537000	-0.005949	-0.000277	-0.001691	0.005383	4274.457896	15970.847241	3262.825854	9027.117027
1.037000	-0.003284	-0.000434	0.000616	0.002917	4289.338585	16039.728443	3265.991569	9061.442813
1.535000	0.003513	0.001951	0.007518	0.001832	4312.534569	16143.903953	3271.367378	9076.603238
2.034500	-0.001108	0.000971	0.008268	0.000168	4303.779588	16164.518664	3273.011207	9099.915337
2.535500	0.000256	-0.000262	-0.002207	0.003251	4298.720608	16034.898635	3263.893641	9056.779955
3.038500	0.008035	0.001844	0.013147	-0.001228	4335.248820	16233.205425	3277.328627	9119.559037
3.535500	0.003523	0.000501	0.007043	0.000582	4316.281656	16137.858335	3271.893534	9094.105261
4.036500	-0.000072	0.000899	0.004537	0.001686	4302.360232	16116.612015	3269.447440	9078.635818
4.536000	-0.000335	0.000234	0.003228	0.000879	4303.963240	16120.896147	3269.109345	9089.943065
5.036500	-0.002891	0.001179	0.016639	0.001503	4294.616198	16130.565155	3277.856349	9081.201513
5.537500	0.001509	0.000927	0.002494	0.000203	4311.420359	16162.157576	3269.069822	9099.431218
6.034500	0.001135	0.000876	0.000661	0.000102	4310.611147	16163.665259	3267.905276	9100.852467
6.534000	0.003024	0.000745	-0.003242	0.000885	4313.895772	16136.085586	3264.776002	9089.857095
7.034500	0.003128	0.000534	0.005398	0.000415	4315.600363	16143.900273	3270.889386	9096.446677
7.535500	0.000789	0.000223	-0.013038	-0.000564	4311.560629	16164.073477	3259.286514	9110.216174
8.035500	-0.004830	0.000024	-0.002716	-0.000515	4294.849851	16156.578532	3266.058514	9109.524532
8.536000	0.002117	0.000000	-0.006986	-0.000556	4315.482721	16157.081947	3263.251034	9110.097989
9.035500	0.000018	-0.000150	-0.000132	-0.000435	4308.893462	16148.914066	3267.733672	9108.401923
9.536500	0.000000	-0.000014	0.016361	0.000000	4307.551232	16139.882416	3278.708362	9102.280392
10.037000	0.003911	-0.001152	0.000000	-0.002417	4326.410438	16178.503024	3269.155030	9136.333530
10.534500	-0.002328	0.001027	0.003006	0.000212	4300.059626	16164.901541	3269.409122	9099.306863
11.037000	-0.000044	0.002137	-0.001059	0.000292	4306.557332	16196.040882	3266.626206	9098.183833
11.535000	-0.002777	0.000723	0.012907	0.000182	4298.828022	16156.643132	3276.187285	9099.728926
12.035000	0.002707	0.000488	-0.004069	0.000083	4315.337510	16152.499608	3264.759546	9101.109023
12.541500	0.002247	-0.000054	-0.005908	-0.001091	4317.464593	16171.621413	3264.318666	9117.630267
13.036000	0.000690	0.000232	0.001683	-0.002517	4317.074316	16223.401155	3270.359099	9137.744040
13.536000	0.000256	0.000918	0.009087	0.000164	4307.823473	16163.049544	3273.574029	9099.972368
14.044500	0.000417	0.001005	-0.006332	-0.000774	4311.079835	16194.037419	3263.827455	9113.166484
14.536500	-0.000374	0.001559	0.006287	0.002503	4299.069580	16111.911316	3270.078480	9067.221331
15.037000	0.000981	0.000593	0.000963	-0.000127	4310.832497	16162.018012	3268.261102	9104.058730
15.552000	0.000376	-0.001312	0.004982	-0.000938	4311.444272	16129.037807	3271.526209	9115.471170
16.035000	0.000336	0.002192	-0.001499	0.000177	4308.021946	16201.166974	3266.408780	9099.794831
16.535000	-0.002413	0.000299	0.000197	0.001138	4297.090722	16115.075621	3266.900147	9086.318199
17.035500	-0.000565	0.000953	-0.006146	-0.000423	4307.129976	16181.829818	3263.717906	9108.219483
17.536000	0.004011	0.001228	-0.012582	-0.001858	4325.032288	16233.647371	3260.428303	9128.437456
18.036000	-0.001227	-0.000224	0.000993	-0.001378	4307.997588	16175.125436	3269.124149	9121.672622
18.536000	-0.000169	0.000129	-0.000904	-0.000085	4307.299990	16146.742456	3266.981292	9103.468158
19.036500	0.002643	0.001461	0.017009	0.001220	4311.768342	16147.584253	3278.310380	9085.163495
19.536500	-0.003529	0.000050	0.007874	-0.000590	4298.883656	16159.601844	3273.260118	9110.571308
20.036500	0.002979	0.000050	0.007728	-0.000500	4317.885059	16156.906256	3273.099031	9109.311771
20.537500	-0.001113	0.000961	-0.007411	-0.000063	4304.450456	16171.217370	3262.645316	9103.170511
21.034500	-0.000922	0.000930	0.021198	0.000247	4304.096395	16160.903331	3281.920572	9098.812188
21.534500	0.000223	0.001086	0.001331	0.000198	4307.624060	16167.115961	3268.290847	9099.500462
22.038500	-0.000992	0.001265	0.011256	0.000886	4302.004639	16151.726074	3274.565852	9089.838536
22.535500	-0.000792	0.001103	0.006213	0.000528	4303.654832	16157.654559	3271.366775	9094.873401
23.035500	-0.001045	0.001108	-0.001931	0.000489	4303.018847	16158.981662	3265.911852	9095.410280
23.536500	-0.002785	0.000403	0.000483	-0.000677	4301.332240	16172.909038	3268.308732	9111.805183
24.037000	-0.001606	0.001881	-0.008157	0.000459	4301.457638	16183.242011	3261.811120	9095.840943
24.534000	-0.006826	-0.000094	0.010376	-0.000786	4289.804951	16161.171930	3275.109806	9113.327745
25.037500	-0.000255	0.003957	0.007895	0.002449	4299.575621	16185.830481	3271.203968	9067.971362
25.534500	0.002939	0.000694	-0.001217	0.000589	4314.522616	16143.478102	3266.321781	9094.014870
26.035500	0.000141	0.001501	-0.007840	0.000424	4306.716328	16172.807615	3262.042077	9096.332311
26.538000	-0.000452	0.001981	0.002918	0.001164	4302.778079	16164.964383	3268.708591	9085.949019
27.035500	-0.003100	-0.000564	-0.005207	-0.001471	4302.738157	16167.654130	3265.035586	9122.975113
27.535500	0.002855	0.000756	0.003028	0.001320	4312.100713	16123.334342	3268.677262	9083.766580
28.036000	0.000692	-0.000804	-0.015838	-0.004598	4323.298299	16255.136491	3260.091034	9167.223237
28.536500	0.004631	0.001007	-0.012939	-0.000086	4321.581948	16173.305117	3259.039479	9103.493576
29.037000	-0.000834	0.001469	0.007544	0.000291	4304.227229	16175.882088	3272.433892	9098.198513
29.537000	0.000420	0.001023	0.000651	-0.000598	4310.565444	16189.251575	3268.368085	9110.683146
30.037500	-0.000055	-0.000298	0.008958	-0.001336	4311.346641	16171.616286	3274.513556	9121.074801
30.535000	-0.001934	0.001864	0.009364	-0.000791	4304.172633	16220.570031	3274.418140	9113.401502
31.035500	0.003527	-0.000515	-0.007863	-0.001777	4323.339011	16178.409273	3263.477928	9127.295415
31.535500	0.004194	0.001062	-0.006409	0.001028	4316.952475	16141.349852	3262.586342	9087.856975
32.036000	-0.002344	0.000163	0.014312	0.001501	4296.228643	16100.081208	3276.246862	9081.234331
32.553000	0.001004	0.000543	0.007618	-0.001297	4314.378937	16195.890808	3273.568537	9120.533530
33.036500	-0.002078	0.000487	0.007413	-0.001515	4305.885327	16200.772105	3273.577334	9123.597061
33.537000	-0.002226	0.000128	0.016571	-0.000475	4302.383898	16158.523766	3279.185528	9108.963556
34.037000	0.003305	0.002205	0.008967	-0.000073	4317.582037	16209.144370	3273.654106	9103.303918
34.537000	0.001533	0.001413	0.011063	-0.000380	4313.222631	16194.463289	3275.303874	9107.621120
35.037500	0.000556	-0.000366	0.003564	-0.001700	4314.243360	16180.587933	3271.080597	9126.216150
35.535000	-0.000123	0.002194	0.002921	0.001799	4301.875584	16152.217752	3268.282963	9077.051292
36.038500	0.001167	0.001198	-0.002499	0.001540	4306.449127	16130.019790	3264.834976	9080.684636
36.535500	0.004083	0.001005	0.002337	0.001058	4316.531861	16138.710349	3268.388449	9087.430009
37.036000	-0.000962	0.001621	0.000392	0.001639	4299.879483	16139.787530	3266.695182	9079.298253
37.536000	-0.000131	-0.000153	0.015573	0.000760	4304.916872	16112.838880	3277.632002	9091.610704
38.036000	-0.004512	-0.000383	-0.008719	-0.000483	4295.685842	16143.326654	3262.060186	9109.063273
38.536500	0.000715	0.002642	0.008993	0.001605	4304.922208	16171.594570	3272.525847	9079.776804
39.036500	0.000076	0.001998	-0.003133	0.001966	4301.972326	16141.280180	3264.131364	9074.723770
39.534500	0.002432	0.001696	0.001620	0.001495	4310.327493	16146.382414	3267.613985	9081.319369
40.037500	0.000113	0.000399	0.014143	0.000912	4305.189459	16124.854640	3276.536432	9089.475703
40.535500	-0.001488	0.001004	-0.004242	0.001396	4299.048828	16128.527506	3263.774935	9082.704071
41.035500	-0.002282	-0.000096	-0.010476	-0.000533	4302.390173	16153.513965	3260.940034	9109.780248
41.536000	-0.000889	0.002813	0.004538	0.002081	4298.792843	16162.375143	3269.181849	9073.107448
42.035500	-0.000291	0.000937	-0.003632	0.000648	4304.778034	16149.049529	3264.675318	9093.189876
42.536500	0.002722	0.001593	-0.005544	0.000936	4312.845545	16160.103264	3263.217897	9089.137745
43.036500	-0.001561	0.001097	0.009674	0.000461	4301.582246	16159.475116	3273.772452	9095.803794
43.533000	-0.001673	0.001204	0.012139	0.000550	4300.989642	16160.043589	3275.403800	9094.555087
44.037500	-0.003603	-0.000055	-0.010704	-0.000164	4297.416570	16143.596792	3260.548817	9104.579517
44.537500	-0.001247	0.001058	0.009385	0.001305	4300.024497	16132.881987	3272.997608	9083.976814
45.035000	-0.001613	0.002337	-0.005333	-0.002142	4309.116097	16275.995613	3265.398779	9132.448946
45.538000	0.003588	0.001867	0.021570	-0.000330	4319.194334	16206.680173	3282.588656	9106.916182
46.035500	0.005292	0.000775	0.015998	-0.001268	4327.105269	16202.033857	3279.339247	9120.125184
46.536000	0.006422	0.003737	0.014483	0.000568	4324.986833	16236.162984	3277.009914	9094.305749
47.036000	-0.001768	0.000490	0.001533	-0.001854	4307.806229	16211.148437	3269.809807	9128.385267
47.536500	0.001465	0.002299	0.002574	-0.000566	4313.573332	16226.911312	3269.642490	9110.230464
48.036500	0.001209	0.000516	-0.004327	-0.001586	4315.847109	16203.816896	3265.697954	9124.603708
48.551000	-0.001873	-0.001253	0.007500	-0.003576	4312.597663	16210.499726	3275.050901	9152.722750
49.037000	0.001662	0.000850	0.008341	0.001286	4308.662527	16127.159717	3272.298419	9084.233851
49.537500	0.003726	0.001194	-0.009638	0.000841	4316.115248	16150.950415	3260.588408	9090.473025
50.058000	0.001850	0.001509	0.001948	-0.001171	4316.518916	16221.319689	3269.628512	9118.749959
50.535000	0.000493	0.000851	0.003287	-0.001622	4313.824179	16215.041012	3270.839948	9125.106807
51.038500	-0.002601	0.001155	0.009088	-0.001171	4303.328934	16210.593550	3274.490266	9118.757750
51.536500	-0.000434	0.001816	-0.004917	-0.002381	4313.323078	16267.406952	3265.834993	9135.824054
52.036000	0.005350	0.001774	0.006238	-0.001969	4329.388236	16253.607220	3273.084761	9130.007783
52.536500	-0.001892	0.001362	0.009644	-0.001726	4307.060557	16233.696389	3275.253231	9126.579885
53.036000	-0.028059	-0.017470	0.012627	0.236329	3721.690611	10348.455306	3150.321957	6541.618970
53.537000	-0.034616	-0.013842	-0.011435	0.053503	4071.603492	14260.429906	3227.092805	8395.061941
54.037000	-0.020701	-0.014384	-0.020362	0.038057	4144.965853	14651.721542	3230.884516	8590.364960
54.535000	-0.015140	-0.010487	-0.007313	-0.069580	4479.136460	18047.887608	3312.415540	10162.488877
55.037500	-0.032439	-0.014494	-0.023436	-0.045243	4345.994516	17100.513212	3282.523140	9772.198175
55.535500	-0.022774	-0.005037	-0.016850	-0.060863	4425.321811	17935.513784	3298.584310	10020.173695
56.035500	-0.019232	-0.006166	-0.012273	-0.097674	4561.893937	19209.921823	3330.802204	10641.094648
56.536000	-0.012856	-0.006326	-0.007394	-0.095466	4576.736829	19122.028662	3332.988714	10602.342136
57.036500	-0.019321	-0.005331	-0.012181	-0.067127	4457.058935	18141.515252	3306.799307	10122.159598
57.536000	-0.011886	-0.007791	0.000348	-0.055194	4442.281114	17649.647308	3307.252580	9929.146227
58.039500	-0.013401	-0.008070	-0.015888	-0.044851	4404.043468	17296.967291	3287.609017	9766.086061
58.537500	-0.013988	-0.007924	-0.005687	-0.039325	4384.740871	17121.612003	3290.978182	9680.558444
59.034500	-0.012109	-0.006796	-0.011946	-0.039867	4392.352144	17175.799928	3286.863248	9688.890810
59.537500	-0.011343	-0.004449	-0.006416	-0.031162	4367.542925	16970.581645	3284.601910	9556.175712
60.035500	-0.015604	-0.004387	-0.026148	-0.019020	4317.699086	16588.803249	3262.790325	9375.443057
60.535500	-0.013451	-0.002498	0.007110	-0.013786	4308.542415	16484.910145	3281.881583	9299.064011
61.036000	-0.011757	-0.002526	-0.011250	-0.015005	4317.195811	16521.834104	3270.058271	9316.776779
61.536500	-0.008524	-0.001929	-0.011477	-0.011853	4317.435541	16442.811386	3267.782129	9271.096338
62.039500	-0.016225	-0.003607	-0.010698	-0.003192	4269.567496	16127.813335	3262.540880	9147.288414
62.536000	-0.011324	-0.003789	-0.006092	-0.007468	4296.193365	16251.652280	3268.453965	9208.103983
63.036500	-0.013200	-0.002501	-0.021771	-0.003548	4279.311486	16171.905357	3255.565568	9152.327037
63.535000	-0.013163	-0.003566	-0.000758	-0.009485	4296.715119	16319.885705	3273.439916	9237.000636
64.038000	-0.015011	-0.003000	-0.016070	-0.012662	4300.620115	16434.743830	3265.254441	9282.792227
64.534500	-0.015923	-0.002319	-0.000778	-0.017920	4313.475503	16618.995745	3279.252765	9359.316923
65.038000	-0.011445	-0.001472	-0.028913	-0.015741	4320.322032	16577.450794	3258.831588	9327.486053
65.536000	-0.007976	-0.000815	-0.001243	-0.019436	4341.904286	16713.631575	3279.986141	9381.538384
66.035500	-0.011987	-0.000819	-0.008084	-0.016740	4321.688621	16628.969608	3273.391304	9342.053591
66.544500	-0.010979	-0.000848	-0.007024	-0.021044	4337.676603	16763.270323	3277.082866	9405.212683
67.036500	-0.006733	0.000008	-0.014929	-0.020640	4349.360565	16777.569370	3271.384127	9399.261288
67.537000	-0.014427	-0.003375	-0.009585	-0.022393	4331.334336	16726.122717	3276.244762	9425.133667
68.037000	-0.007803	-0.001041	-0.014422	-0.020480	4345.608290	16739.407829	3271.619749	9396.902726
68.535000	-0.004822	-0.002850	-0.024705	-0.021665	4358.359969	16719.740878	3265.498997	9414.376383
69.038000	-0.010372	-0.001291	-0.005603	-0.020629	4338.258239	16736.221734	3277.780540	9399.099546
69.534500	-0.006024	-0.002846	-0.013058	-0.021710	4354.805673	16721.288771	3273.388894	9415.045226
70.035500	-0.013635	-0.002693	0.004295	-0.016122	4314.929149	16551.303383	3281.544382	9333.035778
70.535500	-0.007641	0.000528	-0.002287	-0.018027	4338.646639	16711.573839	3278.276056	9360.875130
71.036000	-0.009551	0.000202	-0.005231	-0.018018	4332.847174	16701.059262	3276.230561	9360.748399
71.536500	-0.007105	0.001810	-0.010242	-0.016740	4336.374245	16711.430980	3271.919303	9342.064177
72.036500	-0.011271	-0.000964	-0.019842	-0.012569	4311.395111	16494.737339	3262.694754	9281.441214
72.534000	-0.011204	0.000271	-0.017741	-0.017403	4326.019766	16683.882802	3267.303310	9351.740423
73.036500	-0.007951	0.000413	-0.017795	-0.017571	4336.328592	16693.644573	3267.379722	9354.204781
73.535000	-0.009027	0.001154	-0.003157	-0.015939	4328.162363	16665.678527	3276.226429	9330.368618
74.035500	-0.015875	-0.000371	-0.006837	-0.011708	4295.281730	16486.448937	3270.813577	9269.001520
74.535500	-0.010545	-0.000655	-0.010355	-0.016838	4326.302975	16637.180922	3271.908941	9343.486961
75.036000	-0.007556	-0.000557	-0.008186	-0.017217	4336.453101	16652.114123	3273.648099	9349.031393
75.536000	-0.012546	-0.001249	-0.017261	-0.016999	4320.790177	16623.627706	3267.353954	9345.833280
76.036500	-0.011683	-0.001582	-0.013027	-0.017928	4326.159443	16642.279036	3270.834612	9359.430418
76.537000	-0.007521	0.000506	-0.005831	-0.015783	4332.227888	16640.484260	3274.278691	9328.095185
77.036500	-0.007686	0.000896	-0.008785	-0.015263	4330.165579	16636.434561	3271.905928	9320.532646
77.534500	-0.013657	-0.000966	-0.004752	-0.014944	4311.361958	16568.383950	3274.443530	9315.879953
78.037500	-0.012225	-0.002450	-0.009691	-0.010460	4302.342741	16383.949056	3268.046067	9251.025337
78.538000	-0.005769	-0.000510	-0.004359	-0.015057	4335.327280	16586.121028	3274.791472	9317.535410
79.035500	-0.008586	0.000166	-0.007184	-0.014094	4323.949107	16577.155131	3272.199853	9303.537510
79.535500	-0.004755	0.002084	-0.019015	-0.012043	4329.294064	16573.024425	3262.893401	9273.844802
80.036000	-0.011909	-0.001332	-0.011696	-0.009359	4300.026868	16384.438060	3265.967074	9235.189784
80.536500	-0.007516	0.000339	0.006922	-0.013376	4325.003878	16560.190269	3281.461136	9293.120741
81.035500	-0.009281	0.001441	-0.002764	-0.012856	4318.171480	16578.302057	3274.375312	9285.597033
81.537000	-0.011080	0.000813	-0.010306	-0.012705	4312.366036	16554.085123	3269.142929	9283.409721
82.037000	-0.010078	0.000625	0.001767	-0.006912	4298.219161	16369.444874	3273.407606	9200.170607
82.537500	-0.006647	0.001208	-0.008472	-0.012461	4324.865485	16558.769580	3270.216500	9279.877263
83.035500	-0.010840	-0.000345	-0.013071	-0.013502	4315.449618	16542.858553	3267.819396	9294.953613
83.535000	-0.012196	0.001439	-0.006308	-0.010976	4303.944860	16519.832417	3270.676383	9258.445388
84.035500	-0.017754	0.000254	-0.011688	-0.006452	4274.545843	16343.962672	3264.040974	9193.607285
84.536000	-0.008977	0.000651	0.002863	-0.012988	4319.474924	16557.846301	3278.353655	9287.514735
85.036500	-0.010465	0.001042	-0.004486	-0.011385	4310.277096	16520.216392	3272.192486	9264.352890
85.536500	-0.009556	0.001239	-0.002334	-0.010869	4311.438837	16510.300134	3273.308506	9256.902220
86.036500	-0.009946	0.000521	-0.014051	-0.011086	4310.929683	16494.814976	3265.549485	9260.042035
86.537000	-0.007919	0.001626	-0.018773	-0.010777	4316.034268	16519.465343	3262.218259	9255.584568
87.037500	-0.010186	-0.000784	-0.007618	-0.011736	4312.143402	16474.534600	3270.303653	9269.406619
87.538000	-0.005655	0.000501	-0.005252	-0.010860	4323.044833	16487.200975	3271.314188	9256.783974
88.037500	-0.008901	0.000135	-0.021948	-0.004738	4295.293143	16287.970778	3256.217574	9169.204798
88.535000	-0.010417	0.000570	-0.012106	-0.010379	4307.438581	16474.451213	3266.374593	9249.850631
89.035500	-0.005846	0.000123	0.001223	-0.010051	4320.052460	16450.530875	3275.187045	9245.136394
89.535500	-0.009533	0.000113	-0.014209	-0.009698	4308.040227	16439.333474	3264.521066	9240.061493
90.036000	-0.003420	-0.002271	-0.004802	-0.011458	4331.554105	16420.122661	3272.026665	9265.401865
90.536500	-0.009301	0.001676	-0.014560	-0.009007	4306.681199	16466.235834	3263.830760	9230.147610
91.036500	-0.008602	0.000699	-0.006763	-0.008607	4307.566401	16423.759382	3268.768994	9224.404523
91.537000	-0.010687	-0.000726	-0.006809	-0.009798	4304.921171	16416.543857	3269.540377	9241.492999
92.037500	-0.007309	-0.002196	-0.013041	-0.003995	4297.784515	16194.631912	3261.527798	9158.665599
92.537000	-0.009577	0.000754	-0.010872	-0.008777	4305.185358	16430.693086	3266.128608	9226.839400
93.035000	-0.013361	-0.000405	-0.008160	-0.009039	4294.827814	16403.093895	3268.120000	9230.597314
93.538000	-0.009120	-0.002880	-0.019374	-0.010717	4312.282141	16378.609698	3261.783096	9254.713946
94.036000	-0.014867	-0.000570	-0.016602	-0.003314	4273.824232	16223.278034	3258.756381	9149.020156
94.536000	-0.011651	-0.000279	-0.015897	-0.008370	4297.881059	16386.419477	3262.526902	9221.012964
95.036000	-0.006517	-0.000644	-0.006094	-0.008144	4312.373793	16368.269896	3268.907840	9217.774814
95.536000	-0.010637	0.000120	-0.022858	-0.006221	4294.552412	16332.803559	3256.587067	9190.306659
96.033500	-0.012933	-0.000310	-0.003108	-0.001967	4275.512815	16190.324306	3266.765655	9129.971688
96.559000	-0.011129	-0.001308	-0.000350	-0.008126	4298.697583	16347.390523	3272.790165	9217.513684
97.034500	-0.011590	-0.000943	-0.003147	-0.008661	4298.917006	16374.966001	3271.250169	9225.185296
97.537500	-0.010661	0.001138	-0.005623	-0.005840	4293.368832	16352.314319	3267.676040	9184.888836
98.035500	-0.003087	0.000528	0.001198	-0.006722	4318.349696	16360.622203	3272.888594	9197.454146
98.563000	-0.006327	0.000401	-0.008657	-0.006709	4308.681846	16356.349187	3266.227037	9197.270354
99.036000	-0.005298	0.000716	-0.010261	-0.005940	4309.452321	16342.446768	3264.647450	9186.308130
