sample name	sample
index	1119
start time	 04-22-2021  01:43:26 PM


Wavelength (nm)	Absorbance
494.344910	NaN
494.563924	NaN
494.782919	NaN
495.001897	NaN
495.220856	NaN
495.439797	NaN
495.658719	NaN
495.877624	-0.091109
496.096510	-0.250286
496.315378	-0.297284
496.534227	-0.552471
496.753059	-0.451186
496.971872	-0.448148
497.190667	-0.019361
497.409444	-0.002609
497.628203	0.006213
497.846943	0.010129
498.065665	0.011817
498.284369	0.011702
498.503055	0.011062
498.721723	0.010491
498.940372	0.011579
499.159003	0.011899
499.377616	0.012493
499.596210	0.011439
499.814787	0.011013
500.033345	0.010436
500.251885	0.010202
500.470406	0.010101
500.688910	0.010677
500.907395	0.009975
501.125862	0.009486
501.344311	0.008901
501.562742	0.008343
501.781154	0.008648
501.999548	0.007979
502.217924	0.008204
502.436282	0.008447
502.654621	0.008539
502.872942	0.008872
503.091245	0.010264
503.309530	0.010788
503.527797	0.011557
503.746045	0.010668
503.964275	0.011140
504.182487	0.011283
504.400681	0.011953
504.618856	0.011841
504.837013	0.011982
505.055152	0.010325
505.273273	0.009890
505.491376	0.010880
505.709460	0.010794
505.927526	0.010993
506.145574	0.010883
506.363604	0.009164
506.581615	0.009061
506.799608	0.008776
507.017583	0.009669
507.235540	0.008664
507.453478	0.006951
507.671399	0.007505
507.889301	0.006579
508.107185	0.005970
508.325050	0.006173
508.542898	0.006608
508.760727	0.006949
508.978538	0.006483
509.196330	0.007453
509.414105	0.007236
509.631861	0.007082
509.849599	0.007353
510.067319	0.007792
510.285021	0.008641
510.502704	0.007942
510.720369	0.007508
510.938016	0.007776
511.155645	0.007455
511.373255	0.008297
511.590848	0.008014
511.808422	0.008486
512.025977	0.008132
512.243515	0.007697
512.461034	0.007633
512.678536	0.007535
512.896018	0.006940
513.113483	0.006874
513.330930	0.007308
513.548358	0.006670
513.765768	0.006272
513.983160	0.006459
514.200533	0.006093
514.417889	0.006168
514.635226	0.005942
514.852545	0.006090
515.069845	0.006215
515.287128	0.005184
515.504392	0.006250
515.721638	0.006618
515.938866	0.006734
516.156075	0.007258
516.373267	0.007986
516.590440	0.007934
516.807594	0.008144
517.024731	0.008118
517.241850	0.008036
517.458950	0.007251
517.676032	0.006754
517.893095	0.006570
518.110141	0.006630
518.327168	0.006105
518.544177	0.006439
518.761168	0.006705
518.978141	0.006677
519.195095	0.006492
519.412031	0.006468
519.628949	0.006985
519.845849	0.006295
520.062731	0.005997
520.279594	0.006127
520.496439	0.006147
520.713266	0.005922
520.930074	0.005630
521.146865	0.006171
521.363637	0.006647
521.580391	0.005659
521.797127	0.006480
522.013844	0.006371
522.230543	0.005994
522.447224	0.005575
522.663887	0.005922
522.880532	0.006052
523.097158	0.006035
523.313766	0.006042
523.530356	0.006005
523.746928	0.005647
523.963481	0.005480
524.180017	0.005751
524.396534	0.006141
524.613032	0.005545
524.829513	0.005495
525.045975	0.004813
525.262420	0.004143
525.478845	0.004556
525.695253	0.004465
525.911643	0.004750
526.128014	0.003813
526.344367	0.003199
526.560702	0.002857
526.777018	0.003266
526.993316	0.003768
527.209597	0.003720
527.425858	0.003632
527.642102	0.004058
527.858328	0.004161
528.074535	0.004648
528.290724	0.004379
528.506894	0.004593
528.723047	0.004653
528.939181	0.004516
529.155297	0.005134
529.371395	0.005629
529.587475	0.004618
529.803536	0.004253
530.019579	0.003886
530.235604	0.004178
530.451611	0.003941
530.667600	0.003347
530.883570	0.003284
531.099522	0.003007
531.315456	0.002407
531.531372	0.002643
531.747269	0.002421
531.963148	0.002959
532.179009	0.002979
532.394852	0.003242
532.610676	0.003446
532.826482	0.003872
533.042271	0.003900
533.258040	0.003807
533.473792	0.004168
533.689525	0.004281
533.905240	0.004044
534.120937	0.004458
534.336616	0.005040
534.552277	0.005306
534.767919	0.004522
534.983543	0.004685
535.199149	0.004417
535.414736	0.003953
535.630306	0.004189
535.845857	0.004371
536.061390	0.004351
536.276904	0.003565
536.492401	0.003240
536.707879	0.003253
536.923339	0.003249
537.138781	0.003770
537.354204	0.003925
537.569610	0.003999
537.784997	0.004174
538.000366	0.003675
538.215716	0.003920
538.431049	0.003771
538.646363	0.004311
538.861659	0.003854
539.076937	0.003551
539.292196	0.003553
539.507438	0.003192
539.722661	0.003266
539.937866	0.003608
540.153052	0.003577
540.368221	0.003252
540.583371	0.002437
540.798503	0.002590
541.013617	0.002015
541.228712	0.001945
541.443789	0.001942
541.658848	0.001730
541.873889	0.001855
542.088912	0.001906
542.303916	0.001719
542.518902	0.002284
542.733870	0.002141
542.948820	0.002769
543.163752	0.002549
543.378665	0.002787
543.593560	0.002670
543.808437	0.002387
544.023295	0.002287
544.238136	0.002962
544.452958	0.002752
544.667762	0.003080
544.882548	0.003264
545.097315	0.003517
545.312064	0.003131
545.526795	0.002759
545.741508	0.002657
545.956203	0.002630
546.170879	0.002391
546.385537	0.002495
546.600177	0.002068
546.814799	0.001809
547.029402	0.001759
547.243988	0.001936
547.458555	0.002069
547.673103	0.001583
547.887634	0.001613
548.102146	0.001417
548.316640	0.001474
548.531116	0.001490
548.745574	0.001465
548.960013	0.001541
549.174435	0.001337
549.388838	0.000877
549.603222	0.000846
549.817589	0.000556
550.031937	0.000371
550.246267	0.000088
550.460579	0.000214
550.674873	0.000137
550.889148	-0.000177
551.103405	-0.000147
551.317644	0.000296
551.531865	0.000633
551.746068	0.000656
551.960252	0.000724
552.174418	0.000777
552.388566	0.000668
552.602696	0.000392
552.816807	0.000748
553.030900	0.000811
553.244975	0.000794
553.459032	0.000912
553.673070	0.000944
553.887091	0.001097
554.101093	0.001239
554.315077	0.001319
554.529042	0.001605
554.742990	0.001652
554.956919	0.001472
555.170830	0.001574
555.384722	0.001422
555.598597	0.001312
555.812453	0.000805
556.026291	0.000833
556.240111	0.000846
556.453913	0.000686
556.667696	0.000589
556.881461	0.000215
557.095208	-0.000100
557.308937	0.000032
557.522647	0.000209
557.736339	0.000589
557.950013	0.000647
558.163669	0.000391
558.377307	0.000258
558.590926	-0.000073
558.804527	0.000209
559.018110	0.000334
559.231675	-0.000023
559.445221	-0.000202
559.658749	-0.000391
559.872259	-0.000707
560.085751	-0.000561
560.299225	-0.000446
560.512680	-0.000603
560.726117	-0.000269
560.939536	-0.000208
561.152937	-0.000386
561.366319	-0.000557
561.579683	-0.000658
561.793029	-0.000615
562.006357	-0.000823
562.219667	-0.000847
562.432958	-0.000763
562.646231	-0.001251
562.859486	-0.001129
563.072723	-0.000855
563.285941	-0.000780
563.499141	-0.000511
563.712323	-0.000603
563.925487	-0.000551
564.138632	-0.000513
564.351760	-0.000381
564.564869	-0.000140
564.777960	-0.000362
564.991032	-0.000283
565.204087	-0.000331
565.417123	-0.000662
565.630141	-0.000632
565.843140	-0.000646
566.056122	-0.000709
566.269085	-0.001090
566.482030	-0.000751
566.694957	-0.001029
566.907866	-0.000966
567.120756	-0.001135
567.333628	-0.000940
567.546482	-0.000975
567.759318	-0.000869
567.972135	-0.000754
568.184935	-0.000544
568.397716	-0.001143
568.610478	-0.001156
568.823223	-0.001222
569.035949	-0.001352
569.248657	-0.001348
569.461347	-0.001426
569.674019	-0.001748
569.886672	-0.001732
570.099308	-0.001711
570.311925	-0.001616
570.524523	-0.001407
570.737104	-0.001727
570.949666	-0.001700
571.162210	-0.001664
571.374736	-0.001631
571.587244	-0.001614
571.799733	-0.001950
572.012205	-0.002129
572.224658	-0.002056
572.437092	-0.002140
572.649509	-0.002144
572.861907	-0.001867
573.074287	-0.001925
573.286649	-0.002149
573.498993	-0.001835
573.711318	-0.001501
573.923625	-0.001591
574.135914	-0.001865
574.348185	-0.001790
574.560438	-0.001957
574.772672	-0.002123
574.984888	-0.002135
575.197086	-0.002000
575.409266	-0.002424
575.621427	-0.002522
575.833570	-0.002387
576.045695	-0.002212
576.257802	-0.002413
576.469890	-0.002244
576.681961	-0.002130
576.894013	-0.002137
577.106046	-0.002084
577.318062	-0.002111
577.530059	-0.002253
577.742039	-0.002366
577.954000	-0.002179
578.165942	-0.002252
578.377867	-0.002041
578.589773	-0.001785
578.801661	-0.001996
579.013531	-0.002191
579.225382	-0.001755
579.437216	-0.001758
579.649031	-0.001536
579.860828	-0.001655
580.072606	-0.001508
580.284367	-0.001538
580.496109	-0.001885
580.707833	-0.001716
580.919539	-0.001382
581.131227	-0.001750
581.342896	-0.001811
581.554547	-0.001902
581.766180	-0.001986
581.977795	-0.002023
582.189391	-0.002280
582.400969	-0.002022
582.612529	-0.001903
582.824071	-0.002196
583.035595	-0.001852
583.247100	-0.001647
583.458587	-0.001674
583.670056	-0.001809
583.881506	-0.002033
584.092939	-0.001723
584.304353	-0.002093
584.515749	-0.002135
584.727127	-0.002121
584.938486	-0.002377
585.149828	-0.002446
585.361151	-0.002525
585.572456	-0.002551
585.783742	-0.002526
585.995011	-0.002491
586.206261	-0.002211
586.417493	-0.002647
586.628706	-0.002862
586.839902	-0.003003
587.051079	-0.003056
587.262238	-0.002894
587.473379	-0.002521
587.684502	-0.002462
587.895606	-0.002743
588.106692	-0.002859
588.317760	-0.002667
588.528810	-0.002515
588.739841	-0.002396
588.950855	-0.002756
589.161850	-0.003027
589.372827	-0.003429
589.583785	-0.003391
589.794726	-0.003255
590.005648	-0.003341
590.216552	-0.003390
590.427437	-0.003364
590.638305	-0.003457
590.849154	-0.003029
591.059985	-0.002779
591.270798	-0.002624
591.481592	-0.002689
591.692369	-0.002893
591.903127	-0.002664
592.113867	-0.002402
592.324588	-0.002331
592.535292	-0.002050
592.745977	-0.002227
592.956644	-0.002068
593.167293	-0.001860
593.377923	-0.001390
593.588536	-0.001112
593.799130	-0.001249
594.009706	-0.001619
594.220263	-0.001844
594.430803	-0.002138
594.641324	-0.002080
594.851827	-0.002044
595.062312	-0.001992
595.272778	-0.002241
595.483227	-0.002526
595.693657	-0.002227
595.904069	-0.001789
596.114462	-0.001501
596.324838	-0.001330
596.535195	-0.001250
596.745534	-0.001591
596.955855	-0.001810
597.166157	-0.001795
597.376441	-0.001686
597.586707	-0.002006
597.796955	-0.002252
598.007185	-0.002679
598.217396	-0.002789
598.427589	-0.002978
598.637764	-0.002837
598.847921	-0.002895
599.058060	-0.003084
599.268180	-0.003009
599.478282	-0.002926
599.688366	-0.003017
599.898431	-0.002889
600.108479	-0.002642
600.318508	-0.002373
600.528519	-0.002172
600.738511	-0.002151
600.948486	-0.002041
601.158442	-0.002039
601.368380	-0.002064
601.578300	-0.002145
601.788202	-0.001698
601.998085	-0.001921
602.207950	-0.001818
602.417797	-0.002133
602.627626	-0.002186
602.837436	-0.002274
603.047228	-0.002103
603.257002	-0.002076
603.466758	-0.001761
603.676496	-0.001891
603.886215	-0.001646
604.095916	-0.001938
604.305599	-0.001777
604.515264	-0.001677
604.724910	-0.001544
604.934538	-0.001678
605.144148	-0.001753
605.353740	-0.001639
605.563314	-0.001711
605.772869	-0.001938
605.982406	-0.001966
606.191925	-0.002148
606.401425	-0.002095
606.610908	-0.002188
606.820372	-0.002191
607.029818	-0.002301
607.239246	-0.002653
607.448655	-0.002764
607.658047	-0.002689
607.867420	-0.002951
608.076775	-0.002830
608.286111	-0.003132
608.495430	-0.003219
608.704730	-0.003353
608.914012	-0.003368
609.123275	-0.003305
609.332521	-0.003339
609.541748	-0.003441
609.750957	-0.003039
609.960148	-0.002919
610.169321	-0.002857
610.378475	-0.002744
610.587611	-0.002659
610.796729	-0.002653
611.005829	-0.002585
611.214910	-0.002745
611.423974	-0.002696
611.633019	-0.002576
611.842045	-0.002833
612.051054	-0.002695
612.260044	-0.002556
612.469017	-0.002731
612.677970	-0.002815
612.886906	-0.002887
613.095824	-0.002635
613.304723	-0.002714
613.513604	-0.003036
613.722467	-0.003235
613.931311	-0.003429
614.140138	-0.003705
614.348946	-0.003437
614.557736	-0.003462
614.766507	-0.003472
614.975261	-0.003688
615.183996	-0.003883
615.392713	-0.003906
615.601412	-0.003706
615.810092	-0.003666
616.018754	-0.003335
616.227399	-0.003552
616.436024	-0.003548
616.644632	-0.003564
616.853222	-0.003682
617.061793	-0.003728
617.270346	-0.003680
617.478880	-0.003773
617.687397	-0.003882
617.895895	-0.004343
618.104375	-0.004315
618.312837	-0.004392
618.521281	-0.004576
618.729706	-0.004348
618.938113	-0.004238
619.146502	-0.004302
619.354873	-0.004203
619.563226	-0.004150
619.771560	-0.003948
619.979876	-0.004029
620.188174	-0.003915
620.396453	-0.003791
620.604715	-0.003690
620.812958	-0.003675
621.021183	-0.003620
621.229390	-0.003651
621.437578	-0.003422
621.645748	-0.003607
621.853900	-0.003736
622.062034	-0.003906
622.270150	-0.003866
622.478247	-0.004149
622.686326	-0.004283
622.894387	-0.004236
623.102430	-0.004200
623.310454	-0.004317
623.518461	-0.004145
623.726449	-0.004005
623.934418	-0.003689
624.142370	-0.003799
624.350303	-0.003740
624.558218	-0.003486
624.766115	-0.003542
624.973994	-0.003550
625.181855	-0.003634
625.389697	-0.003529
625.597521	-0.003487
625.805327	-0.003566
626.013114	-0.003701
626.220883	-0.003934
626.428634	-0.004070
626.636367	-0.004124
626.844082	-0.003904
627.051778	-0.003908
627.259457	-0.004114
627.467117	-0.004086
627.674758	-0.004127
627.882382	-0.003895
628.089987	-0.003661
628.297574	-0.003403
628.505143	-0.003426
628.712694	-0.003555
628.920226	-0.003641
629.127740	-0.003611
629.335236	-0.003695
629.542714	-0.003937
629.750174	-0.004003
629.957615	-0.004022
630.165038	-0.004210
630.372443	-0.004073
630.579829	-0.004179
630.787198	-0.004042
630.994548	-0.003968
631.201880	-0.004007
631.409194	-0.003955
631.616489	-0.003870
631.823766	-0.003825
632.031025	-0.003945
632.238266	-0.004085
632.445489	-0.004149
632.652693	-0.004206
632.859879	-0.004150
633.067047	-0.004041
633.274197	-0.003856
633.481329	-0.003844
633.688442	-0.003755
633.895537	-0.003721
634.102614	-0.003682
634.309672	-0.003525
634.516713	-0.003472
634.723735	-0.003624
634.930739	-0.003751
635.137724	-0.003797
635.344692	-0.003730
635.551641	-0.003803
635.758572	-0.003710
635.965485	-0.003552
636.172379	-0.003781
636.379256	-0.003825
636.586114	-0.003837
636.792954	-0.003850
636.999775	-0.003813
637.206579	-0.003878
637.413364	-0.003822
637.620131	-0.003649
637.826880	-0.003672
638.033610	-0.003272
638.240323	-0.003213
638.447017	-0.002871
638.653692	-0.002802
638.860350	-0.002772
639.066990	-0.002811
639.273611	-0.002677
639.480214	-0.002958
639.686798	-0.002979
639.893365	-0.003085
640.099913	-0.003068
640.306443	-0.003415
640.512955	-0.003364
640.719449	-0.003502
640.925924	-0.003547
641.132381	-0.003569
641.338820	-0.003693
641.545241	-0.003705
641.751644	-0.003951
641.958028	-0.003922
642.164394	-0.003808
642.370742	-0.003673
642.577071	-0.003622
642.783383	-0.003460
642.989676	-0.003511
643.195951	-0.003205
643.402207	-0.003251
643.608446	-0.003050
643.814666	-0.003032
644.020868	-0.002872
644.227052	-0.003140
644.433218	-0.003202
644.639365	-0.003431
644.845494	-0.003417
645.051605	-0.003204
645.257698	-0.003302
645.463772	-0.003474
645.669828	-0.003565
645.875866	-0.003732
646.081886	-0.003787
646.287888	-0.003633
646.493871	-0.003494
646.699836	-0.003507
646.905783	-0.003866
647.111712	-0.003701
647.317622	-0.003738
647.523514	-0.003739
647.729388	-0.003643
647.935244	-0.003517
648.141082	-0.003460
648.346901	-0.003484
648.552702	-0.003534
648.758485	-0.003429
648.964250	-0.003494
649.169996	-0.003455
649.375724	-0.003334
649.581434	-0.003341
649.787126	-0.003274
649.992800	-0.003350
650.198455	-0.003430
650.404092	-0.003541
650.609711	-0.003559
650.815311	-0.003704
651.020894	-0.003536
651.226458	-0.003799
651.432004	-0.003954
651.637532	-0.004056
651.843041	-0.004078
652.048532	-0.004108
652.254006	-0.004008
652.459460	-0.003961
652.664897	-0.003709
652.870315	-0.003828
653.075716	-0.003855
653.281097	-0.004010
653.486461	-0.004005
653.691807	-0.004030
653.897134	-0.003935
654.102443	-0.003966
654.307734	-0.004132
654.513006	-0.004361
654.718261	-0.004320
654.923497	-0.004094
655.128715	-0.003803
655.333915	-0.003695
655.539096	-0.003479
655.744259	-0.003386
655.949404	-0.003391
656.154531	-0.003254
656.359640	-0.003137
656.564730	-0.002863
656.769802	-0.002900
656.974856	-0.002849
657.179892	-0.002716
657.384909	-0.002882
657.589908	-0.003106
657.794889	-0.003034
657.999852	-0.002929
658.204797	-0.002922
658.409723	-0.003073
658.614631	-0.003164
658.819521	-0.003280
659.024393	-0.003422
659.229246	-0.003438
659.434081	-0.003328
659.638898	-0.003448
659.843697	-0.003704
660.048478	-0.003756
660.253240	-0.003789
660.457984	-0.003797
660.662710	-0.003700
660.867417	-0.003742
661.072107	-0.003975
661.276778	-0.003963
661.481431	-0.003939
661.686066	-0.003876
661.890682	-0.003935
662.095281	-0.004065
662.299861	-0.003962
662.504422	-0.003958
662.708966	-0.003869
662.913491	-0.003589
663.117999	-0.003461
663.322488	-0.003350
663.526958	-0.003369
663.731411	-0.003314
663.935845	-0.003324
664.140261	-0.003367
664.344659	-0.003533
664.549038	-0.003639
664.753400	-0.003756
664.957743	-0.003796
665.162068	-0.003996
665.366375	-0.004087
665.570663	-0.004255
665.774933	-0.004347
665.979185	-0.004284
666.183419	-0.004185
666.387635	-0.004038
666.591832	-0.003838
666.796011	-0.003902
667.000172	-0.003886
667.204315	-0.003533
667.408439	-0.003283
667.612545	-0.003142
667.816634	-0.003231
668.020703	-0.003202
668.224755	-0.003354
668.428788	-0.003417
668.632803	-0.003373
668.836800	-0.003169
669.040779	-0.003426
669.244739	-0.003512
669.448681	-0.003471
669.652605	-0.003307
669.856511	-0.003309
670.060399	-0.003326
670.264268	-0.003410
670.468119	-0.003411
670.671952	-0.003339
670.875767	-0.003245
671.079563	-0.003201
671.283341	-0.003289
671.487101	-0.003349
671.690843	-0.003294
671.894567	-0.003395
672.098272	-0.003406
672.301959	-0.003424
672.505628	-0.003531
672.709278	-0.003550
672.912911	-0.003557
673.116525	-0.003504
673.320121	-0.003654
673.523699	-0.003657
673.727258	-0.003541
673.930799	-0.003488
674.134322	-0.003311
674.337827	-0.003254
674.541314	-0.003179
674.744782	-0.003150
674.948232	-0.003121
675.151664	-0.002988
675.355078	-0.002973
675.558474	-0.002870
675.761851	-0.002836
675.965210	-0.002977
676.168551	-0.003052
676.371873	-0.003047
676.575178	-0.002946
676.778464	-0.003007
676.981732	-0.003055
677.184981	-0.003211
677.388213	-0.003293
677.591426	-0.003503
677.794621	-0.003512
677.997798	-0.003564
678.200956	-0.003503
678.404097	-0.003709
678.607219	-0.003859
678.810323	-0.003829
679.013408	-0.003745
679.216476	-0.003783
679.419525	-0.003581
679.622556	-0.003635
679.825569	-0.003533
680.028563	-0.003593
680.231540	-0.003548
680.434498	-0.003181
680.637438	-0.003165
680.840359	-0.003167
681.043263	-0.003082
681.246148	-0.003124
681.449015	-0.003018
681.651864	-0.003052
681.854694	-0.003088
682.057506	-0.003075
682.260301	-0.003221
682.463076	-0.003154
682.665834	-0.003093
682.868573	-0.003033
683.071295	-0.003144
683.273998	-0.003202
683.476682	-0.003171
683.679349	-0.003248
683.881997	-0.003184
684.084627	-0.003286
684.287239	-0.003318
684.489833	-0.003473
684.692408	-0.003843
684.894965	-0.003661
685.097504	-0.003814
685.300025	-0.003994
685.502527	-0.003849
685.705012	-0.004019
685.907478	-0.004071
686.109925	-0.004082
686.312355	-0.004148
686.514766	-0.003825
686.717159	-0.003922
686.919534	-0.003812
687.121891	-0.003660
687.324230	-0.003776
687.526550	-0.003677
687.728852	-0.003485
687.931136	-0.003495
688.133401	-0.003403
688.335649	-0.003403
688.537878	-0.003363
688.740089	-0.003296
688.942281	-0.003416
689.144456	-0.003431
689.346612	-0.003593
689.548750	-0.003730
689.750870	-0.003816
689.952971	-0.003776
690.155055	-0.003905
690.357120	-0.003931
690.559167	-0.004142
690.761195	-0.004178
690.963206	-0.004331
691.165198	-0.004297
691.367172	-0.004417
691.569128	-0.004352
691.771065	-0.004478
691.972984	-0.004512
692.174885	-0.004621
692.376768	-0.004625
692.578633	-0.004603
692.780479	-0.004480
692.982308	-0.004463
693.184118	-0.004197
693.385909	-0.004158
693.587683	-0.004113
693.789438	-0.004048
693.991175	-0.004050
694.192894	-0.003919
694.394595	-0.003973
694.596277	-0.003989
694.797941	-0.003980
694.999587	-0.004200
695.201215	-0.004389
695.402824	-0.004388
695.604416	-0.004298
695.805989	-0.004273
696.007543	-0.004378
696.209080	-0.004202
696.410598	-0.004307
696.612099	-0.004412
696.813580	-0.004372
697.015044	-0.004333
697.216490	-0.004542
697.417917	-0.004737
697.619326	-0.004635
697.820717	-0.004543
698.022089	-0.004604
698.223444	-0.004500
698.424780	-0.004360
698.626098	-0.004443
698.827397	-0.004478
699.028679	-0.004216
699.229942	-0.004194
699.431187	-0.004335
699.632414	-0.004343
699.833622	-0.004347
700.034813	-0.004436
700.235985	-0.004459
700.437139	-0.004351
700.638274	-0.004443
700.839392	-0.004542
701.040491	-0.004558
701.241572	-0.004503
701.442635	-0.004507
701.643679	-0.004639
701.844706	-0.004567
702.045714	-0.004491
702.246704	-0.004536
702.447675	-0.004502
702.648629	-0.004534
702.849564	-0.004526
703.050481	-0.004442
703.251380	-0.004541
703.452260	-0.004565
703.653122	-0.004647
703.853966	-0.004769
704.054792	-0.004682
704.255600	-0.004556
704.456389	-0.004532
704.657160	-0.004632
704.857913	-0.004665
705.058648	-0.004428
705.259365	-0.004247
705.460063	-0.004204
705.660743	-0.004106
705.861405	-0.004259
706.062048	-0.004339
706.262674	-0.004452
706.463281	-0.004451
706.663870	-0.004492
706.864441	-0.004910
707.064993	-0.005109
707.265527	-0.005184
707.466043	-0.005300
707.666541	-0.005174
707.867021	-0.005237
708.067482	-0.005161
708.267925	-0.005191
708.468350	-0.005428
708.668757	-0.005279
708.869145	-0.005416
709.069516	-0.005431
709.269868	-0.005427
709.470201	-0.005546
709.670517	-0.005538
709.870814	-0.005527
710.071093	-0.005562
710.271354	-0.005493
710.471597	-0.005587
710.671821	-0.005434
710.872028	-0.005463
711.072216	-0.005671
711.272385	-0.005701
711.472537	-0.005714
711.672670	-0.005731
711.872785	-0.005632
712.072882	-0.005571
712.272961	-0.005630
712.473021	-0.005560
712.673063	-0.005637
712.873087	-0.005317
713.073093	-0.005169
713.273081	-0.005066
713.473050	-0.004990
713.673001	-0.004788
713.872934	-0.004767
714.072849	-0.004616
714.272745	-0.004852
714.472623	-0.004643
714.672483	-0.004703
714.872325	-0.004767
715.072148	-0.004840
715.271954	-0.004882
715.471741	-0.005006
715.671509	-0.004949
715.871260	-0.004854
716.070992	-0.004685
716.270707	-0.004593
716.470403	-0.004626
716.670080	-0.004632
716.869740	-0.004551
717.069381	-0.004421
717.269004	-0.004490
717.468609	-0.004635
717.668195	-0.004631
717.867764	-0.004763
718.067314	-0.004798
718.266846	-0.004635
718.466360	-0.004691
718.665855	-0.004665
718.865332	-0.004867
719.064791	-0.004766
719.264232	-0.004613
719.463655	-0.004476
719.663059	-0.004268
719.862445	-0.004454
720.061813	-0.004387
720.261163	-0.004407
720.460494	-0.004427
720.659807	-0.004471
720.859102	-0.004405
721.058379	-0.004618
721.257638	-0.004937
721.456878	-0.005048
721.656100	-0.005155
721.855304	-0.005374
722.054490	-0.005395
722.253657	-0.005576
722.452806	-0.005727
722.651937	-0.005944
722.851050	-0.006001
723.050145	-0.006018
723.249221	-0.005956
723.448279	-0.006000
723.647319	-0.006244
723.846340	-0.006228
724.045344	-0.006241
724.244329	-0.006133
724.443296	-0.006000
724.642245	-0.006170
724.841175	-0.006253
725.040088	-0.006324
725.238982	-0.006188
725.437857	-0.006193
725.636715	-0.006330
725.835554	-0.006352
726.034376	-0.006384
726.233179	-0.006677
726.431963	-0.006429
726.630730	-0.006530
726.829478	-0.006752
727.028208	-0.006789
727.226920	-0.006754
727.425614	-0.006669
727.624289	-0.006685
727.822946	-0.006844
728.021585	-0.006930
728.220206	-0.006965
728.418808	-0.006847
728.617392	-0.006772
728.815958	-0.007031
729.014506	-0.007144
729.213036	-0.007504
729.411547	-0.007444
729.610040	-0.007592
729.808515	-0.007640
730.006972	-0.007714
730.205410	-0.007988
730.403831	-0.008084
730.602233	-0.008032
730.800616	-0.007923
730.998982	-0.007572
731.197329	-0.007736
731.395658	-0.007505
731.593969	-0.007430
731.792262	-0.007520
731.990536	-0.007275
732.188793	-0.007228
732.387031	-0.007120
732.585250	-0.007294
732.783452	-0.007646
732.981635	-0.007536
733.179800	-0.007398
733.377947	-0.007294
733.576076	-0.007215
733.774186	-0.007232
733.972278	-0.007221
734.170352	-0.007163
734.368408	-0.007091
734.566446	-0.006841
734.764465	-0.006913
734.962466	-0.007123
735.160449	-0.007229
735.358413	-0.007171
735.556360	-0.007192
735.754288	-0.007272
735.952198	-0.007400
736.150090	-0.007187
736.347963	-0.007327
736.545818	-0.007255
736.743655	-0.007268
736.941474	-0.007265
737.139275	-0.007274
737.337057	-0.007238
737.534821	-0.007041
737.732567	-0.006869
737.930295	-0.006856
738.128005	-0.006769
738.325696	-0.006666
738.523369	-0.006579
738.721024	-0.006597
738.918660	-0.006680
739.116279	-0.006484
739.313879	-0.006585
739.511461	-0.006609
739.709024	-0.006784
739.906570	-0.006888
740.104097	-0.006977
740.301606	-0.007035
740.499097	-0.006977
740.696569	-0.006839
740.894024	-0.007005
741.091460	-0.006871
741.288878	-0.006866
741.486277	-0.006713
741.683659	-0.006505
741.881022	-0.006642
742.078367	-0.006617
742.275694	-0.006546
742.473002	-0.006648
742.670293	-0.006652
742.867565	-0.006766
743.064819	-0.007027
743.262054	-0.007281
743.459272	-0.007646
743.656471	-0.007780
743.853652	-0.007750
744.050815	-0.007866
744.247959	-0.008001
744.445085	-0.008130
744.642194	-0.008073
744.839283	-0.007868
745.036355	-0.007694
745.233408	-0.007372
745.430444	-0.007095
745.627461	-0.007128
745.824459	-0.006913
746.021440	-0.006643
746.218402	-0.006543
746.415346	-0.006567
746.612272	-0.006641
746.809180	-0.006654
747.006069	-0.006656
747.202940	-0.006741
747.399793	-0.006746
747.596628	-0.006835
747.793444	-0.006943
747.990243	-0.006973
748.187023	-0.007117
748.383784	-0.007002
748.580528	-0.007015
748.777253	-0.006983
748.973960	-0.006800
749.170649	-0.006737
749.367320	-0.006583
749.563973	-0.006556
749.760607	-0.006533
749.957223	-0.006334
750.153821	-0.006382
750.350400	-0.006260
750.546962	-0.006099
750.743505	-0.006101
750.940030	-0.006200
751.136536	-0.006331
751.333025	-0.006274
751.529495	-0.006151
751.725947	-0.006045
751.922381	-0.006028
752.118796	-0.006194
752.315194	-0.006290
752.511573	-0.006533
752.707934	-0.006337
752.904276	-0.006128
753.100601	-0.006230
753.296907	-0.006231
753.493195	-0.006373
753.689465	-0.006418
753.885716	-0.006360
754.081949	-0.006520
754.278164	-0.006469
754.474361	-0.006567
754.670540	-0.006790
754.866700	-0.006803
755.062843	-0.006972
755.258967	-0.007026
755.455072	-0.006964
755.651160	-0.006925
755.847229	-0.006944
756.043280	-0.006825
756.239313	-0.006929
756.435328	-0.006874
756.631324	-0.006928
756.827302	-0.006776
757.023262	-0.006710
757.219204	-0.006491
757.415127	-0.006497
757.611033	-0.006396
757.806920	-0.006418
758.002788	-0.006242
758.198639	-0.006213
758.394471	-0.006040
758.590286	-0.006093
758.786081	-0.006097
758.981859	-0.006375
759.177619	-0.006346
759.373360	-0.006347
759.569083	-0.006344
759.764788	-0.006192
759.960474	-0.006263
760.156143	-0.006228
760.351793	-0.006110
760.547425	-0.006171
760.743038	-0.006111
760.938634	-0.006185
761.134211	-0.006075
761.329770	-0.006037
761.525311	-0.006282
761.720833	-0.006141
761.916338	-0.006035
762.111824	-0.006072
762.307292	-0.006022
762.502741	-0.005967
762.698173	-0.005945
762.893586	-0.006089
763.088981	-0.006247
763.284358	-0.006074
763.479716	-0.005992
763.675057	-0.005998
763.870379	-0.005988
764.065683	-0.005667
764.260968	-0.005523
764.456236	-0.005369
764.651485	-0.005212
764.846716	-0.004819
765.041929	-0.004718
765.237123	-0.004916
765.432299	-0.004924
765.627457	-0.004789
765.822597	-0.005048
766.017719	-0.005079
766.212822	-0.005162
766.407907	-0.005226
766.602974	-0.005381
766.798023	-0.005478
766.993054	-0.005361
767.188066	-0.005372
767.383060	-0.005514
767.578036	-0.005425
767.772993	-0.005346
767.967933	-0.005223
768.162854	-0.005211
768.357757	-0.005160
768.552642	-0.005121
768.747508	-0.005179
768.942356	-0.005046
769.137186	-0.004947
769.331998	-0.004948
769.526792	-0.005154
769.721567	-0.005273
769.916324	-0.005062
770.111063	-0.005135
770.305784	-0.005228
770.500486	-0.005277
770.695171	-0.005508
770.889837	-0.005503
771.084484	-0.005477
771.279114	-0.005387
771.473725	-0.005267
771.668318	-0.005339
771.862893	-0.005296
772.057450	-0.005331
772.251988	-0.005390
772.446509	-0.005062
772.641011	-0.005030
772.835494	-0.005008
773.029960	-0.005043
773.224407	-0.004994
773.418836	-0.004942
773.613247	-0.004809
773.807640	-0.004785
774.002014	-0.004739
774.196370	-0.004925
774.390708	-0.005002
774.585028	-0.005006
774.779330	-0.004869
774.973613	-0.004855
775.167878	-0.004932
775.362125	-0.005032
775.556354	-0.005051
775.750564	-0.004830
775.944756	-0.004791
776.138930	-0.004814
776.333086	-0.004637
776.527223	-0.004643
776.721343	-0.004634
776.915444	-0.004652
777.109526	-0.004736
777.303591	-0.004499
777.497637	-0.004658
777.691666	-0.004702
777.885676	-0.004614
778.079667	-0.004783
778.273641	-0.004614
778.467596	-0.004603
778.661533	-0.004450
778.855452	-0.004224
779.049352	-0.004267
779.243235	-0.004145
779.437099	-0.004202
779.630945	-0.004073
779.824773	-0.003929
780.018582	-0.004052
780.212373	-0.003846
780.406146	-0.003838
780.599901	-0.003856
780.793638	-0.003835
780.987356	-0.003561
781.181056	-0.003472
781.374738	-0.003388
781.568402	-0.003217
781.762047	-0.003075
781.955674	-0.003132
782.149283	-0.002946
782.342874	-0.003159
782.536447	-0.003222
782.730001	-0.003402
782.923537	-0.003205
783.117055	-0.003365
783.310555	-0.003507
783.504036	-0.003630
783.697499	-0.003780
783.890944	-0.004005
784.084371	-0.003896
784.277780	-0.003792
784.471170	-0.003796
784.664542	-0.004010
784.857896	-0.004018
785.051231	-0.004026
785.244549	-0.004167
785.437848	-0.004173
785.631129	-0.004181
785.824392	-0.004203
786.017636	-0.004416
786.210863	-0.004271
786.404071	-0.004287
786.597260	-0.004255
786.790432	-0.004355
786.983585	-0.004403
787.176721	-0.004472
787.369838	-0.004326
787.562936	-0.004399
787.756017	-0.004141
787.949079	-0.004438
788.142123	-0.004398
788.335149	-0.004408
788.528156	-0.004546
788.721146	-0.004450
788.914117	-0.004576
789.107070	-0.004807
789.300005	-0.004813
789.492921	-0.004866
789.685819	-0.004811
789.878699	-0.005016
790.071561	-0.005094
790.264405	-0.004924
790.457230	-0.004870
790.650037	-0.004846
790.842826	-0.004794
791.035597	-0.004737
791.228349	-0.004858
791.421084	-0.004790
791.613800	-0.004533
791.806497	-0.004362
791.999177	-0.004309
792.191838	-0.004530
792.384481	-0.004319
792.577106	-0.004315
792.769713	-0.004298
792.962301	-0.004169
793.154871	-0.004287
793.347423	-0.004337
793.539957	-0.004648
793.732473	-0.004662
793.924970	-0.004436
794.117449	-0.004523
794.309910	-0.004458
794.502353	-0.004523
794.694777	-0.004639
794.887183	-0.004547
795.079571	-0.004713
795.271941	-0.004749
795.464293	-0.004982
795.656626	-0.004985
795.848941	-0.005016
796.041238	-0.005044
796.233516	-0.004981
796.425777	-0.005035
796.618019	-0.005101
796.810243	-0.004948
797.002449	-0.004850
797.194636	-0.004700
797.386805	-0.004853
797.578956	-0.004932
797.771089	-0.005063
797.963204	-0.004996
798.155300	-0.004879
798.347378	-0.004989
798.539438	-0.004970
798.731480	-0.004822
798.923503	-0.005047
799.115509	-0.004966
799.307496	-0.004796
799.499465	-0.004800
799.691415	-0.004771
799.883348	-0.004909
800.075262	-0.004915
800.267158	-0.004941
800.459035	-0.005089
800.650895	-0.004970
800.842736	-0.004963
801.034559	-0.005032
801.226364	-0.005023
801.418150	-0.005116
801.609919	-0.004916
801.801669	-0.004679
801.993401	-0.004782
802.185114	-0.004798
802.376810	-0.004666
802.568487	-0.004729
802.760146	-0.004748
802.951787	-0.004777
803.143409	-0.004848
803.335014	-0.005004
803.526600	-0.005100
803.718168	-0.005043
803.909717	-0.004944
804.101249	-0.005004
804.292762	-0.004888
804.484257	-0.004686
804.675734	-0.004677
804.867192	-0.004629
805.058632	-0.004678
805.250054	-0.004964
805.441458	-0.004954
805.632844	-0.004794
805.824211	-0.004913
806.015561	-0.005015
806.206891	-0.005239
806.398204	-0.005174
806.589499	-0.005060
806.780775	-0.004975
806.972033	-0.004652
807.163273	-0.004635
807.354495	-0.004864
807.545698	-0.004740
807.736883	-0.004721
807.928050	-0.004861
808.119199	-0.004904
808.310329	-0.004981
808.501441	-0.005167
808.692535	-0.005263
808.883611	-0.005388
809.074669	-0.005376
809.265708	-0.005351
809.456729	-0.005545
809.647732	-0.005271
809.838717	-0.005250
810.029683	-0.005410
810.220632	-0.005433
810.411562	-0.005139
810.602474	-0.005172
810.793367	-0.005184
810.984242	-0.005392
811.175100	-0.005286
811.365938	-0.005369
811.556759	-0.005375
811.747562	-0.005340
811.938346	-0.005099
812.129112	-0.005316
812.319860	-0.005210
812.510589	-0.005213
812.701300	-0.004972
812.891994	-0.004948
813.082668	-0.005023
813.273325	-0.004923
813.463964	-0.004892
813.654584	-0.004939
813.845186	-0.005061
814.035769	-0.005066
814.226335	-0.004894
814.416882	-0.004955
814.607411	-0.004800
814.797922	-0.004736
814.988415	-0.004876
815.178889	-0.004765
815.369345	-0.004870
815.559783	-0.004785
815.750203	-0.004706
815.940605	-0.004721
816.130988	-0.004632
816.321353	-0.004695
816.511700	-0.004607
816.702028	-0.004570
816.892339	-0.004332
817.082631	-0.004193
817.272905	-0.004202
817.463161	-0.004153
817.653398	-0.004171
817.843617	-0.004204
818.033819	-0.004204
818.224001	-0.004328
818.414166	-0.004228
818.604312	-0.004428
818.794440	-0.004332
818.984550	-0.004390
819.174642	-0.004453
819.364716	-0.004455
819.554771	-0.004381
819.744808	-0.004350
819.934827	-0.004131
820.124827	-0.004225
820.314810	-0.004129
820.504774	-0.004222
820.694720	-0.004105
820.884647	-0.004234
821.074557	-0.004321
821.264448	-0.004594
821.454321	-0.004764
821.644176	-0.005045
821.834012	-0.005015
822.023831	-0.005124
822.213631	-0.005167
822.403413	-0.005260
822.593176	-0.005035
822.782922	-0.004934
822.972649	-0.004961
823.162358	-0.004777
823.352049	-0.004653
823.541721	-0.004656
823.731376	-0.004682
823.921012	-0.004834
824.110629	-0.004967
824.300229	-0.005111
824.489811	-0.005161
824.679374	-0.004983
824.868919	-0.005159
825.058445	-0.005365
825.247954	-0.005475
825.437444	-0.005539
825.626916	-0.005461
825.816370	-0.005266
826.005806	-0.005393
826.195223	-0.005455
826.384622	-0.005522
826.574003	-0.005242
826.763366	-0.005096
826.952711	-0.005077
827.142037	-0.005057
827.331345	-0.004947
827.520635	-0.004894
827.709906	-0.004711
827.899160	-0.004688
828.088395	-0.004685
828.277612	-0.004766
828.466810	-0.004722
828.655991	-0.004829
828.845153	-0.004830
829.034297	-0.004996
829.223423	-0.005046
829.412531	-0.005115
829.601620	-0.005209
829.790691	-0.005191
829.979744	-0.005463
830.168779	-0.005469
830.357795	-0.005315
830.546793	-0.005345
830.735773	-0.005313
830.924735	-0.005525
831.113679	-0.005577
831.302604	-0.005695
831.491511	-0.005759
831.680400	-0.005567
831.869271	-0.005608
832.058123	-0.005824
832.246957	-0.005875
832.435773	-0.005782
832.624571	-0.005853
832.813351	-0.005911
833.002112	-0.005858
833.190855	-0.005966
833.379580	-0.006305
833.568287	-0.006841
833.756975	-0.006920
833.945645	-0.006953
834.134297	-0.007224
834.322931	-0.006983
834.511547	-0.007064
834.700144	-0.007284
834.888723	-0.007265
835.077284	-0.007030
835.265826	-0.006792
835.454351	-0.006723
835.642857	-0.006886
835.831345	-0.006864
836.019815	-0.007140
836.208266	-0.007102
836.396699	-0.007006
836.585114	-0.007030
836.773511	-0.007170
836.961890	-0.007180
837.150250	-0.007236
837.338592	-0.007207
837.526916	-0.007455
837.715222	-0.007565
837.903510	-0.007556
838.091779	-0.007617
838.280030	-0.007739
838.468263	-0.007834
838.656477	-0.007833
838.844674	-0.007771
839.032852	-0.007893
839.221012	-0.007678
839.409153	-0.007809
839.597277	-0.007734
839.785382	-0.007607
839.973469	-0.007514
840.161538	-0.007320
840.349589	-0.007278
840.537621	-0.007254
840.725635	-0.007056
840.913631	-0.007014
841.101609	-0.006860
841.289568	-0.006908
841.477509	-0.006956
841.665432	-0.006841
841.853337	-0.006940
842.041224	-0.006897
842.229092	-0.006912
842.416942	-0.007181
842.604774	-0.007163
842.792588	-0.006967
842.980383	-0.006899
843.168160	-0.006895
843.355919	-0.007117
843.543660	-0.007161
843.731382	-0.007364
843.919087	-0.007510
844.106773	-0.007487
844.294441	-0.007484
844.482090	-0.007547
844.669722	-0.007821
844.857335	-0.007797
845.044930	-0.007690
845.232507	-0.007571
845.420065	-0.007429
845.607605	-0.007280
845.795127	-0.007036
845.982631	-0.007117
846.170117	-0.007149
846.357584	-0.007081
846.545033	-0.006879
846.732464	-0.006965
846.919877	-0.007196
847.107272	-0.007126
847.294648	-0.006944
847.482006	-0.006898
847.669346	-0.006677
847.856667	-0.006582
848.043971	-0.006490
848.231256	-0.006688
848.418523	-0.006668
848.605771	-0.006350
848.793002	-0.006315
848.980214	-0.006337
849.167408	-0.006289
849.354584	-0.006232
849.541742	-0.006471
849.728881	-0.006299
849.916002	-0.006300
850.103105	-0.006009
850.290190	-0.005975
850.477256	-0.006017
850.664304	-0.006096
850.851334	-0.006115
851.038346	-0.006229
851.225340	-0.005747
851.412315	-0.006019
851.599272	-0.005842
851.786211	-0.005886
851.973132	-0.005821
852.160034	-0.005933
852.346918	-0.006083
852.533784	-0.005964
852.720632	-0.006197
852.907462	-0.006459
853.094273	-0.006479
853.281066	-0.006528
853.467841	-0.006551
853.654598	-0.006709
853.841336	-0.006380
854.028056	-0.006212
854.214758	-0.006363
854.401442	-0.006255
854.588107	-0.006367
854.774755	-0.006234
854.961384	-0.006374
855.147995	-0.006742
855.334587	-0.006625
855.521162	-0.006718
855.707718	-0.006676
855.894256	-0.006434
856.080775	-0.006083
856.267277	-0.005955
856.453760	-0.005629
856.640225	-0.005662
856.826672	-0.005252
857.013101	-0.005225
857.199511	-0.005052
857.385903	-0.004963
857.572277	-0.005195
857.758633	-0.005281
857.944970	-0.005079
858.131290	-0.005261
858.317591	-0.004968
858.503873	-0.005139
858.690138	-0.005086
858.876384	-0.005240
859.062612	-0.005301
859.248822	-0.005287
859.435014	-0.005382
859.621188	-0.005501
859.807343	-0.005726
859.993480	-0.005793
860.179599	-0.005795
860.365699	-0.005820
860.551781	-0.005763
860.737846	-0.005580
860.923891	-0.005547
861.109919	-0.005244
861.295929	-0.005010
861.481920	-0.004594
861.667893	-0.004531
861.853848	-0.004413
862.039784	-0.004608
862.225702	-0.004561
862.411603	-0.004674
862.597484	-0.004669
862.783348	-0.004929
862.969193	-0.005229
863.155021	-0.005402
863.340830	-0.005357
863.526620	-0.005568
863.712393	-0.005456
863.898147	-0.005747
864.083883	-0.005904
864.269601	-0.005928
864.455301	-0.005778
864.640982	-0.005440
864.826645	-0.005465
865.012290	-0.005464
865.197917	-0.005245
865.383526	-0.005361
865.569116	-0.004954
865.754688	-0.004662
865.940242	-0.004513
866.125777	-0.004450
866.311295	-0.004654
866.496794	-0.004631
866.682275	-0.004806
866.867737	-0.004828
867.053182	-0.004706
867.238608	-0.005128
867.424016	-0.005201
867.609406	-0.005211
867.794778	-0.005243
867.980131	-0.005363
868.165466	-0.005428
868.350783	-0.005259
868.536082	-0.005171
868.721362	-0.005009
868.906625	-0.004575
869.091869	-0.004862
869.277094	-0.004951
869.462302	-0.005127
869.647491	-0.005052
869.832662	-0.004882
870.017815	-0.004953
870.202950	-0.005048
870.388066	-0.005059
870.573165	-0.005142
870.758245	-0.005051
870.943306	-0.004857
871.128350	-0.004771
871.313375	-0.004588
871.498382	-0.004700
871.683371	-0.004422
871.868342	-0.004272
872.053294	-0.004110
872.238229	-0.004098
872.423144	-0.003989
872.608042	-0.004007
872.792922	-0.004152
872.977783	-0.004108
873.162626	-0.003775
873.347451	-0.003874
873.532258	-0.004010
873.717046	-0.004363
873.901816	-0.004224
874.086568	-0.004175
874.271302	-0.004259
874.456017	-0.004250
874.640715	-0.004184
874.825394	-0.004374
875.010055	-0.004454
875.194697	-0.004563
875.379322	-0.004056
875.563928	-0.004061
875.748516	-0.004180
875.933085	-0.003919
876.117637	-0.003660
876.302170	-0.003513
876.486685	-0.003779
876.671182	-0.003545
876.855661	-0.003017
877.040121	-0.003328
877.224563	-0.003101
877.408987	-0.002704
877.593393	-0.002658
877.777780	-0.002660
877.962150	-0.002621
878.146501	-0.002403
878.330833	-0.002306
878.515148	-0.002172
878.699444	-0.001814
878.883722	-0.001996
879.067982	-0.002130
879.252224	-0.002294
879.436447	-0.002421
879.620653	-0.002578
879.804840	-0.002281
879.989008	-0.002492
880.173159	-0.002809
880.357291	-0.003129
880.541405	-0.003348
880.725501	-0.003560
880.909579	-0.003211
881.093638	-0.003043
881.277680	-0.003007
881.461703	-0.003143
881.645707	-0.003237
881.829694	-0.003229
882.013662	-0.003087
882.197612	-0.002827
882.381544	-0.002817
882.565458	-0.003294
882.749353	-0.003467
882.933230	-0.003574
883.117089	-0.003365
883.300930	-0.003431
883.484753	-0.003120
883.668557	-0.003377
883.852343	-0.003470
884.036111	-0.003207
884.219861	-0.003230
884.403592	-0.003157
884.587305	-0.003045
884.771000	-0.003588
884.954677	-0.003395
885.138335	-0.003744
885.321976	-0.003854
885.505598	-0.004029
885.689201	-0.004141
885.872787	-0.003971
886.056354	-0.003836
886.239904	-0.004089
886.423434	-0.003864
886.606947	-0.004012
886.790442	-0.003836
886.973918	-0.003461
887.157376	-0.003298
887.340816	-0.003245
887.524237	-0.003558
887.707641	-0.003462
887.891026	-0.003415
888.074393	-0.003765
888.257741	-0.003620
888.441072	-0.003738
888.624384	-0.003963
888.807678	-0.003967
888.990954	-0.004074
889.174211	-0.003895
889.357451	-0.003940
889.540672	-0.004032
889.723875	-0.003747
889.907059	-0.004084
890.090226	-0.004278
890.273374	-0.004183
890.456504	-0.004325
890.639616	-0.004449
890.822709	-0.004340
891.005785	-0.004606
891.188842	-0.004550
891.371881	-0.004806
891.554901	-0.004672
891.737904	-0.004738
891.920888	-0.005052
892.103854	-0.005283
892.286802	-0.005268
892.469731	-0.005637
892.652643	-0.005879
892.835536	-0.005911
893.018410	-0.005752
893.201267	-0.005563
893.384106	-0.005461
893.566926	-0.005140
893.749728	-0.005044
893.932511	-0.004703
894.115277	-0.004540
894.298024	-0.003809
894.480753	-0.003395
894.663464	-0.003238
894.846157	-0.003085
895.028831	-0.003006
895.211487	-0.002964
895.394125	-0.002642
895.576745	-0.003006
895.759346	-0.002590
895.941930	-0.002819
896.124495	-0.002930
896.307041	-0.002984
896.489570	-0.002829
896.672080	-0.002572
896.854573	-0.002260
897.037046	-0.002207
897.219502	-0.001883
897.401940	-0.001949
897.584359	-0.002102
897.766760	-0.001871
897.949143	-0.001645
898.131507	-0.002221
898.313854	-0.002599
898.496182	-0.003185
898.678492	-0.003303
898.860783	-0.003266
899.043057	-0.003667
899.225312	-0.003362
899.407549	-0.003620
899.589768	-0.003772
899.771968	-0.003683
899.954151	-0.003611
900.136315	-0.003073
900.318461	-0.003070
900.500588	-0.002926
900.682698	-0.002634
900.864789	-0.002876
901.046862	-0.003050
901.228917	-0.002746
901.410953	-0.002927
901.592971	-0.002865
901.774972	-0.003138
901.956953	-0.003242
902.138917	-0.003296
902.320862	-0.003579
902.502790	-0.003729
902.684699	-0.003842
902.866589	-0.003982
903.048462	-0.003909
903.230316	-0.003797
903.412152	-0.004007
903.593970	-0.004173
903.775770	-0.004416
903.957551	-0.004046
904.139314	-0.003675
904.321059	-0.003395
904.502786	-0.003929
904.684494	-0.003665
904.866185	-0.003657
905.047857	-0.003158
905.229510	-0.002724
905.411146	-0.002590
905.592763	-0.002954
905.774363	-0.003308
905.955943	-0.003383
906.137506	-0.002887
906.319051	-0.003198
906.500577	-0.003223
906.682085	-0.003414
906.863575	-0.003636
907.045046	-0.003712
907.226500	-0.003423
907.407935	-0.003488
907.589352	-0.003597
907.770750	-0.003790
907.952131	-0.003641
908.133493	-0.003802
908.314837	-0.004333
908.496163	-0.004623
908.677470	-0.005146
908.858760	-0.005884
909.040031	-0.005847
909.221284	-0.006174
909.402518	-0.006272
909.583735	-0.006485
909.764933	-0.006374
909.946113	-0.006134
910.127275	-0.006000
910.308418	-0.005645
910.489544	-0.004926
910.670651	-0.004892
910.851740	-0.004699
911.032810	-0.004945
911.213863	-0.005009
911.394897	-0.005274
911.575913	-0.005451
911.756911	-0.005331
911.937890	-0.005521
912.118851	-0.005662
912.299794	-0.005876
912.480719	-0.005857
912.661626	-0.006045
912.842514	-0.006154
913.023384	-0.005948
913.204236	-0.005693
913.385070	-0.006204
913.565886	-0.006398
913.746683	-0.006497
913.927462	-0.006559
914.108223	-0.006792
914.288965	-0.006275
914.469690	-0.006277
914.650396	-0.006624
914.831084	-0.006882
915.011754	-0.006493
915.192405	-0.006241
915.373038	-0.006438
915.553653	-0.006362
915.734250	-0.006308
915.914829	-0.006346
916.095389	-0.005793
916.275931	-0.005615
916.456455	-0.005571
916.636961	-0.005593
916.817448	-0.005883
916.997917	-0.005785
917.178368	-0.005734
917.358801	-0.005892
917.539216	-0.006164
917.719612	-0.006358
917.899990	-0.006449
918.080350	-0.006673
918.260692	-0.006770
918.441015	-0.006449
918.621320	-0.006329
918.801607	-0.006050
918.981876	-0.005877
919.162127	-0.005312
919.342359	-0.005558
919.522573	-0.005641
919.702769	-0.005363
919.882947	-0.004991
920.063106	-0.005206
920.243247	-0.005524
920.423370	-0.005795
920.603475	-0.005526
920.783562	-0.005926
920.963630	-0.005969
921.143680	-0.005873
921.323712	-0.005966
921.503725	-0.005788
921.683721	-0.005843
921.863698	-0.005787
922.043657	-0.006136
922.223598	-0.006422
922.403520	-0.006435
922.583424	-0.006776
922.763311	-0.007481
922.943178	-0.007424
923.123028	-0.008471
923.302859	-0.008501
923.482673	-0.008834
923.662467	-0.008646
923.842244	-0.008786
924.022003	-0.009146
924.201743	-0.008890
924.381465	-0.008222
924.561169	-0.008956
924.740854	-0.008890
924.920522	-0.009259
925.100171	-0.009157
925.279802	-0.009285
925.459414	-0.009277
925.639009	-0.009170
925.818585	-0.009475
925.998143	-0.009808
926.177683	-0.009507
926.357205	-0.009443
926.536708	-0.008966
926.716193	-0.008800
926.895660	-0.009173
927.075109	-0.009506
927.254539	-0.009604
927.433951	-0.009091
927.613345	-0.009514
927.792721	-0.009403
927.972079	-0.009174
928.151418	-0.009607
928.330739	-0.009815
928.510042	-0.009628
928.689327	-0.009144
928.868593	-0.009108
929.047841	-0.009348
929.227071	-0.009005
929.406283	-0.009510
929.585476	-0.010047
929.764652	-0.009596
929.943809	-0.009700
930.122948	-0.009757
930.302068	-0.010971
930.481171	-0.011281
930.660255	-0.011776
930.839321	-0.012408
931.018369	-0.012288
931.197398	-0.012424
931.376409	-0.012902
931.555402	-0.013544
931.734377	-0.013754
931.913334	-0.013305
932.092272	-0.013332
932.271192	-0.013069
932.450094	-0.012423
932.628978	-0.012484
932.807844	-0.012807
932.986691	-0.013133
933.165520	-0.012921
933.344331	-0.013362
933.523123	-0.013654
933.701898	-0.013879
933.880654	-0.014292
934.059392	-0.014500
934.238111	-0.014564
934.416813	-0.014557
934.595496	-0.014194
934.774161	-0.013879
934.952808	-0.014011
935.131437	-0.013511
935.310047	-0.013389
935.488639	-0.013224
935.667213	-0.013105
935.845769	-0.012938
936.024306	-0.012498
936.202825	-0.012755
936.381326	-0.013504
936.559809	-0.012579
936.738274	-0.012635
936.916720	-0.013532
937.095148	-0.013919
937.273558	-0.014463
937.451950	-0.015407
937.630323	-0.015676
937.808678	-0.015886
937.987015	-0.014891
938.165334	-0.015837
938.343635	-0.017107
938.521917	-0.016772
938.700181	-0.017068
938.878427	-0.016886
939.056655	-0.016476
939.234864	-0.016903
939.413055	-0.017218
939.591228	-0.018340
939.769383	-0.018294
939.947519	-0.017855
940.125638	-0.018037
940.303738	-0.018049
940.481820	-0.017821
940.659883	-0.018594
940.837929	-0.017884
941.015956	-0.017191
941.193965	-0.016874
941.371955	-0.016511
941.549928	-0.015601
941.727882	-0.015508
941.905818	-0.015202
942.083736	-0.015772
942.261636	-0.014898
942.439517	-0.015364
942.617380	-0.016455
942.795225	-0.016871
942.973052	-0.017309
943.150860	-0.019062
943.328651	-0.019456
943.506423	-0.019291
943.684176	-0.019758
943.861912	-0.021086
944.039629	-0.020509
944.217328	-0.020257
944.395009	-0.020263
944.572672	-0.019474
944.750317	-0.018695
944.927943	-0.018409
945.105551	-0.019155
945.283141	-0.018428
945.460712	-0.016899
945.638265	-0.017890
945.815801	-0.017367
945.993317	-0.017594
946.170816	-0.018480
946.348297	-0.017754
946.525759	-0.017352
946.703203	-0.016570
946.880629	-0.016358
947.058036	-0.016809
947.235425	-0.016733
947.412797	-0.017263
947.590149	-0.016966
947.767484	-0.016470
947.944800	-0.016537
948.122099	-0.016064
948.299379	-0.017086
948.476640	-0.017591
948.653884	-0.017283
948.831109	-0.017545
949.008316	-0.017573
949.185505	-0.017528
949.362676	-0.018544
949.539828	-0.018373
949.716962	-0.019383
949.894078	-0.018809
950.071176	-0.018534
950.248256	-0.018027
950.425317	-0.016707
950.602360	-0.016187
950.779385	-0.016054
950.956391	-0.015200
951.133380	-0.015146
951.310350	-0.014150
951.487302	-0.013673
951.664235	-0.013679
951.841151	-0.015352
952.018048	-0.015367
952.194927	-0.015271
952.371788	-0.014996
952.548631	-0.013946
952.725455	-0.014038
952.902261	-0.013657
953.079049	-0.013760
953.255819	-0.013037
953.432570	-0.011638
953.609303	-0.011877
953.786018	-0.012432
953.962715	-0.011432
954.139394	-0.012747
954.316054	-0.014005
954.492696	-0.013755
954.669320	-0.013498
954.845926	-0.014079
955.022513	-0.013790
955.199083	-0.013417
955.375634	-0.012513
955.552166	-0.011949
955.728681	-0.009936
955.905177	-0.008722
956.081655	-0.009367
956.258115	-0.008549
956.434557	-0.009766
956.610980	-0.008624
956.787385	-0.008557
956.963772	-0.007817
957.140141	-0.009167
957.316492	-0.009751
957.492824	-0.009077
957.669138	-0.007822
957.845434	-0.006537
958.021712	-0.003809
958.197971	-0.006063
958.374212	-0.005364
958.550435	-0.005995
958.726640	-0.004153
958.902826	-0.004944
959.078995	-0.005331
959.255145	-0.005741
959.431277	-0.005283
959.607390	-0.006159
959.783486	-0.004264
959.959563	-0.004318
960.135622	-0.003453
960.311662	-0.003575
960.487685	-0.003104
960.663689	-0.000721
960.839675	0.000049
961.015643	-0.002535
961.191593	-0.000263
961.367524	-0.000169
961.543437	0.000460
961.719332	0.002277
961.895209	0.001391
962.071067	0.003272
962.246907	0.001098
962.422730	0.002190
962.598533	0.003040
962.774319	0.001362
962.950086	0.001631
963.125835	0.001217
963.301566	-0.000290
963.477279	-0.000283
963.652973	-0.000770
963.828650	0.000242
964.004308	-0.001526
964.179947	-0.000227
964.355569	-0.000821
964.531172	0.001150
964.706757	0.001978
964.882324	0.000135
965.057873	0.001206
965.233403	0.000963
965.408916	0.001514
965.584410	0.002512
965.759885	0.003113
965.935343	0.004363
966.110782	0.002994
966.286203	0.003258
966.461606	0.006020
966.636991	0.006658
966.812357	0.007129
966.987705	0.008105
967.163035	0.010194
967.338347	0.008955
967.513641	0.009884
967.688916	0.009175
967.864173	0.007809
968.039412	0.007650
968.214632	0.006101
968.389835	0.005393
968.565019	0.003849
968.740185	0.001572
968.915333	0.002797
969.090462	0.000853
969.265573	0.001906
969.440667	0.003415
969.615741	0.003419
969.790798	0.005701
969.965836	0.006147
970.140856	0.007690
970.315858	0.007913
970.490842	0.008482
970.665808	0.011188
970.840755	0.011314
971.015684	0.010555
971.190595	0.010469
971.365487	0.009872
971.540362	0.011408
971.715218	0.010759
971.890056	0.011881
972.064875	0.009717
972.239677	0.008491
972.414460	0.008408
972.589225	0.009211
972.763972	0.008329
972.938700	0.008430
973.113411	0.005618
973.288103	0.007379
973.462777	0.006375
973.637432	0.007872
973.812070	0.006195
973.986689	0.005929
974.161290	0.005208
974.335873	0.005836
974.510437	0.004712
974.684984	0.008007
974.859512	0.006014
975.034022	0.005860
975.208513	0.007524
975.382987	0.010201
975.557442	0.009357
975.731879	0.009572
975.906298	0.009382
976.080698	0.011500
976.255080	0.009994
976.429445	0.012270
976.603790	0.012341
976.778118	0.010707
976.952427	0.008432
977.126719	0.009775
977.300992	0.010929
977.475246	0.009043
977.649483	0.007949
977.823701	0.006639
977.997901	0.006256
978.172083	0.005325
978.346247	0.006092
978.520392	0.006721
978.694519	0.006611
978.868628	0.005660
979.042719	0.006577
979.216791	0.006187
979.390845	0.008941
979.564882	0.009549
979.738899	0.010782
979.912899	0.009972
980.086880	0.010218
980.260843	0.009867
980.434788	0.010743
980.608715	0.012499
980.782623	0.012700
980.956514	0.010299
981.130386	0.007827
981.304240	0.007124
981.478075	0.007033
981.651892	0.006008
981.825692	0.005375
981.999472	0.005440
982.173235	0.004629
982.346980	0.005177
982.520706	0.005976
982.694414	0.006490
982.868104	0.006578
983.041775	0.007537
983.215428	0.009251
983.389064	0.011749
983.562680	0.009942
983.736279	0.009614
983.909860	0.010227
984.083422	0.010044
984.256966	0.009414
984.430491	0.009351
984.603999	0.008410
984.777488	0.008143
984.950959	0.007582
985.124412	0.007789
985.297847	0.008047
985.471263	0.006864
985.644661	0.006287
985.818041	0.006656
985.991403	0.007496
986.164747	0.008469
986.338072	0.008912
986.511379	0.008192
986.684668	0.008450
986.857938	0.008353
987.031191	0.007338
987.204425	0.006645
987.377641	0.007022
987.550839	0.005796
987.724018	0.003895
987.897179	0.004043
988.070322	0.004181
988.243447	0.003673
988.416554	0.004866
988.589642	0.005667
988.762712	0.005831
988.935764	0.004911
989.108798	0.005929
989.281813	0.008034
989.454811	0.007495
989.627790	0.007008
989.800751	0.006572
989.973693	0.006717
990.146617	0.006052
990.319524	0.006666
990.492412	0.007894
990.665281	0.008176
990.838133	0.007419
991.010966	0.005741
991.183781	0.005138
991.356578	0.005482
991.529356	0.003181
991.702117	0.004164
991.874859	0.004575
992.047583	0.002918
992.220288	0.002827
992.392976	0.002135
992.565645	0.006368
992.738296	0.007374
992.910929	0.008578
993.083543	0.008512
993.256139	0.008404
993.428718	0.008471
993.601277	0.009591
993.773819	0.008473
993.946342	0.008394
994.118848	0.005864
994.291335	0.005452
994.463803	0.005063
994.636254	0.005868
994.808686	0.006460
994.981100	0.005136
995.153496	0.005620
995.325874	0.007668
995.498233	0.007606
995.670574	0.006073
995.842897	0.004253
996.015202	0.003972
996.187488	0.003966
996.359757	0.003756
996.532007	0.004147
996.704239	0.002419
996.876452	0.001533
997.048648	0.002849
997.220825	0.003273
997.392984	0.004756
997.565124	0.004561
997.737247	0.005922
997.909351	0.004953
998.081437	0.005839
998.253505	0.007615
998.425554	0.007782
998.597586	0.006145
998.769599	0.006763
998.941594	0.008229
999.113571	0.010065
999.285529	0.010194
999.457469	0.010742
999.629391	0.009798
999.801295	0.009584
999.973181	0.009490
1000.145048	0.010724
1000.316897	0.010269
1000.488728	0.008398
1000.660541	0.004794
1000.832335	0.002051
1001.004111	0.001547
1001.175869	0.002837
1001.347609	0.003151
1001.519331	0.003396
1001.691034	0.003666
1001.862719	0.003958
1002.034386	0.003632
1002.206035	0.004548
1002.377665	0.007443
1002.549277	0.007160
1002.720871	0.007435
1002.892447	0.007101
1003.064004	0.006724
1003.235544	0.006735
1003.407065	0.006978
1003.578568	0.008465
1003.750052	0.009265
1003.921519	0.007970
1004.092967	0.008902
1004.264397	0.007192
1004.435809	0.007738
1004.607202	0.006797
1004.778577	0.005857
1004.949934	0.005280
1005.121273	0.006328
1005.292594	0.007023
1005.463896	0.006273
1005.635180	0.004769
1005.806446	0.006318
1005.977694	0.006200
1006.148923	0.005578
1006.320135	0.004699
1006.491328	0.005652
1006.662503	0.005243
1006.833659	0.005288
1007.004798	0.006399
1007.175918	0.008291
1007.347020	0.006687
1007.518103	0.005463
1007.689169	0.007080
1007.860216	0.007589
1008.031245	0.008406
1008.202256	0.007430
1008.373248	0.007053
1008.544223	0.005389
1008.715179	0.006072
1008.886117	0.006701
1009.057036	0.007472
1009.227938	0.007471
1009.398821	0.008010
1009.569686	0.007136
1009.740533	0.006788
1009.911361	0.006721
1010.082172	0.008519
1010.252964	0.006171
1010.423738	0.007397
1010.594493	0.008327
1010.765231	0.007821
1010.935950	0.007843
1011.106651	0.005222
1011.277334	0.006625
1011.447998	0.006208
1011.618645	0.005486
1011.789273	0.006203
1011.959882	0.006080
1012.130474	0.005368
1012.301048	0.006187
1012.471603	0.006263
1012.642140	0.010158
1012.812658	0.009435
1012.983159	0.009670
1013.153641	0.009459
1013.324105	0.009462
1013.494551	0.009262
1013.664979	0.009416
1013.835388	0.008045
1014.005779	0.007820
1014.176152	0.006489
1014.346507	0.005563
1014.516843	0.006399
1014.687162	0.005954
1014.857462	0.006416
1015.027744	0.004267
1015.198007	0.003201
1015.368252	0.004412
1015.538480	0.003995
1015.708689	0.003125
1015.878879	0.003125
1016.049052	0.003323
1016.219206	0.004410
1016.389342	0.003935
1016.559460	0.005785
1016.729559	0.005217
1016.899641	0.004487
1017.069704	0.004454
1017.239749	0.005090
1017.409775	0.006603
1017.579784	0.006651
1017.749774	0.007226
1017.919746	0.007576
1018.089700	0.009219
1018.259635	0.009754
1018.429553	0.011208
1018.599452	0.012446
1018.769333	0.011415
1018.939195	0.010243
1019.109040	0.010351
1019.278866	0.009862
1019.448674	0.008377
1019.618464	0.006050
1019.788235	0.005184
1019.957989	0.005216
1020.127724	0.004281
1020.297441	0.004404
1020.467139	0.004579
1020.636820	0.003546
1020.806482	0.003181
1020.976126	0.004586
1021.145752	0.005202
1021.315359	0.006606
1021.484948	0.005281
1021.654519	0.003434
1021.824072	0.005032
1021.993607	0.006422
1022.163123	0.004737
1022.332621	0.004178
1022.502101	0.004752
1022.671563	0.004534
1022.841007	0.002760
1023.010432	0.002631
1023.179839	0.004267
1023.349228	0.003897
1023.518598	0.002719
1023.687951	0.003659
1023.857285	0.004888
1024.026601	0.005267
1024.195899	0.005269
1024.365178	0.006059
1024.534439	0.005923
1024.703682	0.005577
1024.872907	0.005433
1025.042114	0.004356
1025.211302	0.005740
1025.380472	0.004967
1025.549624	0.004999
1025.718758	0.005440
1025.887873	0.007183
1026.056970	0.008132
1026.226049	0.008480
1026.395110	0.008267
1026.564153	0.008864
1026.733177	0.006509
1026.902183	0.005151
1027.071171	0.004382
1027.240141	0.003227
1027.409092	0.001612
1027.578026	0.001570
1027.746940	0.002149
1027.915837	0.001357
1028.084716	0.001226
1028.253576	0.003197
1028.422418	0.003071
1028.591242	0.002563
1028.760048	0.002794
1028.928835	0.002522
1029.097604	0.001903
1029.266355	0.002525
1029.435088	0.004187
1029.603803	0.004200
1029.772499	0.004646
1029.941177	0.005860
1030.109837	0.005670
1030.278478	0.006268
1030.447102	0.007949
1030.615707	0.008309
1030.784294	0.007385
1030.952863	0.007527
1031.121413	0.007422
1031.289945	0.007832
1031.458460	0.009251
1031.626955	0.009535
1031.795433	0.009014
1031.963892	0.008107
1032.132334	0.006841
1032.300756	0.006321
1032.469161	0.004721
1032.637548	0.005898
1032.805916	0.003791
1032.974266	0.003562
1033.142598	0.003684
1033.310911	0.002917
1033.479207	0.002691
1033.647484	0.003579
1033.815743	0.004127
1033.983983	0.004818
1034.152206	0.004531
1034.320410	0.005458
1034.488596	0.004406
1034.656764	0.004627
1034.824914	0.007190
1034.993045	0.006850
1035.161158	0.005679
1035.329253	0.007308
1035.497330	0.007000
1035.665388	0.006804
1035.833428	0.005892
1036.001450	0.006237
1036.169454	0.006192
1036.337440	0.003576
1036.505407	0.004333
1036.673356	0.007824
1036.841287	0.006046
1037.009200	0.006292
1037.177094	0.005319
1037.344970	0.005919
1037.512828	0.006179
1037.680668	0.006649
1037.848489	0.007330
1038.016293	0.007506
1038.184078	0.003965
1038.351845	0.004433
1038.519593	0.003615
1038.687324	0.002311
1038.855036	0.003177
1039.022730	0.001997
1039.190406	0.001883
1039.358063	0.003377
1039.525702	0.003164
1039.693323	0.004645
1039.860926	0.004188
1040.028511	0.005331
1040.196077	0.008157
1040.363625	0.007618
1040.531155	0.007634
1040.698667	0.007200
1040.866161	0.006253
1041.033636	0.005413
1041.201093	0.003078
1041.368532	0.003292
1041.535952	0.002768
1041.703355	0.002392
1041.870739	0.002652
1042.038105	0.003979
1042.205452	0.003893
1042.372782	0.003051
1042.540093	0.004554
1042.707386	0.006656
1042.874661	0.007161
1043.041918	0.008223
1043.209156	0.007304
1043.376376	0.008240
1043.543578	0.007083
1043.710762	0.008207
1043.877927	0.009935
1044.045074	0.009693
1044.212203	0.010462
1044.379314	0.010785
1044.546407	0.007950
1044.713481	0.007544
1044.880537	0.006079
1045.047575	0.007642
1045.214595	0.006592
1045.381596	0.004636
1045.548579	0.003726
1045.715544	0.003288
1045.882491	0.001541
1046.049420	0.003795
1046.216330	0.005209
1046.383222	0.006338
1046.550096	0.004788
1046.716951	0.005357
1046.883789	0.005062
1047.050608	0.005307
1047.217409	0.005361
1047.384192	0.005870
1047.550956	0.006435
1047.717703	0.006164
1047.884431	0.003669
1048.051140	0.003454
1048.217832	0.002826
1048.384505	0.005148
1048.551161	0.005313
1048.717798	0.005453
1048.884416	0.006711
1049.051017	0.005644
1049.217599	0.005211
1049.384163	0.006993
1049.550709	0.008115
1049.717237	0.008285
1049.883746	0.006604
1050.050237	0.006297
1050.216710	0.005828
1050.383165	0.004999
1050.549601	0.005036
1050.716019	0.004517
1050.882420	0.004742
1051.048801	0.003908
1051.215165	0.003074
1051.381510	0.004231
1051.547837	0.004499
1051.714146	0.004142
1051.880437	0.003220
1052.046709	0.002743
1052.212964	0.004045
1052.379200	0.003304
1052.545417	0.003583
1052.711617	0.004029
1052.877798	0.002547
1053.043961	0.002360
1053.210106	0.002691
1053.376233	0.002976
1053.542341	0.003793
1053.708432	0.003606
1053.874504	0.004086
1054.040557	0.004211
1054.206593	0.004098
1054.372610	0.003589
1054.538609	0.002508
1054.704590	0.002561
1054.870553	0.003446
1055.036497	0.003857
1055.202424	0.003164
1055.368331	0.003764
1055.534221	0.004587
1055.700093	0.004445
1055.865946	0.005588
1056.031781	0.006908
1056.197598	0.007191
1056.363397	0.006538
1056.529177	0.005493
1056.694939	0.004419
1056.860683	0.003375
1057.026409	0.003446
1057.192116	0.004443
1057.357806	0.004301
1057.523477	0.004393
1057.689130	0.004368
1057.854764	0.004281
1058.020381	0.002680
1058.185979	0.003822
1058.351559	0.003270
1058.517120	0.004001
1058.682664	0.003308
1058.848189	0.003144
1059.013696	0.002573
1059.179185	0.003419
1059.344656	0.005399
1059.510108	0.008633
1059.675542	0.007126
1059.840958	0.006862
1060.006356	0.005792
1060.171735	0.005273
1060.337096	0.005635
1060.502439	0.005786
1060.667764	0.002859
1060.833071	0.000471
1060.998359	-0.000770
1061.163629	0.000085
1061.328881	0.002128
1061.494115	0.002312
1061.659330	0.003318
1061.824527	0.004546
1061.989706	0.003607
1062.154867	0.004133
1062.320010	0.004261
1062.485134	0.003671
1062.650240	0.004733
1062.815328	0.002575
1062.980398	0.001208
1063.145449	0.003051
1063.310482	0.001966
1063.475497	0.002850
1063.640494	0.004564
1063.805473	0.006084
1063.970433	0.005024
1064.135375	0.004707
1064.300299	0.005325
1064.465204	0.005596
1064.630092	0.000799
1064.794961	0.001578
1064.959812	0.002698
1065.124645	0.001075
1065.289459	-0.000186
1065.454256	0.001432
1065.619034	0.001637
1065.783793	0.002364
1065.948535	0.002467
1066.113258	0.002966
1066.277964	0.003013
1066.442651	0.000867
1066.607319	0.001837
1066.771970	-0.000347
1066.936602	-0.002527
1067.101216	-0.002136
1067.265812	-0.003882
1067.430389	-0.004213
1067.594949	-0.003091
1067.759490	-0.002860
1067.924013	-0.001064
1068.088518	-0.001626
1068.253004	0.001172
1068.417472	0.002996
1068.581922	0.002666
1068.746354	0.004062
1068.910768	0.004429
1069.075163	0.004136
1069.239540	0.002646
1069.403899	0.001699
1069.568240	0.002365
1069.732562	0.001630
1069.896866	0.001776
1070.061152	-0.000406
1070.225420	-0.000686
1070.389670	0.001509
1070.553901	0.001690
1070.718114	0.002135
1070.882309	0.002830
1071.046486	0.002410
1071.210644	0.000881
1071.374784	0.000053
1071.538906	0.000815
1071.703010	0.001582
1071.867096	-0.002190
1072.031163	-0.001303
1072.195212	0.000031
1072.359243	0.000764
1072.523256	-0.000881
1072.687250	0.000242
1072.851226	-0.000613
1073.015184	-0.000580
1073.179124	-0.002551
1073.343045	-0.001970
1073.506949	-0.003050
1073.670834	-0.005467
1073.834701	-0.007170
1073.998549	-0.007465
1074.162380	-0.007037
1074.326192	-0.007615
1074.489986	-0.005673
1074.653761	-0.003481
1074.817519	-0.002177
1074.981258	-0.002568
1075.144979	-0.002746
1075.308682	-0.002485
1075.472367	-0.000152
1075.636033	-0.000677
1075.799681	0.001671
1075.963311	-0.000326
1076.126923	-0.000833
1076.290516	-0.001701
1076.454092	-0.002267
1076.617649	0.002074
1076.781187	0.001575
1076.944708	0.000057
1077.108210	0.001621
1077.271695	0.001454
1077.435160	0.002487
1077.598608	0.001778
1077.762038	0.002259
1077.925449	0.001977
1078.088842	-0.002241
1078.252217	-0.002082
1078.415573	-0.001926
1078.578912	-0.002217
1078.742232	-0.004108
1078.905534	-0.005374
1079.068817	-0.004605
1079.232083	-0.003756
1079.395330	-0.001125
1079.558559	-0.000282
1079.721770	-0.002149
1079.884962	-0.000029
1080.048136	-0.000773
1080.211293	0.001183
1080.374430	0.001915
1080.537550	0.001143
1080.700651	-0.000028
1080.863735	0.000927
1081.026800	0.000694
1081.189846	0.001296
1081.352875	0.000494
1081.515885	0.000856
1081.678877	-0.000032
1081.841851	-0.000008
1082.004807	0.001280
1082.167744	0.000374
1082.330663	-0.002222
1082.493564	-0.000459
1082.656447	0.001156
1082.819312	0.000260
1082.982158	-0.001001
1083.144986	-0.001878
1083.307796	-0.003114
1083.470587	-0.006805
1083.633361	-0.005689
1083.796116	-0.003324
1083.958853	-0.004879
1084.121571	-0.007294
1084.284272	-0.006428
1084.446954	-0.004870
1084.609618	-0.002266
1084.772264	0.000454
1084.934892	0.002394
1085.097501	0.000159
1085.260092	-0.003476
1085.422665	-0.002787
1085.585220	0.000009
1085.747756	-0.000393
1085.910274	-0.002493
1086.072774	-0.003411
1086.235256	-0.004206
1086.397720	-0.004163
1086.560165	0.000262
1086.722592	0.004468
1086.885001	0.004002
1087.047392	0.002209
1087.209764	0.002064
1087.372119	0.003366
1087.534455	0.003822
1087.696772	0.001989
1087.859072	-0.000082
1088.021353	-0.004621
1088.183616	-0.005555
1088.345861	-0.009358
1088.508088	-0.007537
1088.670296	-0.009069
1088.832486	-0.011533
1088.994658	-0.013291
1089.156812	-0.012117
1089.318948	-0.009945
1089.481065	-0.007566
1089.643164	-0.007730
1089.805245	-0.007216
1089.967308	-0.009297
1090.129352	-0.008927
1090.291378	-0.006696
1090.453386	-0.006248
1090.615376	-0.007022
1090.777347	-0.006162
1090.939301	-0.006061
1091.101236	-0.003672
1091.263153	-0.001845
1091.425051	0.003926
1091.586932	0.005451
1091.748794	0.005170
1091.910638	0.006401
1092.072463	0.009614
1092.234271	0.008509
1092.396060	0.008763
1092.557831	0.004943
1092.719584	0.005815
1092.881319	-0.000223
1093.043035	-0.004078
1093.204733	-0.005667
1093.366413	-0.009942
1093.528075	-0.013110
1093.689718	-0.015933
1093.851343	-0.014887
1094.012950	-0.012508
1094.174539	-0.013894
1094.336110	-0.012039
1094.497662	-0.008797
1094.659196	-0.005771
1094.820712	-0.000377
1094.982210	0.000435
1095.143689	0.001518
1095.305151	-0.002273
1095.466594	-0.007403
1095.628018	-0.004704
1095.789425	-0.006784
1095.950813	-0.003984
1096.112183	-0.007169
1096.273535	-0.009338
1096.434869	-0.010258
1096.596184	-0.009327
1096.757482	-0.006380
1096.918761	-0.003521
1097.080021	-0.003491
1097.241264	-0.003248
1097.402488	-0.007302
1097.563694	-0.008063
1097.724882	-0.005931
1097.886052	-0.006045
1098.047203	-0.003713
1098.208336	-0.005893
1098.369451	-0.006932
1098.530548	-0.008067
1098.691627	-0.006747
1098.852687	-0.005431
1099.013729	-0.003905
1099.174753	-0.007287
1099.335758	-0.006314
1099.496746	-0.007889
1099.657715	-0.007127
1099.818666	-0.006372
1099.979599	-0.006532
1100.140513	-0.006604
1100.301409	-0.006449
1100.462287	-0.003936
1100.623147	-0.000666
1100.783989	-0.001471
1100.944812	0.001124
1101.105617	0.000454
1101.266404	-0.000257
1101.427173	-0.001276
1101.587923	-0.006066
1101.748656	-0.007090
1101.909370	-0.007105
1102.070066	-0.011436
1102.230743	-0.012148
1102.391403	-0.015290
1102.552044	-0.014318
1102.712667	-0.014257
1102.873271	-0.013647
1103.033858	-0.011208
1103.194426	-0.012547
1103.354976	-0.013848
1103.515508	-0.010008
1103.676021	-0.012732
1103.836517	-0.009648
1103.996994	-0.008820
1104.157453	-0.011857
1104.317893	-0.009189
1104.478316	-0.007211
1104.638720	-0.006660
1104.799106	-0.008205
1104.959474	-0.011971
1105.119823	-0.009879
1105.280155	-0.011455
1105.440468	-0.012628
1105.600763	-0.009125
1105.761039	-0.009539
1105.921298	-0.010746
1106.081538	-0.007642
1106.241760	-0.004824
1106.401964	-0.002667
1106.562149	0.000939
1106.722316	0.001216
1106.882465	-0.001079
1107.042596	-0.002164
1107.202709	-0.001632
1107.362803	0.000638
1107.522879	0.001410
1107.682937	-0.002131
1107.842977	-0.001320
1108.002999	0.000625
1108.163002	-0.000766
1108.322987	0.002661
1108.482954	0.002248
1108.642902	-0.000948
1108.802833	-0.001571
1108.962745	-0.004373
1109.122639	-0.006905
1109.282515	-0.004880
1109.442372	-0.008214
1109.602211	-0.007366
1109.762032	-0.011342
1109.921835	-0.010851
1110.081620	-0.012404
1110.241386	-0.013534
1110.401134	-0.014921
1110.560864	-0.009540
1110.720576	-0.014782
1110.880269	-0.015390
1111.039945	-0.016884
1111.199602	-0.013147
1111.359240	-0.014094
1111.518861	-0.015941
1111.678463	-0.014595
1111.838047	-0.011923
1111.997613	-0.012108
1112.157161	-0.011012
1112.316690	-0.013545
1112.476202	-0.011299
1112.635695	-0.011086
1112.795169	-0.005566
1112.954626	-0.002852
1113.114064	-0.008515
1113.273484	-0.013094
1113.432886	-0.011392
1113.592270	-0.012033
1113.751635	-0.008260
1113.910983	-0.012468
1114.070312	-0.013329
1114.229622	-0.016311
1114.388915	-0.017791
1114.548189	-0.009505
1114.707445	-0.004501
1114.866683	-0.003260
1115.025903	-0.002645
1115.185104	-0.008335
1115.344287	-0.005085
1115.503452	-0.006044
1115.662599	-0.004373
1115.821727	0.000390
1115.980838	-0.004575
1116.139930	-0.002205
1116.299004	-0.005181
1116.458059	-0.003593
1116.617097	0.005071
1116.776116	0.007710
1116.935117	0.008248
1117.094099	0.004736
1117.253064	0.001766
1117.412010	0.007731
1117.570938	0.003168
1117.729848	0.001178
1117.888740	-0.000739
1118.047613	-0.011174
1118.206468	-0.008817
1118.365305	-0.010512
1118.524124	-0.012062
1118.682924	-0.010182
1118.841707	-0.011318
1119.000471	-0.012368
1119.159216	-0.013432
1119.317944	-0.011383
1119.476653	-0.003644
1119.635344	-0.007963
1119.794017	-0.007046
1119.952672	-0.005196
1120.111308	-0.003431
1120.269927	-0.003630
1120.428527	-0.005518
1120.587108	0.001195
1120.745672	0.000322
1120.904217	-0.003505
1121.062744	-0.003860
1121.221253	0.002296
1121.379744	0.004922
1121.538216	-0.000570
1121.696671	-0.000912
1121.855107	-0.002985
1122.013524	-0.006341
1122.171924	-0.008427
1122.330305	-0.004163
1122.488668	-0.003828
1122.647013	-0.010096
1122.805340	-0.010715
1122.963648	-0.015845
1123.121938	-0.015795
1123.280210	-0.011190
1123.438464	-0.015190
1123.596700	-0.016216
1123.754917	-0.015333
1123.913116	-0.010971
1124.071297	-0.010600
1124.229459	-0.015022
1124.387604	-0.007259
1124.545730	-0.008758
1124.703838	-0.004680
1124.861928	-0.002720
1125.019999	0.000383
1125.178052	-0.003047
1125.336088	-0.011764
1125.494104	-0.017811
1125.652103	-0.014373
1125.810083	-0.008771
1125.968045	-0.010609
1126.125989	-0.011051
1126.283915	-0.006609
1126.441823	-0.007335
1126.599712	-0.006771
1126.757583	-0.002548
1126.915436	0.001693
1127.073270	0.005015
1127.231087	-0.004039
1127.388885	-0.007816
1127.546665	-0.012861
1127.704426	-0.017350
1127.862170	-0.014161
1128.019895	-0.012711
1128.177602	-0.013390
1128.335291	-0.012265
1128.492961	-0.015057
1128.650614	-0.014026
1128.808248	-0.010560
1128.965864	-0.007025
1129.123461	-0.005806
1129.281041	-0.003573
1129.438602	-0.005076
1129.596145	-0.002957
1129.753670	0.001290
1129.911176	0.001810
1130.068665	0.006617
1130.226135	0.008432
1130.383587	0.004917
1130.541020	0.003388
1130.698436	0.002148
1130.855833	0.004314
1131.013212	0.005127
1131.170573	-0.001397
1131.327915	0.004130
1131.485239	0.002166
1131.642545	-0.000424
1131.799833	0.004117
1131.957103	0.000073
1132.114354	-0.006476
1132.271588	-0.010559
1132.428803	-0.015050
1132.585999	-0.006815
1132.743178	-0.019535
1132.900338	-0.016343
1133.057480	-0.010655
1133.214604	-0.014818
1133.371710	-0.014162
1133.528797	-0.015066
1133.685866	-0.011347
1133.842917	-0.012607
1133.999950	-0.014289
1134.156964	-0.009191
1134.313960	-0.013119
1134.470938	-0.021158
1134.627898	-0.024138
1134.784840	-0.013879
1134.941763	-0.012044
1135.098668	-0.015024
1135.255555	-0.010416
1135.412424	-0.009233
1135.569274	-0.008424
1135.726107	-0.003159
1135.882921	0.005082
1136.039716	0.010072
1136.196494	0.006381
1136.353253	0.004875
1136.509995	0.002398
1136.666717	-0.005734
1136.823422	-0.011922
1136.980109	-0.008583
1137.136777	-0.012409
1137.293427	-0.015653
1137.450059	-0.016531
1137.606672	-0.016530
1137.763267	-0.014933
1137.919844	-0.009979
1138.076403	-0.003612
1138.232944	0.003004
1138.389466	0.006023
1138.545971	0.001833
1138.702457	0.002959
1138.858924	0.005909
1139.015374	0.006293
1139.171805	0.005722
1139.328218	0.004952
1139.484613	0.008294
1139.640990	0.008004
1139.797348	0.008663
1139.953688	0.010308
1140.110010	0.004406
1140.266314	-0.001590
1140.422600	-0.010099
1140.578867	0.000626
1140.735116	0.001833
1140.891347	0.003232
1141.047559	-0.005557
1141.203754	-0.007216
1141.359930	-0.008823
1141.516088	-0.009569
1141.672228	-0.009753
1141.828349	-0.005266
1141.984452	-0.018210
1142.140537	-0.024073
1142.296604	-0.028103
1142.452653	-0.025993
1142.608683	-0.032711
1142.764695	-0.035635
1142.920689	-0.030054
1143.076665	-0.030247
1143.232622	-0.033576
1143.388562	-0.029913
1143.544483	-0.022973
1143.700385	-0.020957
1143.856270	-0.026428
1144.012136	-0.026493
1144.167985	-0.023858
1144.323814	-0.022383
1144.479626	-0.012236
1144.635420	-0.009521
1144.791195	-0.005646
1144.946952	-0.004125
1145.102691	-0.012279
1145.258411	-0.004276
1145.414113	0.002181
1145.569798	0.004059
1145.725463	-0.000992
1145.881111	-0.008136
1146.036741	0.002113
1146.192352	0.003802
1146.347945	-0.001891
1146.503519	0.004778
1146.659076	-0.000872
1146.814614	-0.006358
1146.970134	0.000538
1147.125636	0.003298
1147.281120	0.005390
1147.436585	-0.000907
1147.592032	-0.009472
1147.747461	-0.002310
1147.902872	-0.002364
1148.058265	0.002270
1148.213639	-0.004809
1148.368995	-0.011400
1148.524333	-0.011532
1148.679653	-0.002352
1148.834954	-0.011617
1148.990237	-0.003526
1149.145502	-0.012879
1149.300749	-0.023196
1149.455977	-0.013652
1149.611188	-0.004434
1149.766380	0.003272
1149.921553	0.000519
1150.076709	-0.013780
1150.231846	-0.005196
1150.386966	-0.014219
1150.542066	-0.013432
1150.697149	-0.000018
1150.852214	-0.008898
1151.007260	-0.008747
1151.162288	-0.023259
1151.317298	-0.009225
1151.472289	-0.005011
1151.627263	-0.008060
1151.782218	-0.001644
1151.937155	0.004908
1152.092073	0.002795
1152.246974	-0.006657
1152.401856	-0.011464
1152.556720	-0.009752
1152.711566	-0.015990
1152.866393	-0.014208
1153.021203	-0.010375
1153.175994	-0.009705
1153.330767	-0.018356
1153.485521	-0.018300
1153.640258	-0.003906
1153.794976	-0.003358
1153.949676	0.007733
1154.104358	0.009640
1154.259021	0.004822
1154.413667	0.006463
1154.568294	0.007487
1154.722903	0.011289
1154.877493	0.006320
1155.032066	0.008020
1155.186620	0.007618
1155.341156	0.005636
1155.495674	0.005361
1155.650173	0.009392
1155.804654	0.002782
1155.959118	-0.012145
1156.113562	-0.015776
1156.267989	-0.012444
1156.422397	-0.014251
1156.576788	-0.014524
1156.731160	-0.019996
1156.885513	-0.022861
1157.039849	-0.026926
1157.194166	-0.022862
1157.348465	-0.008298
1157.502746	-0.007616
1157.657009	-0.008252
1157.811253	-0.017710
1157.965479	-0.023744
1158.119687	-0.025408
1158.273877	-0.032854
1158.428048	-0.034987
1158.582201	-0.040874
1158.736337	-0.045680
1158.890453	-0.041912
1159.044552	-0.050680
1159.198632	-0.046704
1159.352694	-0.035480
1159.506738	-0.021387
1159.660764	-0.010511
1159.814771	-0.003338
1159.968761	0.003128
1160.122732	0.005768
1160.276685	0.004610
1160.430619	0.020996
1160.584535	0.027948
1160.738434	0.040084
1160.892313	0.018170
1161.046175	0.022088
1161.200019	0.023326
1161.353844	0.032022
1161.507651	0.027329
1161.661440	0.025504
1161.815210	0.016213
1161.968962	0.020108
1162.122697	0.021661
1162.276412	0.029958
1162.430110	0.018367
1162.583789	0.008364
1162.737451	-0.004959
1162.891094	-0.009681
1163.044718	-0.001643
1163.198325	-0.004503
1163.351913	-0.018284
1163.505483	-0.027701
1163.659035	-0.019780
1163.812569	-0.032749
1163.966084	-0.024711
1164.119581	-0.030125
1164.273060	-0.014878
1164.426521	-0.012377
1164.579964	0.006093
1164.733388	0.012737
1164.886794	-0.001330
1165.040182	-0.017766
1165.193551	0.002882
1165.346903	0.004916
1165.500236	0.023269
1165.653551	0.019011
1165.806848	0.008172
1165.960126	0.011055
1166.113386	-0.004671
1166.266628	0.000418
1166.419852	0.017114
1166.573058	0.008600
1166.726245	-0.001710
1166.879414	-0.008964
1167.032565	-0.013102
1167.185698	-0.012077
1167.338812	-0.032769
1167.491909	-0.027962
1167.644987	-0.007128
1167.798046	-0.020582
1167.951088	-0.005957
1168.104111	-0.013705
1168.257117	-0.019908
1168.410103	-0.024383
1168.563072	-0.031463
1168.716023	-0.027759
1168.868955	-0.017113
1169.021869	-0.024732
1169.174765	-0.023968
1169.327642	-0.036341
1169.480501	-0.025409
1169.633343	-0.024453
1169.786165	-0.025465
1169.938970	-0.011724
1170.091757	-0.010196
1170.244525	-0.016340
1170.397275	-0.029829
1170.550007	-0.006974
1170.702720	-0.017499
1170.855415	-0.023358
1171.008092	-0.027034
1171.160751	-0.026346
1171.313392	-0.036841
1171.466014	-0.090731
1171.618619	-0.071138
1171.771205	-0.071138
1171.923772	-0.071138
