sample name	sample
index	1281
start time	 04-29-2021  02:41:02 PM
880	-0.010492
Peak Time (s)	92.036
Peak Height 	-0.01049
calc peak height	90,93
Baseline Time (s)	10.035
Baseline Value 	-0.004788
subtract baseline	10,4
Abs	0.016611
Peak Time (s)	90.037
Peak Height 	0.01661
calc peak height	90,93
Baseline Time (s)	11.536
Baseline Value 	0.005473
subtract baseline	10,3
PK_550	-0.001505
Peak Time (s)	90.037
Peak Height 	-0.001505
calc peak height	90,93
Baseline Time (s)	11.036
Baseline Value 	8.4397E-4
subtract baseline	10,2
PK_880	0.011683
Peak Time (s)	90.535
Peak Height 	0.01168
calc peak height	90,93
Baseline Time (s)	10.035
Baseline Value 	0.001605
subtract baseline	10,1


Time (s)	A880-A510	A880-A775	A880-A975	A880	I510	I775	I975	I880	
0.035000	-0.001030	-0.000547	-0.004436	0.001060	6300.050175	41344.386348	3851.105073	20951.790323
0.535500	-0.001911	-0.000360	-0.006312	0.006156	6254.485602	40913.344134	3836.639567	20741.944199
1.035000	-0.001186	-0.001253	-0.003826	0.002746	6285.941543	41133.747902	3848.856799	20882.106837
1.536000	0.002354	-0.001059	0.002158	0.000472	6330.677536	41351.086481	3866.249317	20976.162434
2.036000	-0.000944	-0.000396	0.002440	0.000141	6307.770246	41438.975723	3867.553845	20989.892827
2.536500	-0.003325	-0.000895	-0.003631	0.004096	6259.380102	41046.751177	3846.451812	20826.481680
3.037000	0.003038	0.000790	-0.002059	-0.000983	6347.289942	41644.029339	3860.396498	21036.625427
3.537500	-0.000237	0.000014	-0.005478	0.000010	6314.227387	41486.876751	3851.120324	20995.342232
4.034500	-0.000186	-0.000062	-0.002403	-0.000003	6314.716235	41481.324642	3857.601635	20995.883564
4.537500	-0.002042	-0.000987	-0.005689	0.003908	6270.550958	41055.076237	3842.568885	20834.210475
5.035500	-0.000766	-0.000821	-0.004261	-0.000817	6316.524090	41486.216065	3855.406036	21029.716960
5.535500	0.001690	-0.000184	0.000593	-0.000308	6331.577017	41497.532522	3864.581303	21008.544619
6.038500	0.000468	-0.000179	-0.002639	-0.001022	6327.640893	41561.344577	3859.253503	21038.249929
6.536000	0.001291	-0.000124	0.003092	0.000384	6323.126097	41441.512742	3868.424260	20979.795901
7.036500	0.000504	-0.000694	-0.000854	-0.000731	6325.664999	41489.799081	3862.409820	21026.122714
7.537000	0.000870	0.000166	0.002320	0.000373	6319.962127	41468.135204	3866.803273	20980.253066
8.036500	0.001434	-0.000391	0.001754	0.000044	6326.869133	41448.062800	3866.299805	20993.938129
8.537000	0.001783	-0.000335	0.003361	0.000375	6327.010638	41423.640952	3869.018031	20980.201207
9.037500	-0.001262	0.000068	0.000544	-0.000410	6309.562192	41528.902450	3864.694225	21012.781328
9.535000	-0.001208	-0.000443	-0.004862	-0.000827	6313.190551	41520.575760	3854.164321	21030.116309
10.035000	0.000000	-0.000509	0.004430	0.000000	6316.129514	41441.444424	3872.102291	20995.751089
10.535500	0.000558	0.000402	-0.000150	0.000469	6316.821973	41480.589926	3861.361191	20976.304685
11.036000	0.000648	0.000000	-0.000377	0.000057	6320.693175	41481.465506	3861.752030	20993.378810
11.536000	-0.000147	0.000147	0.000000	-0.000003	6315.016391	41499.788324	3862.677442	20995.875834
12.036500	0.001624	-0.000304	0.000073	-0.000314	6331.112380	41487.440830	3863.490604	21008.788512
12.539500	0.000940	-0.000311	0.001474	-0.000270	6325.474777	41482.865266	3866.372085	21006.947156
13.036500	0.000669	-0.000335	-0.002813	-0.001203	6330.603769	41563.579652	3859.269202	21045.789310
13.537500	0.000232	-0.000672	0.005563	-0.000496	6321.751603	41470.980903	3875.593777	21016.366157
14.037500	-0.000381	0.000333	-0.001756	0.001546	6301.295614	41379.205439	3855.704919	20931.668852
14.535500	-0.000515	-0.000560	-0.003789	0.001476	6300.804445	41306.461472	3851.587127	20934.565737
15.035000	-0.000202	-0.000479	0.000642	-0.001726	6327.903350	41597.226073	3867.701556	21067.576076
15.536000	0.000356	-0.000137	0.001787	-0.000388	6321.875717	41508.822539	3867.290578	21011.876620
16.036000	0.000672	-0.000215	0.000554	-0.000900	6328.277866	41547.309735	3865.754800	21033.152046
16.543500	0.001893	0.000779	0.000923	-0.000232	6332.561925	41576.209955	3865.120300	21005.389132
17.042000	0.001877	0.000190	0.002792	-0.001955	6345.820387	41677.111901	3872.779774	21077.115547
17.537000	0.000589	-0.000203	-0.002693	0.000831	6314.259750	41394.935649	3855.236687	20961.263919
18.037000	0.000795	-0.000718	-0.005060	0.000287	6320.043256	41397.522343	3851.415299	20983.819367
18.540500	0.001740	0.000226	-0.000255	0.001248	6319.930259	41396.057306	3859.492723	20944.012197
19.035000	0.001724	-0.000103	0.006104	0.000823	6323.087360	41404.571552	3873.925092	20961.604581
19.535000	0.001346	0.000106	0.001080	0.000987	6318.905083	41408.551653	3862.869634	20954.833193
20.041000	0.000610	-0.000009	-0.005926	0.000716	6315.312100	41422.255803	3848.709622	20966.024539
20.535500	0.000417	-0.000589	0.002194	0.000619	6314.570677	41379.668058	3866.013781	20970.074234
21.036000	0.000176	-0.000133	-0.000720	0.000555	6313.209524	41425.579210	3859.974399	20972.731496
21.536500	-0.000035	-0.000411	-0.003347	0.000712	6310.372342	41387.163754	3854.115641	20966.224455
22.036500	-0.000165	-0.000541	-0.000866	0.000297	6312.569289	41412.348994	3860.211674	20983.425578
22.537000	-0.000164	-0.000678	0.002342	0.000252	6312.916927	41404.136582	3867.107630	20985.273434
23.037500	0.000416	-0.000324	-0.002233	0.000710	6313.858850	41394.955204	3856.458194	20966.290092
23.537500	-0.001200	-0.000504	-0.000928	0.000405	6303.768557	41406.009471	3859.851406	20978.928166
24.035000	0.000915	0.000132	0.002941	0.001223	6313.754252	41389.918724	3866.316932	20945.023297
24.535500	-0.000870	0.000143	-0.000096	0.000778	6303.442412	41430.217872	3860.821368	20963.459922
25.035500	0.000311	-0.000150	0.001384	0.000485	6314.787185	41430.228511	3864.576277	20975.613427
25.536000	0.000687	0.000588	0.000927	0.000980	6313.868781	41451.738285	3862.557600	20955.094409
26.036500	0.001662	-0.000827	0.001847	0.000093	6328.259437	41405.154545	3866.394549	20991.909338
26.536000	-0.000282	-0.000958	-0.001200	0.000188	6312.502934	41385.076612	3859.734576	20987.929161
27.037000	0.000627	0.000782	-0.000108	0.001224	6311.529192	41447.401528	3859.854935	20945.014093
27.537000	0.001588	-0.000331	-0.004390	-0.001558	6340.485608	41595.390208	3856.692077	21060.558475
28.039500	-0.000412	-0.000642	-0.001996	-0.001074	6321.244277	41524.861210	3860.720994	21040.412968
28.537500	-0.000545	-0.000745	0.002570	-0.001200	6321.182912	41526.802874	3870.690555	21045.630967
29.035000	0.000882	-0.000257	-0.001812	-0.000846	6329.487978	41538.817316	3860.628505	21030.924217
29.536000	0.001241	0.000240	0.002771	-0.000574	6330.162157	41558.783115	3869.785128	21019.622111
30.035500	0.001571	-0.000034	-0.002055	-0.000428	6331.583144	41521.483677	3859.231642	21013.537973
30.535000	-0.001297	-0.000441	0.001465	0.003978	6275.684892	41096.805834	3857.364137	20831.310466
31.036500	-0.001037	-0.000090	-0.002652	0.001938	6293.263875	41307.206094	3853.001118	20915.466615
31.536500	-0.000657	-0.000630	-0.005775	-0.000723	6316.641781	41494.743220	3852.033032	21025.795227
32.037000	0.001266	-0.000389	0.000399	-0.000692	6331.268511	41513.364356	3864.985069	21024.513403
32.540000	-0.000911	0.000016	-0.000041	0.003344	6283.475271	41192.756077	3855.529321	20857.442318
33.040500	0.000519	-0.000207	0.006208	-0.000433	6323.478428	41506.551813	3876.842928	21013.719871
33.535000	0.000181	0.000226	0.004779	-0.000253	6319.482273	41529.033939	3873.390070	21006.265954
34.035000	0.000624	0.000108	0.004219	0.000383	6317.988952	41462.186888	3870.832328	20979.864035
34.536000	0.000418	-0.000509	-0.001040	0.001756	6305.830866	41286.334081	3856.769091	20923.003042
35.036000	-0.000503	-0.000084	-0.000673	0.000813	6305.995939	41407.127136	3859.528786	20962.033380
35.536500	-0.002267	-0.000680	-0.004915	0.000813	6292.459654	41354.426880	3850.618887	20962.028599
36.036500	-0.000343	-0.000043	0.000239	0.001138	6304.719768	41381.918825	3860.767643	20948.543665
36.537000	0.000447	-0.000041	-0.000528	0.001756	6306.053895	41327.645114	3857.847552	20923.001903
37.037000	-0.003241	-0.000605	0.001062	0.000231	6289.454533	41412.459353	3864.433368	20986.155458
37.537000	-0.001506	0.000192	-0.002783	0.001076	6296.270380	41408.215889	3854.533298	20951.123138
38.037500	0.001525	-0.000391	-0.006508	0.000882	6321.091753	41373.809081	3847.150399	20959.152649
38.535500	-0.001859	-0.000226	-0.001744	0.001329	6291.629048	41348.989616	3856.186508	20940.655137
39.035000	0.000801	-0.000760	-0.001812	0.000342	6319.670173	41388.999198	3858.121182	20981.566960
39.536000	-0.001482	0.000621	0.006101	0.001408	6293.917994	41416.849136	3872.665870	20937.388652
40.036500	-0.001068	0.000585	0.001533	0.001327	6297.706782	41420.820905	3863.106909	20940.717254
40.536500	-0.001700	-0.000253	0.001327	0.000693	6297.721555	41402.756011	3864.015779	20966.995481
41.037000	0.000148	-0.000155	-0.004966	0.000992	6309.628004	41385.023053	3850.138192	20954.623380
41.537000	0.001251	0.000073	-0.001524	0.001181	6316.671525	41388.438415	3856.959699	20946.780578
42.037000	0.000536	-0.000792	0.004488	0.000715	6314.755168	41353.209641	3870.698749	20966.098930
42.537500	0.000560	-0.000013	0.000150	0.001524	6308.695914	41350.503872	3859.763582	20932.559598
43.035000	0.000238	-0.000880	0.002269	0.000609	6313.266492	41354.799667	3866.193871	20970.476263
43.535500	0.000666	-0.000161	0.002299	0.001495	6309.745893	41340.087513	3864.375357	20933.796276
44.035500	0.000577	0.000278	-0.001298	-0.002686	6341.392451	41750.184362	3865.616401	21107.635623
44.535500	0.000047	-0.000320	0.003362	-0.001008	6324.275238	41547.561983	3871.973670	21037.659990
45.036500	0.001476	-0.000657	0.001614	-0.000624	6332.366218	41483.644239	3867.424243	21021.678964
45.536500	0.002415	0.001101	0.000134	0.000660	6329.694753	41525.618411	3861.557067	20968.367941
46.037000	0.001174	-0.000109	0.005434	-0.000571	6329.615007	41527.501830	3875.476879	21019.464998
46.537000	0.002305	0.000197	0.003261	-0.000278	6336.105598	41528.655659	3870.196331	21007.284150
47.037500	0.001243	-0.000096	0.003706	-0.000876	6332.513357	41555.705474	3872.427166	21032.151807
47.537500	0.000991	0.000834	0.002464	0.002136	6307.311192	41371.259228	3863.365580	20907.272773
48.035000	0.000430	-0.000149	-0.003422	0.001581	6307.269047	41333.522329	3852.136866	20930.230517
48.535000	-0.001303	0.000390	0.004131	0.001197	6296.902610	41415.020852	3868.905333	20946.111797
49.036000	0.000748	0.000178	0.006093	-0.000677	6327.138260	41562.426263	3877.121758	21023.890012
49.536000	0.001228	0.000026	-0.000130	-0.000729	6331.261544	41553.528976	3863.940572	21026.048147
50.036500	0.000930	-0.000212	0.003576	-0.003515	6350.585832	41780.389492	3877.811771	21142.290279
50.536500	-0.001392	-0.000413	0.005636	0.003627	6277.640033	41130.060717	3866.935578	20845.765136
51.037000	-0.014319	-0.027721	0.007395	0.031044	5983.892359	36614.966245	3813.923382	19751.682195
51.540000	-0.017219	-0.030470	-0.001922	0.165813	5164.142205	27489.725818	3567.974865	15272.487686
52.037000	-0.023142	-0.048940	-0.009448	-0.177120	7741.564788	54701.947426	4296.093688	30076.678113
52.535000	-0.024440	-0.116521	-0.013412	-0.327275	9693.773263	65530.401786	4837.668541	41276.091176
53.035500	-0.018738	-0.101240	-0.009816	-0.309837	9514.411738	65220.564819	4778.228000	39768.196589
53.535500	-0.017752	-0.071576	-0.003757	-0.268039	8927.110070	63506.012163	4633.240532	36391.010480
54.035500	-0.014226	-0.041362	-0.003473	-0.210066	8224.762897	59759.190929	4422.970067	32213.650346
54.536000	-0.018700	-0.034384	-0.010187	-0.198888	8038.626732	59212.842601	4363.233053	31470.371358
55.036000	-0.021875	-0.033350	-0.014154	-0.200532	8020.779114	59560.771492	4355.656619	31578.538558
55.536500	-0.025099	-0.044133	-0.014244	-0.228453	8316.535193	61837.517511	4449.155877	33478.672260
56.037500	-0.017764	-0.033382	-0.008643	-0.199892	8061.327297	59473.164893	4371.592163	31536.358269
56.537500	-0.017855	-0.025259	-0.012045	-0.150714	7514.915471	54378.644310	4208.674299	28477.221585
57.035000	-0.019455	-0.019863	-0.007044	-0.100145	7000.072632	49302.409832	4082.588686	25672.693025
57.535000	-0.012835	-0.016608	-0.004760	-0.079000	6867.396807	47433.526045	4034.149964	24593.453767
58.035000	-0.012276	-0.011747	-0.007122	-0.057206	6681.239841	45734.179658	3975.107785	23534.717519
58.535500	-0.004130	-0.007624	-0.001169	-0.066701	6835.244900	47095.632449	4012.484439	23989.443211
59.035500	-0.006800	-0.009268	-0.006897	-0.083818	6966.107384	48695.148964	4040.906111	24834.733880
59.536000	-0.007603	-0.007553	-0.001982	-0.052362	6679.774189	45670.241204	3975.810416	23306.529034
60.036500	-0.002038	-0.003563	-0.002843	-0.036308	6591.164528	44501.047623	3936.351464	22568.211215
60.537000	-0.003784	-0.003811	-0.004608	-0.026852	6498.860942	43583.865705	3911.011349	22145.934668
61.040000	-0.003382	-0.003099	0.001811	-0.027816	6509.994939	43740.918353	3927.610467	22188.592400
61.534500	-0.005128	-0.005045	-0.004743	-0.019848	6431.610555	42821.190133	3895.224429	21839.025392
62.035000	-0.008692	-0.003523	-0.006665	-0.010092	6326.949965	42073.198169	3869.958764	21419.734739
62.535000	-0.004600	0.003123	-0.007333	-0.010356	6360.820744	42699.914006	3869.096096	21430.927352
63.035500	-0.005223	0.005476	-0.011017	-0.011598	6365.663463	43030.035634	3863.902477	21483.839684
63.535500	-0.005093	0.006956	-0.013240	-0.017508	6413.269199	43717.070855	3871.753609	21737.585755
64.036500	0.001692	0.007973	-0.005277	-0.018893	6478.724379	43942.891197	3891.965845	21797.562406
64.536500	0.000267	0.007602	-0.009187	-0.020542	6480.532828	44063.619927	3887.036923	21869.210880
65.036500	0.002375	0.008544	-0.006815	-0.021823	6508.069838	44274.421447	3895.011942	21925.069702
65.540000	-0.000233	0.008422	-0.009780	-0.022481	6492.199152	44325.369518	3889.967998	21953.813280
66.037000	0.000664	0.009140	-0.010222	-0.019129	6472.331766	44075.481841	3881.732035	21807.828500
66.538000	0.002887	0.008688	-0.007612	-0.017614	6478.046644	43889.812990	3884.101338	21742.175216
67.035000	0.001355	0.008706	-0.006755	-0.017131	6461.792943	43846.104887	3884.911350	21721.322182
67.535500	0.004040	0.010081	-0.009580	-0.015643	6471.439499	43835.464680	3875.604002	21657.165286
68.035500	0.002614	0.009300	-0.008310	-0.016669	6468.209124	43858.393806	3880.545542	21701.353608
68.536000	0.003325	0.009095	-0.007460	-0.016057	6469.007170	43781.633410	3881.059820	21674.980628
69.036500	0.004908	0.009089	-0.003372	-0.015175	6474.671997	43698.329436	3888.013495	21637.019298
69.536500	0.003635	0.009991	-0.005122	-0.015837	6469.738662	43845.265984	3885.647720	21665.511728
70.039500	0.004729	0.009334	-0.002870	-0.017770	6494.240610	43965.422981	3894.777164	21748.933459
70.536500	0.004718	0.009218	-0.002996	-0.017870	6494.964098	43963.889810	3894.718929	21753.262423
71.035000	0.003406	0.009027	-0.007471	-0.016906	6476.515575	43855.037166	3882.871346	21711.578946
71.535000	0.003381	0.009571	-0.003282	-0.015838	6467.700563	43805.857339	3889.653192	21665.558020
72.035000	0.004313	0.010307	-0.001130	-0.015027	6468.667240	43798.708813	3892.580962	21630.637873
72.535500	0.005192	0.009659	-0.003419	-0.014167	6468.819022	43657.303116	3885.717591	21593.702261
73.035500	0.002765	0.009840	-0.002888	-0.014088	6448.665611	43666.860155	3886.700480	21590.311366
73.536000	0.006690	0.009919	-0.000619	-0.014328	6482.227834	43696.777936	3892.170362	21600.621345
74.036000	0.007053	0.010007	-0.004934	-0.014768	6488.739078	43746.251063	3883.738231	21619.526990
74.536500	0.005105	0.009780	-0.004706	-0.015303	6477.299983	43775.167800	3885.392802	21642.533859
75.039500	0.006315	0.009592	-0.002108	-0.013994	6476.494922	43634.824213	3888.192088	21586.281370
75.537000	0.006714	0.010260	-0.005643	-0.014796	6486.210946	43772.617452	3882.262478	21620.718727
76.034500	0.005783	0.009894	-0.003323	-0.015008	6480.394237	43758.258968	3887.755942	21629.853519
76.535000	0.007241	0.009617	-0.001789	-0.015055	6492.588490	43736.620873	3891.201898	21631.843656
77.035000	0.006268	0.009215	-0.001355	-0.014304	6478.624871	43628.562456	3890.510232	21599.600438
77.535500	0.008377	0.009284	0.000375	-0.014006	6493.298638	43607.167929	3893.639953	21586.798576
78.036000	0.009204	0.008592	-0.001320	-0.014173	6501.374251	43558.024614	3890.298589	21593.963989
78.536000	0.009554	0.008068	0.005063	-0.013769	6500.943706	43471.519091	3903.433624	21576.654876
79.036500	0.008558	0.006495	0.003493	-0.014646	6499.972781	43406.694931	3901.903785	21614.285833
79.536500	0.006911	0.005498	-0.000687	-0.014887	6488.554142	43336.453192	3893.245276	21624.651856
80.037000	0.006988	0.004777	0.007487	-0.015660	6495.447905	43341.207944	3913.024379	21657.868933
80.537500	0.005822	0.004403	-0.000378	-0.015806	6487.173027	43320.059421	3895.934273	21664.180932
81.037500	0.007622	0.003072	0.011344	-0.016751	6509.499471	43284.296030	3924.143029	21704.916449
81.535000	0.008496	0.003592	0.003829	-0.016689	6516.123514	43326.738406	3907.169752	21702.210848
82.035500	0.005743	0.002563	0.008035	-0.016885	6495.283968	43249.482852	3916.995510	21710.687237
82.535500	0.010572	0.003151	0.004836	-0.017259	6537.825732	43338.729154	3910.680397	21726.861680
83.036000	0.009815	0.001867	0.012117	-0.018167	6539.063859	43303.838321	3929.102230	21766.127670
83.536000	0.011733	0.001980	0.010536	-0.017940	6553.001637	43293.214191	3925.002994	21756.286971
84.036500	0.008915	0.000372	0.008244	-0.018007	6530.357398	43150.483313	3919.985869	21759.208853
84.539500	0.008892	0.000647	0.013337	-0.018106	6530.978314	43185.092949	3931.737881	21763.494741
85.037000	0.009887	0.001438	0.006965	-0.017506	6534.215901	43202.759256	3915.987541	21737.500023
85.537500	0.010276	-0.000432	0.009052	-0.018187	6543.017177	43092.830659	3922.210610	21766.975462
86.034500	0.009749	0.000272	0.010505	-0.017004	6528.961708	43048.540882	3922.819186	21715.808010
86.535500	0.010704	0.000068	0.013106	-0.017152	6538.027269	43043.474299	3929.042050	21722.235429
87.035500	0.011870	-0.001603	0.015729	-0.018018	6554.772140	42969.242589	3936.996550	21759.652722
87.535500	0.010892	-0.001434	0.018988	-0.017241	6540.305493	42913.413275	3942.694463	21726.075553
88.036000	0.010188	-0.001140	0.013336	-0.014810	6514.592692	42717.396931	3924.257156	21621.312997
88.536500	0.010636	-0.000873	0.015862	-0.015261	6521.944917	42783.073178	3931.006469	21640.691540
89.037000	0.011410	-0.002207	0.012796	-0.015523	6530.436254	42685.052784	3924.647168	21651.962691
89.537000	0.010222	-0.001594	0.015567	-0.014710	6514.055227	42666.812913	3929.084723	21617.026987
90.037000	0.009430	-0.001505	0.016611	-0.012177	6487.003902	42444.224297	3925.709843	21508.560277
90.535000	0.011683	-0.001538	0.014376	-0.013500	6516.108840	42561.447227	3923.647822	21565.113452
91.035500	0.009998	-0.002189	0.016590	-0.012501	6494.233940	42411.385193	3926.395123	21522.367856
91.535500	0.011250	-0.001597	0.014317	-0.012411	6503.694225	42457.034081	3921.058527	21518.534200
92.036000	0.009713	-0.002190	0.014384	-0.010492	6475.650136	42229.408068	3916.894913	21436.712004
92.536000	0.010052	-0.002441	0.013570	-0.012177	6492.048653	42359.213273	3918.851963	21508.553747
93.036500	0.011491	-0.001774	0.017763	-0.009991	6485.991721	42221.803039	3923.373590	21415.442115
93.536500	0.010314	-0.002542	0.015050	-0.011041	6484.964321	42247.234685	3919.626204	21460.105979
94.036500	0.007330	-0.002363	0.011589	-0.008155	6437.720256	42003.343389	3905.452748	21337.569622
94.537000	0.008903	-0.003200	0.018088	-0.010629	6470.221580	42150.630751	3925.547707	21442.544336
95.037000	0.009703	-0.002046	0.014422	-0.008311	6457.994767	42045.853808	3912.101377	21344.170697
95.535000	0.009440	-0.002279	0.018938	-0.009345	6464.199283	42117.938865	3924.568054	21387.990984
96.035500	0.011028	-0.001562	0.019803	-0.008469	6469.937481	42103.568132	3924.542353	21350.851876
96.535500	0.013128	-0.002282	0.012973	-0.008506	6487.215518	42042.154043	3909.306601	21352.413962
