sample name	sample
index	976
start time	 04-14-2021  02:55:40 PM
880	-0.000640
Peak Time (s)	101.535
Peak Height 	-6.403E-4
calc peak height	100,103
Baseline Time (s)	10.035
Baseline Value 	-0.003916
subtract baseline	10,4
Abs	0.031511
Peak Time (s)	102.037
Peak Height 	0.03151
calc peak height	100,103
Baseline Time (s)	9.535
Baseline Value 	-2.9166E-4
subtract baseline	10,3
PK_550	0.029776
Peak Time (s)	102.537
Peak Height 	0.02978
calc peak height	100,103
Baseline Time (s)	8.537
Baseline Value 	4.8775E-4
subtract baseline	10,2
PK_880	0.039067
Peak Time (s)	102.537
Peak Height 	0.03907
calc peak height	100,103
Baseline Time (s)	8.537
Baseline Value 	0.001964
subtract baseline	10,1


Time (s)	A880-A510	A880-A775	A880-A975	A880	I510	I775	I975	I880	
0.040500	-0.004586	-0.001028	-0.005573	0.005967	6239.353374	41601.006221	3926.700392	21918.308030
0.535500	-0.001999	-0.000473	0.000980	0.003161	6281.070561	41901.557056	3949.472316	22041.608556
1.035500	-0.001790	-0.000428	0.003394	0.004155	6274.967579	41816.479748	3952.969293	21997.848430
1.539500	-0.003313	-0.000020	0.001094	0.001143	6286.547241	42123.877165	3954.726647	22130.742899
2.036000	-0.000855	-0.000129	0.002816	0.001642	6301.854918	42069.066749	3957.752759	22108.654034
2.536000	-0.000224	-0.000640	-0.000498	-0.000040	6320.018848	42174.779422	3953.717834	22183.233143
3.037000	-0.001029	-0.000009	0.001684	0.002999	6289.889229	41957.707648	3951.602709	22048.739737
3.536500	-0.001906	-0.000524	0.001399	-0.000048	6306.863156	42185.971605	3958.430379	22183.574767
4.037000	-0.000964	-0.000583	0.008202	-0.000353	6316.663570	42208.282032	3976.204199	22197.138995
4.537500	-0.002038	-0.000463	0.001990	0.000100	6304.668828	42178.159519	3959.529719	22177.014904
5.035000	-0.001318	0.000020	0.008151	0.000104	6310.280097	42221.436752	3974.922650	22176.808703
5.535000	0.000121	0.000260	0.004628	0.000118	6321.492801	42241.882053	3966.052206	22176.203238
6.035500	-0.000867	-0.000635	0.001531	-0.000672	6319.924478	42232.336422	3960.304562	22211.275267
6.535500	0.000159	-0.000144	0.001163	0.000055	6322.280669	42210.950428	3957.589193	22178.973575
7.036000	-0.001569	0.000037	0.005109	-0.000269	6311.238621	42256.747833	3968.223688	22193.381173
7.536500	0.000233	0.000642	0.002866	0.000129	6322.277704	42275.411560	3961.632760	22175.693525
8.036500	-0.001868	0.000372	0.001051	0.000026	6306.585580	42260.359139	3957.385434	22180.304944
8.537000	0.000000	0.000000	-0.001326	0.000035	6321.191607	42225.883958	3951.489856	22179.894734
9.034500	0.001392	-0.000554	-0.001274	-0.000827	6338.979391	42253.719284	3953.743155	22218.176997
9.535000	-0.001563	-0.000318	0.000000	-0.000185	6310.631835	42216.961568	3955.305460	22189.655658
10.035000	-0.001621	0.000427	-0.000605	0.000000	6308.722792	42267.737115	3953.353746	22181.437567
10.535500	0.000410	0.001300	0.000222	0.000424	6321.359843	42308.365416	3954.348650	22162.627553
11.038500	0.000576	-0.000160	0.003442	-0.000857	6332.774826	42292.179802	3965.527255	22219.544584
11.536000	-0.000853	0.000515	0.002881	0.000001	6314.748745	42275.608949	3961.991288	22181.412630
12.036000	-0.001958	-0.000665	0.001897	-0.001740	6319.745225	42326.416156	3963.873355	22258.830394
12.536500	-0.001058	-0.000331	0.000833	-0.001045	6321.363401	42293.636856	3959.498769	22227.876676
13.037000	-0.000963	0.000308	0.004456	-0.002476	6333.400238	42481.751665	3972.118786	22291.679132
13.537000	-0.001967	0.000303	0.001509	-0.000297	6308.334244	42283.290590	3959.319884	22194.611169
14.037500	-0.002750	0.000360	0.001066	-0.000224	6301.626009	42281.858860	3958.041038	22191.372629
14.534500	-0.001046	0.000104	0.002472	0.000865	6306.447187	42160.198355	3958.826554	22143.069006
15.035500	-0.002880	-0.000495	0.002182	0.001541	6286.818246	42045.186457	3956.432755	22113.125486
15.556000	-0.000756	0.000004	0.001942	-0.000650	6320.629290	42288.242548	3961.275195	22210.329292
16.036000	-0.000248	0.000372	0.003234	-0.000259	6321.547941	42286.192723	3963.516032	22192.936281
16.536000	0.001047	0.000397	0.005136	-0.000209	6331.371083	42283.913776	3968.139461	22190.722918
17.036500	-0.005111	-0.000953	0.001168	0.003050	6257.792856	41868.396435	3950.205846	22046.483091
17.536500	0.001494	-0.000126	-0.000632	-0.004050	6365.407626	42585.800008	3963.329401	22362.101941
18.034000	-0.000069	0.000429	0.004292	0.000037	6320.626177	42264.535860	3965.415227	22179.786204
18.537000	-0.001877	-0.000467	0.002988	0.000223	6304.970071	42166.638531	3961.704730	22171.545825
19.035000	-0.001759	0.000079	0.004362	0.000632	6302.692342	42179.057786	3964.106723	22153.413224
19.534500	-0.000763	-0.000321	0.002991	-0.000025	6315.663395	42202.235754	3962.329005	22182.562857
20.035000	-0.001719	-0.000244	0.003113	-0.000367	6310.835300	42240.185715	3963.482672	22197.732187
20.538500	0.001324	0.000203	0.001661	0.000662	6326.684197	42187.537919	3957.321347	22152.071025
21.034500	-0.002677	-0.000368	-0.001893	0.000401	6297.309686	42159.469700	3949.193504	22163.640968
21.536000	0.000523	0.000436	0.001007	0.000540	6321.332471	42219.645931	3956.003667	22157.481928
22.036500	-0.001237	-0.000015	0.001271	-0.000245	6313.665070	42249.882501	3958.601983	22192.316502
22.536500	0.000383	-0.000186	0.001191	-0.000084	6325.138750	42219.800602	3958.003099	22185.153763
23.037000	0.000359	0.001282	0.001519	0.001009	6316.352000	42253.768997	3956.109911	22136.709783
23.534500	0.000671	0.000553	0.000896	0.000725	6321.046841	42213.458790	3955.272186	22149.292782
24.035000	0.001408	0.000039	0.001569	0.000060	6332.099808	42227.114729	3958.583805	22178.764395
24.535000	-0.002125	-0.000576	0.001619	-0.000774	6310.845576	42246.934903	3960.778578	22215.835162
25.038000	-0.000818	0.000046	0.004266	-0.000420	6318.333823	42271.263056	3966.494359	22200.103771
25.535500	-0.000653	-0.000181	0.001162	-0.000001	6316.338561	42212.729201	3957.727282	22181.488014
26.035500	-0.001864	-0.000164	0.003788	-0.000517	6310.870627	42260.980310	3965.538754	22204.386023
26.536500	0.000325	0.000176	-0.001270	0.000174	6322.649799	42229.208408	3951.283015	22173.695207
27.036500	-0.001662	-0.000005	-0.003383	0.000161	6307.135595	42213.939665	3946.124117	22174.274201
27.537000	0.001205	0.000222	-0.002513	0.000211	6329.303536	42230.107646	3948.136924	22172.091549
28.037000	-0.000742	-0.000181	0.003807	-0.002846	6338.083023	42471.027650	3971.418702	22308.236471
28.537500	-0.001127	-0.000192	0.001503	-0.001107	6321.303765	42311.952624	3961.319228	22230.646440
29.046000	-0.000655	-0.000140	0.003368	0.000929	6309.014203	42132.359312	3960.893893	22140.228013
29.535000	-0.000502	0.000753	0.001123	0.000905	6310.402728	42215.232856	3955.385556	22141.286008
30.036000	0.000434	-0.000032	0.002147	-0.000571	6329.383677	42277.783159	3961.586248	22206.787570
30.536000	0.000660	-0.000203	0.003357	-0.000833	6333.240748	42286.038181	3965.254072	22218.440985
31.048500	-0.001744	-0.000005	0.000709	-0.000932	6315.076966	42313.007722	3958.909644	22222.845989
31.540000	-0.001674	-0.000066	-0.003116	0.001387	6297.447684	42097.806714	3943.777726	22119.971386
32.037000	-0.001564	-0.000877	-0.002624	0.000073	6308.598085	42143.131685	3948.203781	22178.204175
32.569500	-0.000194	-0.000141	0.001626	-0.001398	6330.961239	42342.964139	3962.347114	22243.600300
33.037500	-0.002444	-0.001150	-0.002622	0.001875	6287.621183	41956.209377	3943.789069	22098.356261
33.535000	-0.000515	-0.000263	0.002749	0.000219	6315.688642	42185.445338	3961.120047	22171.709377
34.035500	-0.001058	-0.000848	0.000585	-0.001228	6322.801582	42263.479278	3959.338061	22236.042091
34.538000	-0.001945	-0.000133	-0.001866	0.000336	6303.548195	42186.582724	3949.419951	22166.532529
35.035500	-0.004506	0.000050	0.001654	0.001426	6275.065063	42104.726209	3955.412530	22118.245785
35.536000	-0.001964	-0.000458	-0.000577	0.000812	6299.670472	42114.256203	3951.420140	22145.423207
36.036500	-0.000591	0.000393	0.003595	0.000821	6310.366314	42190.342455	3961.727952	22145.033244
36.537000	-0.002220	0.000124	-0.004951	0.000095	6303.279611	42231.623275	3942.448099	22177.221532
37.037000	-0.001062	-0.000378	0.001711	0.000956	6305.603933	42108.439798	3956.715027	22139.017990
37.537000	-0.003764	0.000642	0.000351	0.002059	6275.916963	42101.001579	3950.635450	22090.242278
38.034500	-0.000413	-0.000469	0.004524	-0.000036	6318.490694	42189.801576	3966.177901	22183.019121
38.535000	-0.000987	-0.000597	-0.002623	-0.000163	6314.979779	42189.720039	3948.783507	22188.668472
39.035000	-0.000398	0.000313	0.001037	0.001041	6310.156180	42163.252667	3954.840017	22135.286488
39.535500	-0.000706	-0.000678	0.005926	-0.000295	6318.233128	42194.388896	3970.335594	22194.553267
40.036000	-0.000598	-0.000276	0.003208	0.000090	6316.051053	42195.924283	3962.580102	22177.425236
40.536000	0.000127	-0.000229	-0.002095	0.000183	6321.029449	42191.777298	3949.234301	22173.336224
41.036500	-0.001021	0.000024	0.004433	0.000716	6307.807500	42166.376176	3964.074034	22149.651583
41.536500	-0.000480	0.000742	0.003978	0.000773	6311.613433	42226.240321	3962.799113	22147.153596
42.037000	-0.001641	0.000203	0.002957	0.000427	6305.215483	42208.783487	3961.118619	22162.477000
42.534500	-0.000202	0.000670	0.006011	0.000951	6312.402041	42203.629013	3967.428928	22139.272140
43.035000	-0.002693	-0.000176	-0.000975	0.000784	6294.194533	42142.260829	3950.509153	22146.675946
43.535000	-0.001232	-0.000231	0.006112	0.000245	6309.851874	42186.004619	3969.446916	22170.573111
44.035000	-0.000454	-0.000093	0.005878	0.000183	6316.455215	42204.091980	3969.016486	22173.320704
44.535500	-0.000485	0.000545	0.004056	-0.001628	6330.485387	42426.205618	3968.989959	22253.875420
45.036000	-0.001424	0.000567	0.004961	0.002585	6290.034687	42046.789849	3960.734390	22066.986948
45.536500	0.001315	0.000066	0.001487	-0.001001	6339.757821	42325.723519	3961.016661	22225.950221
46.036000	-0.000061	-0.000190	0.003333	-0.001412	6332.125105	42339.821148	3966.642225	22244.250857
46.536500	-0.001470	0.000783	0.005054	-0.000493	6313.782365	42344.733701	3968.646080	22203.359939
47.037000	-0.002098	-0.000841	-0.000404	0.004641	6268.806197	41736.005067	3942.452386	21976.494222
47.537500	-0.001224	-0.000315	-0.000974	-0.001074	6320.283282	42297.769558	3955.093972	22229.163464
48.053000	0.000063	0.000327	0.003628	-0.000767	6328.010863	42328.128681	3965.765648	22215.525747
48.536000	-0.001404	0.000389	0.006657	0.000966	6302.855538	42176.864203	3969.008068	22138.610065
49.035500	-0.002184	-0.000032	0.002287	0.004455	6269.574499	41825.057477	3949.502595	21984.649258
49.556000	-0.002595	0.000059	0.001988	0.004132	6268.895330	41862.091007	3949.561879	21998.830141
50.035500	0.000392	0.000864	0.000441	0.000148	6323.381686	42293.827104	3955.571361	22174.846451
50.536500	0.003232	0.000699	0.002978	0.000051	6346.604202	42287.640548	3962.104968	22179.151983
51.039500	-0.001943	0.000551	0.002510	0.004437	6271.590117	41878.952505	3950.096229	21985.458580
51.537000	0.000079	0.000784	0.003018	0.006013	6275.051376	41758.611375	3947.472213	21916.309804
52.037000	0.012222	-0.009861	0.006466	0.035929	6139.763920	38295.868415	3884.443341	20650.399458
52.535000	0.020876	-0.021361	0.018680	0.344079	4526.207694	19867.538559	3388.861134	11630.260447
53.035000	-0.010926	-0.025776	-0.027615	0.159483	5211.401834	28579.920118	3579.139716	16255.016528
53.538000	-0.030604	-0.047641	-0.064347	-0.219234	8181.890639	61274.131298	4414.824270	34843.648995
54.035500	-0.026136	-0.144273	-0.054282	-0.346475	10052.736537	65535.000000	4985.007427	45718.285367
54.536000	-0.018170	-0.123149	-0.040223	-0.325350	9839.298299	65535.000000	4951.059378	43685.329540
55.036000	-0.018425	-0.099606	-0.039079	-0.301807	9469.343720	65535.000000	4847.027427	41533.189428
55.536500	-0.009672	-0.072702	-0.038755	-0.271133	9146.027063	64993.691485	4714.348562	38898.516694
56.036500	-0.008680	-0.058673	-0.033957	-0.252654	8899.585412	64361.035646	4657.512636	37398.908663
56.537000	-0.009730	-0.047370	-0.029495	-0.235504	8653.401475	63539.447609	4606.373573	36063.089192
57.037500	-0.007740	-0.047467	-0.033429	-0.235794	8683.685991	63566.454376	4591.966078	36085.268303
57.535000	-0.005779	-0.032286	-0.028801	-0.204335	8303.973786	61335.520741	4489.483436	33766.324247
58.037500	-0.003389	-0.019426	-0.025145	-0.155909	7760.570589	56742.604988	4331.976703	30509.391797
58.535000	0.001754	-0.014102	-0.024309	-0.135842	7596.420790	54946.104997	4269.143931	29262.608312
59.035500	-0.001863	-0.009670	-0.023063	-0.111228	7300.916002	52584.032059	4196.450835	27809.987390
59.536000	-0.003436	-0.008290	-0.017660	-0.094142	7115.892615	50820.170010	4161.546113	26848.969840
60.036500	0.000927	-0.005052	-0.013848	-0.082925	7049.900018	49948.186829	4139.905995	26238.299369
60.537000	0.000566	-0.005030	-0.016235	-0.073189	6954.565323	48908.114660	4105.263025	25720.910228
61.037000	0.003654	-0.001971	-0.009006	-0.043836	6716.683983	46206.547681	4044.478295	24229.350176
61.537500	0.000741	-0.001994	-0.010465	-0.039692	6655.191360	45793.374638	4029.571463	24026.819085
62.034500	0.004652	-0.000272	-0.003709	-0.001087	6366.965277	42302.882650	3948.387779	22229.768265
62.535000	0.005402	0.000678	-0.006161	0.009856	6286.563842	41407.086175	3915.981223	21748.753187
63.035000	0.005435	0.003028	-0.003698	0.023352	6183.230462	40432.017629	3890.030432	21171.987921
63.535500	0.008759	0.004969	-0.001633	0.015254	6270.696120	41309.207231	3913.911629	21515.937489
64.036000	0.011416	0.006822	0.008023	0.022709	6233.676245	40817.218949	3919.158351	21199.073179
64.536000	0.013093	0.008062	0.000277	0.016363	6295.807175	41484.889475	3915.818260	21468.446617
65.036500	0.014324	0.008306	0.006765	0.023639	6248.886340	40865.528232	3913.941374	21159.914520
65.537000	0.010880	0.009256	0.004557	0.033744	6146.062213	40074.117109	3885.081749	20739.951686
66.036500	0.017775	0.011860	0.011078	0.023112	6279.690978	41223.700776	3925.511712	21182.082709
66.537000	0.015997	0.009363	0.004625	0.026901	6236.664962	40673.417172	3901.180411	21023.291320
67.035000	0.022105	0.010162	0.010997	0.027258	6281.128665	40711.860844	3915.401274	21008.393853
67.538000	0.020571	0.012568	0.009110	0.043181	6147.958312	39553.789170	3873.856874	20356.427621
68.035500	0.021841	0.011202	0.010266	0.031590	6245.542722	40426.489416	3903.416428	20828.647484
68.536000	0.023797	0.013213	0.008290	0.043900	6166.750322	39547.562661	3870.345247	20327.546549
69.036000	0.022349	0.008453	0.008569	0.029576	6265.016174	40362.998914	3904.162576	20911.970405
69.536000	0.020688	0.011732	0.005702	0.026320	6277.398377	40930.659261	3905.080466	21047.540543
70.036500	0.023189	0.014577	0.008759	0.012758	6404.610466	42394.016196	3945.010576	21623.240773
70.536500	0.020309	0.015706	0.008322	0.005523	6439.918043	43161.478436	3961.788131	21937.759039
71.059000	0.021952	0.016557	0.010393	-0.000537	6503.240557	43806.942118	3982.205108	22205.287898
71.549000	0.020414	0.016746	0.011414	0.002453	6465.886384	43544.120327	3977.227798	22072.843523
72.038000	0.023999	0.017993	0.008901	-0.000114	6516.741318	43902.459662	3977.363271	22186.522007
72.535500	0.023111	0.019023	0.014805	0.002558	6487.228019	43747.841895	3985.549778	22068.213216
73.035500	0.025035	0.019827	0.013204	0.008194	6456.699080	43296.071810	3967.301805	21821.036272
73.536000	0.021491	0.020104	0.016242	0.014899	6373.775491	42702.980824	3958.172895	21531.141593
74.036000	0.024488	0.019702	0.014861	0.006649	6464.886554	43428.317847	3975.338294	21888.485376
74.536000	0.024157	0.020525	0.014984	0.004885	6476.658563	43670.297527	3980.101843	21965.756819
75.036500	0.023084	0.020569	0.016493	0.002480	6487.647398	43900.765540	3990.049474	22071.659193
75.536500	0.021595	0.021208	0.013193	0.007273	6436.143780	43510.673163	3969.581252	21861.223001
76.036500	0.024845	0.020525	0.016165	0.002922	6498.554264	43854.937299	3988.083627	22052.154826
76.537500	0.026279	0.020682	0.015262	0.003682	6504.140186	43798.105897	3983.856373	22018.667836
77.037500	0.024038	0.020771	0.017831	0.005984	6466.640209	43590.279624	3984.531583	21917.549368
77.535500	0.021644	0.020468	0.015518	0.008777	6424.318460	43301.470127	3971.638763	21795.664799
78.035500	0.025027	0.021080	0.021746	0.005235	6480.950230	43689.588706	3996.442117	21950.419431
78.536000	0.025785	0.022360	0.015867	0.007401	6469.354165	43606.454618	3975.979318	21855.626801
79.036000	0.025820	0.023105	0.020793	0.009323	6453.888134	43496.376350	3983.576805	21771.927451
79.536000	0.026085	0.023423	0.016686	0.009302	6456.227180	43528.055892	3973.253207	21772.819282
80.037000	0.026481	0.023472	0.016631	0.007678	6472.794575	43684.761865	3977.205937	21843.518894
80.537500	0.028044	0.024990	0.013836	0.006297	6497.092910	43957.725740	3973.642549	21903.853506
81.037000	0.027692	0.025146	0.013928	0.007440	6484.738673	43864.608688	3971.003902	21853.931874
81.535000	0.026592	0.025063	0.010329	0.009207	6461.156117	43690.557707	3957.624362	21776.932208
82.035000	0.028150	0.025067	0.017333	0.002208	6531.997808	44353.260106	3992.888128	22083.647526
82.535500	0.029510	0.025542	0.017718	0.000886	6554.489573	44525.051257	3997.266640	22142.134312
83.035500	0.029142	0.026574	0.018339	0.000388	6555.577250	44671.814036	4000.143388	22164.195986
83.536000	0.025356	0.025059	0.014152	0.002139	6509.293438	44359.102439	3984.954732	22086.720412
84.036000	0.029973	0.026288	0.020468	-0.002537	6587.329444	44926.310695	4013.240794	22294.420499
84.536500	0.028415	0.026511	0.016909	-0.003249	6580.147579	45016.821531	4005.845346	22326.235666
85.037000	0.028109	0.026709	0.017789	-0.002992	6575.376551	45011.082855	4007.457536	22314.722425
85.537500	0.024103	0.025283	0.015728	-0.000082	6517.337431	44592.970397	3994.643606	22185.063761
86.034500	0.029206	0.026576	0.018314	-0.004079	6593.914800	45103.770319	4011.646335	22363.419111
86.537500	0.027946	0.026309	0.017836	-0.004486	6586.664357	45117.289697	4011.462250	22381.648665
87.035500	0.028495	0.026022	0.020211	-0.002181	6571.794290	44866.279648	4011.644303	22278.535584
87.535500	0.027640	0.025942	0.020954	-0.005202	6590.144638	45151.226141	4021.481715	22413.791288
88.036000	0.029152	0.026584	0.020997	-0.005304	6603.880386	45223.619660	4021.862036	22418.387340
88.536000	0.028370	0.026109	0.015781	-0.005875	6602.080189	45232.977076	4009.728273	22444.049753
89.036500	0.028006	0.027425	0.019324	-0.004264	6585.281661	45204.208583	4014.759979	22371.682021
89.536500	0.029393	0.027413	0.015447	-0.005418	6606.906159	45315.574221	4007.678957	22423.525229
90.034500	0.029735	0.027024	0.016929	-0.006008	6614.868381	45335.171206	4013.062512	22450.046027
90.537500	0.026856	0.027337	0.019648	-0.005883	6589.272678	45353.584571	4019.842396	22444.425463
91.040500	0.029184	0.027429	0.021818	-0.006397	6613.484401	45412.779351	4026.899749	22467.564295
91.535500	0.029103	0.027946	0.019392	-0.005577	6605.789380	45383.100469	4018.369568	22430.642638
92.035500	0.029773	0.028964	0.019363	-0.005064	6607.133685	45432.590003	4016.953857	22407.615315
92.535500	0.030886	0.029188	0.018706	-0.005143	6617.312370	45462.151568	4015.440301	22411.127411
93.036000	0.031358	0.029448	0.022229	-0.005285	6622.574469	45501.670791	4025.051110	22417.530581
93.536500	0.030017	0.028853	0.019840	-0.005917	6616.502170	45505.246281	4020.434067	22445.950370
94.041500	0.031794	0.028897	0.022384	-0.005673	6629.641162	45485.620071	4026.484191	22434.977888
94.536500	0.030891	0.030122	0.020801	-0.004901	6615.290626	45530.105993	4020.290711	22400.293148
95.037000	0.031829	0.029451	0.020181	-0.005320	6626.904576	45505.255253	4019.761181	22419.078262
95.537500	0.031713	0.028644	0.020979	-0.003436	6609.793837	45242.319935	4016.921012	22334.597330
96.035500	0.034248	0.029247	0.022949	-0.005597	6650.112517	45512.468800	4027.772194	22431.553717
96.535500	0.036060	0.029345	0.018858	-0.005276	6663.007530	45490.617495	4016.186518	22417.133157
97.035500	0.033236	0.029918	0.021157	-0.005184	6637.832095	45537.788146	4021.967969	22412.993942
97.536000	0.032257	0.030107	0.025667	-0.003341	6613.632478	45375.856179	4028.993167	22330.368534
98.036000	0.034588	0.030143	0.027153	-0.003956	6638.897984	45439.511348	4034.558533	22357.900037
98.536500	0.035498	0.029291	0.025883	-0.004307	6649.760877	45390.465335	4032.120409	22373.611814
99.037000	0.034820	0.029262	0.027228	-0.004291	6643.780082	45386.151907	4035.648406	22372.919508
99.537000	0.035448	0.030066	0.027500	-0.000623	6617.668803	45106.969158	4026.654590	22209.103354
100.034500	0.035708	0.028982	0.024785	-0.002948	6639.862832	45227.702356	4025.629252	22312.796092
100.537000	0.036047	0.028990	0.024804	-0.002926	6642.592353	45226.382156	4025.621144	22311.803283
101.036000	0.038277	0.029319	0.023710	-0.002496	6658.126172	45216.484941	4021.611541	22292.572254
101.535500	0.033620	0.028608	0.027800	-0.000640	6602.210973	44967.270309	4027.493520	22209.887799
102.036500	0.035810	0.029364	0.031511	-0.002001	6632.596628	45172.662049	4040.956599	22270.492684
102.536500	0.039067	0.029776	0.029041	-0.001188	6653.649816	45133.709176	4032.223640	22234.263905
103.036000	0.036200	0.028900	0.023207	0.000804	6611.894288	44855.811159	4011.670296	22145.754908
103.536500	0.038140	0.028746	0.026662	-0.000429	6639.107871	44960.173054	4023.936450	22200.473555
104.036500	0.037804	0.029778	0.031694	-0.000500	6636.827523	45067.014892	4037.441822	22203.635328
104.537500	0.038546	0.029846	0.022214	0.000039	6638.577768	45021.381147	4011.077885	22179.703121
105.034500	0.038364	0.029521	0.024735	0.000508	6632.977073	44944.550273	4016.430248	22158.905406
105.535000	0.038270	0.028648	0.023824	0.001731	6621.680621	44742.207589	4010.865931	22104.719546
106.035000	0.039977	0.029387	0.028645	0.000941	6643.128731	44889.718543	4025.552703	22139.701872
106.535500	0.037963	0.028998	0.029599	0.001507	6620.967410	44797.501828	4026.577060	22114.658427
107.036000	0.037490	0.029210	0.030952	0.001745	6614.885723	44795.010935	4029.519615	22104.113783
107.536000	0.036480	0.029227	0.026996	0.004128	6585.980346	44567.548181	4012.884366	21999.029666
108.036500	0.040228	0.029180	0.023121	0.002926	6628.220422	44678.377938	4005.938885	22051.948527
108.537000	0.041833	0.029362	0.030395	0.003827	6634.270981	44609.398518	4022.562946	22012.275398
109.037000	0.038560	0.030440	0.027712	0.007315	6576.605586	44378.656614	4006.464818	21859.390428
109.534500	0.042362	0.029031	0.028152	0.004672	6631.548823	44496.568045	4014.479136	21975.110543
110.038000	0.039894	0.029154	0.027632	0.005233	6605.626431	44454.699598	4011.661965	21950.507867
110.535000	0.039426	0.028640	0.031787	0.005579	6598.687805	44372.568185	4021.619735	21935.330387
111.035500	0.038349	0.028525	0.030109	0.008698	6563.143216	44065.056051	4009.093929	21799.106835
111.535500	0.040509	0.028528	0.028304	0.006741	6598.018172	44251.175290	4009.489880	21884.455563
112.035500	0.038870	0.028819	0.031239	0.007058	6581.398799	44248.668979	4016.308460	21870.584935
112.536000	0.042418	0.029239	0.027110	0.008487	6599.408674	44152.745854	4001.879552	21808.285848
113.036500	0.038708	0.028571	0.022772	0.010893	6547.689290	43861.972519	3984.613555	21703.825421
113.537000	0.041451	0.027886	0.032423	0.009319	6584.121353	43945.839069	4013.497676	21772.088024
114.039000	0.043338	0.028733	0.030218	0.009610	6597.681799	43998.402637	4007.010804	21759.448897
114.535000	0.042563	0.028105	0.030037	0.009948	6588.214744	43907.206834	4005.668113	21744.786515
