sample name	sample
index	598
start time	 03-16-2021  04:57:20 PM


Wavelength (nm)	Absorbance
494.344910	0.194822
494.563924	0.194822
494.782919	0.194822
495.001897	NaN
495.220856	-0.437332
495.439797	-0.472554
495.658719	-0.413363
495.877624	-0.503532
496.096510	-0.396376
496.315378	-0.375544
496.534227	-0.213659
496.753059	-0.280669
496.971872	-0.245999
497.190667	-0.024015
497.409444	-0.014464
497.628203	-0.010151
497.846943	-0.006718
498.065665	-0.005640
498.284369	-0.004715
498.503055	-0.004602
498.721723	-0.004078
498.940372	-0.004343
499.159003	-0.003135
499.377616	-0.002523
499.596210	-0.002186
499.814787	-0.002691
500.033345	-0.002952
500.251885	-0.003259
500.470406	-0.002559
500.688910	-0.002379
500.907395	-0.002110
501.125862	-0.002726
501.344311	-0.001643
501.562742	-0.001771
501.781154	-0.001705
501.999548	-0.001358
502.217924	-0.001524
502.436282	-0.003473
502.654621	-0.003634
502.872942	-0.003237
503.091245	-0.003681
503.309530	-0.004477
503.527797	-0.004428
503.746045	-0.003815
503.964275	-0.003397
504.182487	-0.003239
504.400681	-0.002136
504.618856	-0.001292
504.837013	-0.001530
505.055152	-0.000292
505.273273	-0.000303
505.491376	-0.000374
505.709460	-0.001551
505.927526	-0.001460
506.145574	-0.000544
506.363604	0.000297
506.581615	-0.000431
506.799608	-0.000327
507.017583	0.000100
507.235540	0.000621
507.453478	0.000050
507.671399	-0.000092
507.889301	-0.001804
508.107185	-0.002393
508.325050	-0.004073
508.542898	-0.005233
508.760727	-0.005628
508.978538	-0.006543
509.196330	-0.007533
509.414105	-0.007659
509.631861	-0.007014
509.849599	-0.005359
510.067319	-0.005422
510.285021	-0.005113
510.502704	-0.004236
510.720369	-0.003139
510.938016	-0.002787
511.155645	-0.002616
511.373255	-0.002883
511.590848	-0.002710
511.808422	-0.003255
512.025977	-0.003981
512.243515	-0.003480
512.461034	-0.004213
512.678536	-0.005053
512.896018	-0.004885
513.113483	-0.004584
513.330930	-0.003903
513.548358	-0.003744
513.765768	-0.003626
513.983160	-0.002682
514.200533	-0.003241
514.417889	-0.002435
514.635226	-0.002129
514.852545	-0.003349
515.069845	-0.003781
515.287128	-0.003553
515.504392	-0.004300
515.721638	-0.003691
515.938866	-0.004133
516.156075	-0.003447
516.373267	-0.002971
516.590440	-0.003032
516.807594	-0.003051
517.024731	-0.002787
517.241850	-0.002681
517.458950	-0.002181
517.676032	-0.003118
517.893095	-0.002853
518.110141	-0.003387
518.327168	-0.003479
518.544177	-0.004050
518.761168	-0.003098
518.978141	-0.002566
519.195095	-0.002487
519.412031	-0.002757
519.628949	-0.001878
519.845849	-0.002483
520.062731	-0.002695
520.279594	-0.002386
520.496439	-0.002239
520.713266	-0.002034
520.930074	-0.001904
521.146865	-0.002852
521.363637	-0.002127
521.580391	-0.002324
521.797127	-0.001542
522.013844	-0.001754
522.230543	-0.002067
522.447224	-0.001953
522.663887	-0.002346
522.880532	-0.002312
523.097158	-0.001659
523.313766	-0.002139
523.530356	-0.002239
523.746928	-0.002624
523.963481	-0.002235
524.180017	-0.002568
524.396534	-0.002467
524.613032	-0.002782
524.829513	-0.002973
525.045975	-0.002954
525.262420	-0.002666
525.478845	-0.002870
525.695253	-0.003191
525.911643	-0.003098
526.128014	-0.003082
526.344367	-0.003040
526.560702	-0.002998
526.777018	-0.003638
526.993316	-0.003992
527.209597	-0.004075
527.425858	-0.004001
527.642102	-0.003773
527.858328	-0.003140
528.074535	-0.002657
528.290724	-0.001485
528.506894	-0.000731
528.723047	0.000510
528.939181	0.000983
529.155297	0.000745
529.371395	0.001018
529.587475	0.001228
529.803536	0.001235
530.019579	0.001015
530.235604	0.000013
530.451611	-0.000238
530.667600	-0.000822
530.883570	-0.001101
531.099522	-0.000807
531.315456	-0.000644
531.531372	-0.000546
531.747269	-0.000302
531.963148	0.000650
532.179009	0.001436
532.394852	0.001100
532.610676	0.001064
532.826482	0.001538
533.042271	0.001632
533.258040	0.001571
533.473792	0.001883
533.689525	0.001352
533.905240	0.000868
534.120937	0.000438
534.336616	0.000619
534.552277	0.000495
534.767919	-0.000126
534.983543	0.000296
535.199149	-0.000257
535.414736	-0.000454
535.630306	-0.000366
535.845857	-0.000476
536.061390	-0.000193
536.276904	0.000154
536.492401	-0.000125
536.707879	0.000144
536.923339	-0.000117
537.138781	0.000029
537.354204	0.000183
537.569610	0.000581
537.784997	0.000588
538.000366	0.000960
538.215716	0.000728
538.431049	0.001301
538.646363	0.001674
538.861659	0.001810
539.076937	0.002654
539.292196	0.002756
539.507438	0.002575
539.722661	0.002288
539.937866	0.002606
540.153052	0.003066
540.368221	0.002993
540.583371	0.002931
540.798503	0.002776
541.013617	0.002385
541.228712	0.002401
541.443789	0.002940
541.658848	0.003079
541.873889	0.002571
542.088912	0.002171
542.303916	0.002444
542.518902	0.002860
542.733870	0.003279
542.948820	0.003426
543.163752	0.003147
543.378665	0.002743
543.593560	0.002852
543.808437	0.002783
544.023295	0.003210
544.238136	0.003007
544.452958	0.002809
544.667762	0.002827
544.882548	0.003034
545.097315	0.003562
545.312064	0.003444
545.526795	0.003239
545.741508	0.003653
545.956203	0.003185
546.170879	0.003217
546.385537	0.003590
546.600177	0.003397
546.814799	0.003280
547.029402	0.003202
547.243988	0.003486
547.458555	0.003870
547.673103	0.003509
547.887634	0.003859
548.102146	0.003779
548.316640	0.003511
548.531116	0.003746
548.745574	0.003408
548.960013	0.003970
549.174435	0.003970
549.388838	0.004296
549.603222	0.004288
549.817589	0.004655
550.031937	0.005026
550.246267	0.005121
550.460579	0.005159
550.674873	0.005746
550.889148	0.005184
551.103405	0.005182
551.317644	0.004345
551.531865	0.004497
551.746068	0.004443
551.960252	0.004810
552.174418	0.004833
552.388566	0.004858
552.602696	0.005262
552.816807	0.005385
553.030900	0.005649
553.244975	0.006680
553.459032	0.006682
553.673070	0.006753
553.887091	0.006289
554.101093	0.006560
554.315077	0.006899
554.529042	0.006398
554.742990	0.006194
554.956919	0.006179
555.170830	0.005721
555.384722	0.005865
555.598597	0.005958
555.812453	0.006003
556.026291	0.005975
556.240111	0.005477
556.453913	0.005790
556.667696	0.006150
556.881461	0.005977
557.095208	0.006141
557.308937	0.006021
557.522647	0.005645
557.736339	0.006025
557.950013	0.006048
558.163669	0.006397
558.377307	0.005862
558.590926	0.005899
558.804527	0.006224
559.018110	0.006373
559.231675	0.006528
559.445221	0.006512
559.658749	0.006131
559.872259	0.006127
560.085751	0.005922
560.299225	0.005730
560.512680	0.005593
560.726117	0.005422
560.939536	0.005396
561.152937	0.005518
561.366319	0.005816
561.579683	0.005863
561.793029	0.005743
562.006357	0.005554
562.219667	0.006427
562.432958	0.006396
562.646231	0.006700
562.859486	0.006478
563.072723	0.006557
563.285941	0.006426
563.499141	0.006873
563.712323	0.006964
563.925487	0.007159
564.138632	0.007205
564.351760	0.007186
564.564869	0.007462
564.777960	0.007722
564.991032	0.007807
565.204087	0.008013
565.417123	0.007981
565.630141	0.007863
565.843140	0.007878
566.056122	0.007911
566.269085	0.007879
566.482030	0.007108
566.694957	0.007461
566.907866	0.007382
567.120756	0.007509
567.333628	0.007239
567.546482	0.007087
567.759318	0.007312
567.972135	0.006961
568.184935	0.007044
568.397716	0.007334
568.610478	0.006681
568.823223	0.006616
569.035949	0.006649
569.248657	0.006803
569.461347	0.007160
569.674019	0.007324
569.886672	0.007309
570.099308	0.007355
570.311925	0.007118
570.524523	0.007379
570.737104	0.006939
570.949666	0.006591
571.162210	0.006619
571.374736	0.006288
571.587244	0.005919
571.799733	0.005988
572.012205	0.006128
572.224658	0.006048
572.437092	0.006248
572.649509	0.006375
572.861907	0.006764
573.074287	0.006941
573.286649	0.007045
573.498993	0.007192
573.711318	0.007247
573.923625	0.007220
574.135914	0.007944
574.348185	0.007538
574.560438	0.007820
574.772672	0.007934
574.984888	0.007681
575.197086	0.007845
575.409266	0.007931
575.621427	0.007638
575.833570	0.007584
576.045695	0.007257
576.257802	0.007496
576.469890	0.007437
576.681961	0.007083
576.894013	0.007146
577.106046	0.007287
577.318062	0.007142
577.530059	0.007500
577.742039	0.007447
577.954000	0.007348
578.165942	0.007254
578.377867	0.007389
578.589773	0.007340
578.801661	0.007443
579.013531	0.007581
579.225382	0.007566
579.437216	0.007529
579.649031	0.007538
579.860828	0.007384
580.072606	0.007791
580.284367	0.007849
580.496109	0.007881
580.707833	0.007865
580.919539	0.007904
581.131227	0.007660
581.342896	0.007599
581.554547	0.007916
581.766180	0.008022
581.977795	0.007379
582.189391	0.007047
582.400969	0.007101
582.612529	0.007304
582.824071	0.006926
583.035595	0.006968
583.247100	0.006921
583.458587	0.006634
583.670056	0.006791
583.881506	0.007393
584.092939	0.007504
584.304353	0.007245
584.515749	0.006774
584.727127	0.007158
584.938486	0.007659
585.149828	0.007892
585.361151	0.007997
585.572456	0.007765
585.783742	0.007430
585.995011	0.007389
586.206261	0.007492
586.417493	0.007662
586.628706	0.007576
586.839902	0.007377
587.051079	0.007064
587.262238	0.007135
587.473379	0.007215
587.684502	0.007422
587.895606	0.007558
588.106692	0.007491
588.317760	0.007538
588.528810	0.007457
588.739841	0.007424
588.950855	0.007755
589.161850	0.007631
589.372827	0.007731
589.583785	0.007679
589.794726	0.007807
590.005648	0.007949
590.216552	0.007970
590.427437	0.007577
590.638305	0.007685
590.849154	0.007297
591.059985	0.007319
591.270798	0.007140
591.481592	0.006813
591.692369	0.006726
591.903127	0.006907
592.113867	0.006819
592.324588	0.006919
592.535292	0.006708
592.745977	0.006983
592.956644	0.007016
593.167293	0.007255
593.377923	0.007571
593.588536	0.007363
593.799130	0.006958
594.009706	0.007124
594.220263	0.007462
594.430803	0.007568
594.641324	0.007152
594.851827	0.007035
595.062312	0.006937
595.272778	0.006908
595.483227	0.007210
595.693657	0.007554
595.904069	0.007216
596.114462	0.007047
596.324838	0.007198
596.535195	0.007526
596.745534	0.007605
596.955855	0.007765
597.166157	0.007750
597.376441	0.007426
597.586707	0.007321
597.796955	0.007696
598.007185	0.007748
598.217396	0.007418
598.427589	0.007110
598.637764	0.007299
598.847921	0.006898
599.058060	0.006758
599.268180	0.006947
599.478282	0.006878
599.688366	0.006845
599.898431	0.007164
600.108479	0.007245
600.318508	0.007515
600.528519	0.007356
600.738511	0.007438
600.948486	0.007639
601.158442	0.007623
601.368380	0.007631
601.578300	0.007388
601.788202	0.006756
601.998085	0.006650
602.207950	0.006736
602.417797	0.006786
602.627626	0.006801
602.837436	0.006688
603.047228	0.006642
603.257002	0.006615
603.466758	0.006547
603.676496	0.006534
603.886215	0.006863
604.095916	0.006880
604.305599	0.006983
604.515264	0.007499
604.724910	0.007537
604.934538	0.007966
605.144148	0.008225
605.353740	0.008499
605.563314	0.008760
605.772869	0.008341
605.982406	0.008294
606.191925	0.008440
606.401425	0.008021
606.610908	0.008243
606.820372	0.007796
607.029818	0.007872
607.239246	0.007695
607.448655	0.007980
607.658047	0.008279
607.867420	0.008576
608.076775	0.008337
608.286111	0.008655
608.495430	0.008546
608.704730	0.008779
608.914012	0.008401
609.123275	0.008539
609.332521	0.008250
609.541748	0.008310
609.750957	0.008150
609.960148	0.008147
610.169321	0.008055
610.378475	0.008185
610.587611	0.008109
610.796729	0.008194
611.005829	0.008464
611.214910	0.008562
611.423974	0.008720
611.633019	0.008772
611.842045	0.008860
612.051054	0.008653
612.260044	0.008828
612.469017	0.009047
612.677970	0.009372
612.886906	0.009366
613.095824	0.009339
613.304723	0.009351
613.513604	0.009377
613.722467	0.009384
613.931311	0.009781
614.140138	0.009344
614.348946	0.008848
614.557736	0.008625
614.766507	0.008221
614.975261	0.008405
615.183996	0.008361
615.392713	0.008534
615.601412	0.008716
615.810092	0.008412
616.018754	0.008659
616.227399	0.008916
616.436024	0.009015
616.644632	0.009190
616.853222	0.009026
617.061793	0.009042
617.270346	0.008925
617.478880	0.008971
617.687397	0.009023
617.895895	0.008869
618.104375	0.009147
618.312837	0.009304
618.521281	0.009165
618.729706	0.009303
618.938113	0.009225
619.146502	0.008969
619.354873	0.008702
619.563226	0.008690
619.771560	0.008875
619.979876	0.008502
620.188174	0.008677
620.396453	0.009106
620.604715	0.009094
620.812958	0.009030
621.021183	0.009141
621.229390	0.009394
621.437578	0.009549
621.645748	0.009566
621.853900	0.009973
622.062034	0.009783
622.270150	0.009591
622.478247	0.009794
622.686326	0.010046
622.894387	0.010160
623.102430	0.010452
623.310454	0.010458
623.518461	0.010723
623.726449	0.010646
623.934418	0.010779
624.142370	0.010854
624.350303	0.010946
624.558218	0.010959
624.766115	0.010995
624.973994	0.010941
625.181855	0.011175
625.389697	0.010751
625.597521	0.010861
625.805327	0.010824
626.013114	0.010961
626.220883	0.011001
626.428634	0.010861
626.636367	0.010831
626.844082	0.010786
627.051778	0.010707
627.259457	0.011007
627.467117	0.010910
627.674758	0.011137
627.882382	0.011218
628.089987	0.011312
628.297574	0.011500
628.505143	0.011469
628.712694	0.011390
628.920226	0.011410
629.127740	0.011592
629.335236	0.011625
629.542714	0.011539
629.750174	0.011565
629.957615	0.011427
630.165038	0.011454
630.372443	0.011762
630.579829	0.011887
630.787198	0.011931
630.994548	0.011569
631.201880	0.011847
631.409194	0.011829
631.616489	0.011860
631.823766	0.011719
632.031025	0.011759
632.238266	0.011636
632.445489	0.011480
632.652693	0.011452
632.859879	0.011634
633.067047	0.011642
633.274197	0.011701
633.481329	0.011671
633.688442	0.011690
633.895537	0.011549
634.102614	0.011536
634.309672	0.011415
634.516713	0.011428
634.723735	0.011479
634.930739	0.011392
635.137724	0.011375
635.344692	0.011215
635.551641	0.011385
635.758572	0.011604
635.965485	0.012004
636.172379	0.012335
636.379256	0.012318
636.586114	0.012407
636.792954	0.012264
636.999775	0.012236
637.206579	0.012528
637.413364	0.012566
637.620131	0.012406
637.826880	0.012136
638.033610	0.012139
638.240323	0.012151
638.447017	0.012101
638.653692	0.012121
638.860350	0.012235
639.066990	0.012294
639.273611	0.012225
639.480214	0.012249
639.686798	0.012275
639.893365	0.012100
640.099913	0.012233
640.306443	0.012406
640.512955	0.012685
640.719449	0.012669
640.925924	0.012570
641.132381	0.012668
641.338820	0.012810
641.545241	0.012778
641.751644	0.013116
641.958028	0.013042
642.164394	0.013274
642.370742	0.013288
642.577071	0.013137
642.783383	0.013242
642.989676	0.013339
643.195951	0.013359
643.402207	0.013387
643.608446	0.013211
643.814666	0.013216
644.020868	0.012980
644.227052	0.012992
644.433218	0.013251
644.639365	0.013335
644.845494	0.013363
645.051605	0.013396
645.257698	0.013601
645.463772	0.013700
645.669828	0.013784
645.875866	0.013772
646.081886	0.013906
646.287888	0.013789
646.493871	0.013679
646.699836	0.013708
646.905783	0.013840
647.111712	0.013710
647.317622	0.013579
647.523514	0.013549
647.729388	0.013617
647.935244	0.013362
648.141082	0.013498
648.346901	0.013419
648.552702	0.013249
648.758485	0.013067
648.964250	0.013036
649.169996	0.013266
649.375724	0.013260
649.581434	0.013261
649.787126	0.013386
649.992800	0.013395
650.198455	0.013591
650.404092	0.013696
650.609711	0.013819
650.815311	0.013872
651.020894	0.013981
651.226458	0.013937
651.432004	0.014016
651.637532	0.014116
651.843041	0.014149
652.048532	0.014050
652.254006	0.014119
652.459460	0.014277
652.664897	0.014442
652.870315	0.014432
653.075716	0.014683
653.281097	0.014678
653.486461	0.014629
653.691807	0.014619
653.897134	0.014863
654.102443	0.014910
654.307734	0.014753
654.513006	0.014716
654.718261	0.014655
654.923497	0.014559
655.128715	0.014562
655.333915	0.014530
655.539096	0.014568
655.744259	0.014491
655.949404	0.014526
656.154531	0.014578
656.359640	0.014461
656.564730	0.014487
656.769802	0.014622
656.974856	0.014558
657.179892	0.014509
657.384909	0.014434
657.589908	0.014339
657.794889	0.014439
657.999852	0.014520
658.204797	0.014755
658.409723	0.014705
658.614631	0.014653
658.819521	0.014750
659.024393	0.014828
659.229246	0.015106
659.434081	0.015164
659.638898	0.015220
659.843697	0.015273
660.048478	0.015206
660.253240	0.015315
660.457984	0.015348
660.662710	0.015400
660.867417	0.015543
661.072107	0.015473
661.276778	0.015559
661.481431	0.015590
661.686066	0.015753
661.890682	0.015928
662.095281	0.016031
662.299861	0.016196
662.504422	0.016289
662.708966	0.016489
662.913491	0.016613
663.117999	0.016621
663.322488	0.016516
663.526958	0.016317
663.731411	0.016243
663.935845	0.016093
664.140261	0.016055
664.344659	0.016086
664.549038	0.015997
664.753400	0.016144
664.957743	0.016369
665.162068	0.016531
665.366375	0.016519
665.570663	0.016576
665.774933	0.016750
665.979185	0.016770
666.183419	0.016800
666.387635	0.016701
666.591832	0.016525
666.796011	0.016276
667.000172	0.016277
667.204315	0.016542
667.408439	0.016631
667.612545	0.016484
667.816634	0.016526
668.020703	0.016404
668.224755	0.016612
668.428788	0.016673
668.632803	0.016577
668.836800	0.016514
669.040779	0.016442
669.244739	0.016444
669.448681	0.016636
669.652605	0.016672
669.856511	0.016813
670.060399	0.016906
670.264268	0.016964
670.468119	0.017237
670.671952	0.017306
670.875767	0.017371
671.079563	0.017557
671.283341	0.017638
671.487101	0.017422
671.690843	0.017581
671.894567	0.017549
672.098272	0.017397
672.301959	0.017488
672.505628	0.017321
672.709278	0.017331
672.912911	0.017018
673.116525	0.016833
673.320121	0.017023
673.523699	0.016848
673.727258	0.016829
673.930799	0.016876
674.134322	0.016750
674.337827	0.017141
674.541314	0.017144
674.744782	0.017323
674.948232	0.017534
675.151664	0.017560
675.355078	0.017732
675.558474	0.017678
675.761851	0.017938
675.965210	0.018075
676.168551	0.017938
676.371873	0.018146
676.575178	0.018110
676.778464	0.017896
676.981732	0.018131
677.184981	0.018107
677.388213	0.018178
677.591426	0.017949
677.794621	0.017938
677.997798	0.017838
678.200956	0.017707
678.404097	0.017713
678.607219	0.018084
678.810323	0.018150
679.013408	0.018271
679.216476	0.018258
679.419525	0.018374
679.622556	0.018438
679.825569	0.018626
680.028563	0.018646
680.231540	0.018790
680.434498	0.018521
680.637438	0.018348
680.840359	0.018276
681.043263	0.018273
681.246148	0.018327
681.449015	0.018287
681.651864	0.018430
681.854694	0.018658
682.057506	0.018541
682.260301	0.018652
682.463076	0.018891
682.665834	0.018982
682.868573	0.019090
683.071295	0.019004
683.273998	0.019061
683.476682	0.018953
683.679349	0.018744
683.881997	0.018973
684.084627	0.018993
684.287239	0.018849
684.489833	0.018900
684.692408	0.018856
684.894965	0.019215
685.097504	0.019316
685.300025	0.019406
685.502527	0.019401
685.705012	0.019358
685.907478	0.019450
686.109925	0.019563
686.312355	0.019301
686.514766	0.019341
686.717159	0.019356
686.919534	0.019205
687.121891	0.019038
687.324230	0.019097
687.526550	0.019073
687.728852	0.019132
687.931136	0.019247
688.133401	0.019433
688.335649	0.019302
688.537878	0.018974
688.740089	0.019277
688.942281	0.019536
689.144456	0.019748
689.346612	0.019780
689.548750	0.019819
689.750870	0.019697
689.952971	0.019637
690.155055	0.019779
690.357120	0.019997
690.559167	0.019914
690.761195	0.019830
690.963206	0.019763
691.165198	0.019901
691.367172	0.020010
691.569128	0.020155
691.771065	0.020440
691.972984	0.020573
692.174885	0.020712
692.376768	0.020835
692.578633	0.020846
692.780479	0.020956
692.982308	0.021123
693.184118	0.021129
693.385909	0.020972
693.587683	0.021243
693.789438	0.021417
693.991175	0.021358
694.192894	0.021208
694.394595	0.021233
694.596277	0.021123
694.797941	0.020896
694.999587	0.020903
695.201215	0.021091
695.402824	0.020736
695.604416	0.020619
695.805989	0.020648
696.007543	0.020900
696.209080	0.021101
696.410598	0.021228
696.612099	0.021348
696.813580	0.021432
697.015044	0.021436
697.216490	0.021549
697.417917	0.021815
697.619326	0.021832
697.820717	0.021504
698.022089	0.021453
698.223444	0.021398
698.424780	0.021354
698.626098	0.021344
698.827397	0.021445
699.028679	0.021363
699.229942	0.021181
699.431187	0.021277
699.632414	0.021531
699.833622	0.021380
700.034813	0.021355
700.235985	0.021400
700.437139	0.021302
700.638274	0.021231
700.839392	0.021262
701.040491	0.021156
701.241572	0.020977
701.442635	0.020820
701.643679	0.020954
701.844706	0.020960
702.045714	0.020996
702.246704	0.021085
702.447675	0.021173
702.648629	0.021093
702.849564	0.021085
703.050481	0.021269
703.251380	0.021432
703.452260	0.021291
703.653122	0.021277
703.853966	0.021308
704.054792	0.021396
704.255600	0.021175
704.456389	0.021331
704.657160	0.021465
704.857913	0.021398
705.058648	0.021443
705.259365	0.021520
705.460063	0.021559
705.660743	0.021277
705.861405	0.021045
706.062048	0.021077
706.262674	0.021071
706.463281	0.020968
706.663870	0.020878
706.864441	0.020696
707.064993	0.020621
707.265527	0.020568
707.466043	0.020902
707.666541	0.021072
707.867021	0.021244
708.067482	0.021143
708.267925	0.021281
708.468350	0.021690
708.668757	0.021644
708.869145	0.021602
709.069516	0.021799
709.269868	0.021607
709.470201	0.021385
709.670517	0.021356
709.870814	0.021440
710.071093	0.021295
710.271354	0.020850
710.471597	0.021063
710.671821	0.021164
710.872028	0.021119
711.072216	0.020947
711.272385	0.021039
711.472537	0.021072
711.672670	0.021217
711.872785	0.021292
712.072882	0.021372
712.272961	0.021307
712.473021	0.021574
712.673063	0.021363
712.873087	0.021301
713.073093	0.021470
713.273081	0.021476
713.473050	0.021286
713.673001	0.021194
713.872934	0.021253
714.072849	0.021128
714.272745	0.020987
714.472623	0.021144
714.672483	0.021404
714.872325	0.021168
715.072148	0.020751
715.271954	0.020720
715.471741	0.020880
715.671509	0.020763
715.871260	0.020847
716.070992	0.020420
716.270707	0.020328
716.470403	0.020279
716.670080	0.020369
716.869740	0.020713
717.069381	0.020717
717.269004	0.020545
717.468609	0.020465
717.668195	0.020498
717.867764	0.020706
718.067314	0.020698
718.266846	0.020574
718.466360	0.020284
718.665855	0.020119
718.865332	0.020043
719.064791	0.019757
719.264232	0.019750
719.463655	0.019495
719.663059	0.019473
719.862445	0.019406
720.061813	0.019586
720.261163	0.019482
720.460494	0.019364
720.659807	0.019237
720.859102	0.019521
721.058379	0.019335
721.257638	0.019300
721.456878	0.019368
721.656100	0.019144
721.855304	0.018927
722.054490	0.019233
722.253657	0.019213
722.452806	0.019265
722.651937	0.019143
722.851050	0.019213
723.050145	0.019256
723.249221	0.019104
723.448279	0.019100
723.647319	0.019123
723.846340	0.018892
724.045344	0.018834
724.244329	0.018709
724.443296	0.018585
724.642245	0.018460
724.841175	0.018594
725.040088	0.018517
725.238982	0.018595
725.437857	0.018728
725.636715	0.018683
725.835554	0.018606
726.034376	0.018666
726.233179	0.018796
726.431963	0.018924
726.630730	0.018634
726.829478	0.018592
727.028208	0.018772
727.226920	0.018632
727.425614	0.018610
727.624289	0.018774
727.822946	0.018728
728.021585	0.018547
728.220206	0.018452
728.418808	0.018451
728.617392	0.018397
728.815958	0.018026
729.014506	0.018104
729.213036	0.018151
729.411547	0.017878
729.610040	0.017940
729.808515	0.017834
730.006972	0.017713
730.205410	0.017858
730.403831	0.017767
730.602233	0.017929
730.800616	0.017741
730.998982	0.017638
731.197329	0.017799
731.395658	0.017678
731.593969	0.017620
731.792262	0.017701
731.990536	0.017388
732.188793	0.017410
732.387031	0.017061
732.585250	0.016836
732.783452	0.016760
732.981635	0.016418
733.179800	0.016301
733.377947	0.016405
733.576076	0.016193
733.774186	0.016124
733.972278	0.016186
734.170352	0.016429
734.368408	0.016442
734.566446	0.016364
734.764465	0.016509
734.962466	0.016314
735.160449	0.016380
735.358413	0.016542
735.556360	0.016667
735.754288	0.016687
735.952198	0.016402
736.150090	0.016415
736.347963	0.016450
736.545818	0.016479
736.743655	0.016721
736.941474	0.016497
737.139275	0.016064
737.337057	0.015694
737.534821	0.015501
737.732567	0.015554
737.930295	0.015566
738.128005	0.015613
738.325696	0.015457
738.523369	0.015182
738.721024	0.015120
738.918660	0.015198
739.116279	0.015368
739.313879	0.015224
739.511461	0.015150
739.709024	0.014947
739.906570	0.014685
740.104097	0.014573
740.301606	0.014519
740.499097	0.014416
740.696569	0.014492
740.894024	0.014229
741.091460	0.014198
741.288878	0.014347
741.486277	0.014283
741.683659	0.014407
741.881022	0.014365
742.078367	0.014443
742.275694	0.014518
742.473002	0.014439
742.670293	0.014657
742.867565	0.014605
743.064819	0.014581
743.262054	0.014549
743.459272	0.014313
743.656471	0.014205
743.853652	0.014212
744.050815	0.014159
744.247959	0.014174
744.445085	0.014261
744.642194	0.014352
744.839283	0.014178
745.036355	0.014399
745.233408	0.014377
745.430444	0.014591
745.627461	0.014639
745.824459	0.014726
746.021440	0.014717
746.218402	0.014476
746.415346	0.014519
746.612272	0.014570
746.809180	0.014404
747.006069	0.014509
747.202940	0.014321
747.399793	0.014273
747.596628	0.014086
747.793444	0.013938
747.990243	0.014052
748.187023	0.013784
748.383784	0.013659
748.580528	0.013463
748.777253	0.013442
748.973960	0.013483
749.170649	0.013447
749.367320	0.013287
749.563973	0.013195
749.760607	0.013013
749.957223	0.012953
750.153821	0.012883
750.350400	0.012874
750.546962	0.012768
750.743505	0.012626
750.940030	0.012380
751.136536	0.012511
751.333025	0.012529
751.529495	0.012700
751.725947	0.012877
751.922381	0.012833
752.118796	0.012873
752.315194	0.012977
752.511573	0.012932
752.707934	0.012880
752.904276	0.012747
753.100601	0.012777
753.296907	0.012541
753.493195	0.012209
753.689465	0.012113
753.885716	0.011869
754.081949	0.011628
754.278164	0.011522
754.474361	0.011495
754.670540	0.011563
754.866700	0.011613
755.062843	0.011652
755.258967	0.011670
755.455072	0.011784
755.651160	0.012040
755.847229	0.012187
756.043280	0.012302
756.239313	0.012476
756.435328	0.012603
756.631324	0.012530
756.827302	0.012562
757.023262	0.012917
757.219204	0.013100
757.415127	0.013084
757.611033	0.013058
757.806920	0.013231
758.002788	0.013171
758.198639	0.013203
758.394471	0.013172
758.590286	0.013370
758.786081	0.013257
758.981859	0.013025
759.177619	0.013220
759.373360	0.013269
759.569083	0.013346
759.764788	0.013711
759.960474	0.013355
760.156143	0.013369
760.351793	0.013062
760.547425	0.013091
760.743038	0.013062
760.938634	0.012959
761.134211	0.012943
761.329770	0.012619
761.525311	0.012248
761.720833	0.012267
761.916338	0.012426
762.111824	0.012353
762.307292	0.012429
762.502741	0.012629
762.698173	0.012440
762.893586	0.012475
763.088981	0.012470
763.284358	0.012498
763.479716	0.012545
763.675057	0.012556
763.870379	0.012904
764.065683	0.012719
764.260968	0.012566
764.456236	0.012682
764.651485	0.012417
764.846716	0.012556
765.041929	0.012484
765.237123	0.012451
765.432299	0.012180
765.627457	0.011826
765.822597	0.011766
766.017719	0.011926
766.212822	0.011774
766.407907	0.012052
766.602974	0.012179
766.798023	0.012053
766.993054	0.012341
767.188066	0.012440
767.383060	0.012670
767.578036	0.012600
767.772993	0.012417
767.967933	0.012356
768.162854	0.012057
768.357757	0.011949
768.552642	0.011823
768.747508	0.011612
768.942356	0.011636
769.137186	0.011423
769.331998	0.011456
769.526792	0.011172
769.721567	0.011411
769.916324	0.011440
770.111063	0.011239
770.305784	0.011206
770.500486	0.010891
770.695171	0.010941
770.889837	0.011072
771.084484	0.011071
771.279114	0.011134
771.473725	0.010892
771.668318	0.010792
771.862893	0.010866
772.057450	0.011047
772.251988	0.011300
772.446509	0.011365
772.641011	0.011304
772.835494	0.011242
773.029960	0.011299
773.224407	0.011277
773.418836	0.011353
773.613247	0.011448
773.807640	0.011400
774.002014	0.011233
774.196370	0.011234
774.390708	0.011125
774.585028	0.011115
774.779330	0.011465
774.973613	0.011342
775.167878	0.011384
775.362125	0.011367
775.556354	0.011370
775.750564	0.011483
775.944756	0.011394
776.138930	0.011472
776.333086	0.011519
776.527223	0.011292
776.721343	0.011394
776.915444	0.011715
777.109526	0.011577
777.303591	0.011638
777.497637	0.011704
777.691666	0.011664
777.885676	0.011445
778.079667	0.011333
778.273641	0.011465
778.467596	0.011652
778.661533	0.011112
778.855452	0.011218
779.049352	0.011193
779.243235	0.011110
779.437099	0.011025
779.630945	0.011312
779.824773	0.011250
780.018582	0.010885
780.212373	0.010840
780.406146	0.010887
780.599901	0.010848
780.793638	0.010658
780.987356	0.010634
781.181056	0.010544
781.374738	0.010537
781.568402	0.010725
781.762047	0.010806
781.955674	0.010655
782.149283	0.011018
782.342874	0.011030
782.536447	0.011198
782.730001	0.011289
782.923537	0.011566
783.117055	0.011436
783.310555	0.011438
783.504036	0.011800
783.697499	0.011841
783.890944	0.011690
784.084371	0.011815
784.277780	0.011866
784.471170	0.011819
784.664542	0.011647
784.857896	0.011753
785.051231	0.011743
785.244549	0.011715
785.437848	0.011626
785.631129	0.011746
785.824392	0.011533
786.017636	0.011703
786.210863	0.011650
786.404071	0.011626
786.597260	0.011719
786.790432	0.011846
786.983585	0.011697
787.176721	0.011925
787.369838	0.011986
787.562936	0.012221
787.756017	0.012089
787.949079	0.012337
788.142123	0.012480
788.335149	0.012590
788.528156	0.012525
788.721146	0.012682
788.914117	0.012680
789.107070	0.012599
789.300005	0.012690
789.492921	0.012630
789.685819	0.012513
789.878699	0.012528
790.071561	0.012470
790.264405	0.012644
790.457230	0.012519
790.650037	0.012693
790.842826	0.012736
791.035597	0.012598
791.228349	0.012806
791.421084	0.012801
791.613800	0.012827
791.806497	0.012706
791.999177	0.012709
792.191838	0.012741
792.384481	0.012673
792.577106	0.012446
792.769713	0.012467
792.962301	0.012270
793.154871	0.012465
793.347423	0.012425
793.539957	0.012516
793.732473	0.012346
793.924970	0.012403
794.117449	0.012365
794.309910	0.012660
794.502353	0.012501
794.694777	0.012617
794.887183	0.012355
795.079571	0.012405
795.271941	0.012176
795.464293	0.012089
795.656626	0.012058
795.848941	0.012122
796.041238	0.012139
796.233516	0.012357
796.425777	0.012383
796.618019	0.012688
796.810243	0.012795
797.002449	0.013320
797.194636	0.013545
797.386805	0.013674
797.578956	0.013827
797.771089	0.013687
797.963204	0.013767
798.155300	0.014159
798.347378	0.014234
798.539438	0.014282
798.731480	0.014022
798.923503	0.013881
799.115509	0.013854
799.307496	0.013714
799.499465	0.013792
799.691415	0.013828
799.883348	0.013519
800.075262	0.013425
800.267158	0.013355
800.459035	0.013309
800.650895	0.013201
800.842736	0.013149
801.034559	0.013058
801.226364	0.013149
801.418150	0.012903
801.609919	0.012761
801.801669	0.012909
801.993401	0.012828
802.185114	0.012988
802.376810	0.013337
802.568487	0.013375
802.760146	0.013339
802.951787	0.013124
803.143409	0.013113
803.335014	0.013273
803.526600	0.013125
803.718168	0.013133
803.909717	0.013405
804.101249	0.013259
804.292762	0.013409
804.484257	0.013660
804.675734	0.013913
804.867192	0.014133
805.058632	0.014324
805.250054	0.014415
805.441458	0.014682
805.632844	0.014572
805.824211	0.014911
806.015561	0.015034
806.206891	0.015124
806.398204	0.015050
806.589499	0.015216
806.780775	0.015393
806.972033	0.015636
807.163273	0.015649
807.354495	0.015498
807.545698	0.015509
807.736883	0.015312
807.928050	0.015279
808.119199	0.015328
808.310329	0.015438
808.501441	0.015335
808.692535	0.015293
808.883611	0.015492
809.074669	0.015739
809.265708	0.015808
809.456729	0.016010
809.647732	0.016019
809.838717	0.016232
810.029683	0.016230
810.220632	0.016263
810.411562	0.016413
810.602474	0.016386
810.793367	0.016265
810.984242	0.016314
811.175100	0.016170
811.365938	0.016189
811.556759	0.016100
811.747562	0.016015
811.938346	0.015860
812.129112	0.015965
812.319860	0.015939
812.510589	0.015971
812.701300	0.015872
812.891994	0.015934
813.082668	0.015961
813.273325	0.016180
813.463964	0.016212
813.654584	0.016415
813.845186	0.016211
814.035769	0.016242
814.226335	0.016307
814.416882	0.016729
814.607411	0.017032
814.797922	0.017089
814.988415	0.017255
815.178889	0.017193
815.369345	0.017127
815.559783	0.017031
815.750203	0.016905
815.940605	0.017055
816.130988	0.016874
816.321353	0.016670
816.511700	0.016814
816.702028	0.016724
816.892339	0.016901
817.082631	0.017030
817.272905	0.017202
817.463161	0.017456
817.653398	0.017475
817.843617	0.017332
818.033819	0.017358
818.224001	0.017234
818.414166	0.017032
818.604312	0.017048
818.794440	0.016992
818.984550	0.016958
819.174642	0.016597
819.364716	0.016587
819.554771	0.016819
819.744808	0.016926
819.934827	0.017013
820.124827	0.017307
820.314810	0.017305
820.504774	0.017390
820.694720	0.017523
820.884647	0.017805
821.074557	0.017723
821.264448	0.017552
821.454321	0.017415
821.644176	0.017487
821.834012	0.017490
822.023831	0.017406
822.213631	0.017374
822.403413	0.017295
822.593176	0.017354
822.782922	0.017441
822.972649	0.017624
823.162358	0.017990
823.352049	0.017979
823.541721	0.017999
823.731376	0.018317
823.921012	0.018316
824.110629	0.018135
824.300229	0.018211
824.489811	0.018334
824.679374	0.018129
824.868919	0.017905
825.058445	0.018121
825.247954	0.018023
825.437444	0.017778
825.626916	0.017845
825.816370	0.017726
826.005806	0.017564
826.195223	0.017326
826.384622	0.017453
826.574003	0.017549
826.763366	0.017588
826.952711	0.017531
827.142037	0.017839
827.331345	0.017803
827.520635	0.018283
827.709906	0.018356
827.899160	0.018623
828.088395	0.018844
828.277612	0.018960
828.466810	0.018987
828.655991	0.019193
828.845153	0.018993
829.034297	0.019132
829.223423	0.019210
829.412531	0.019263
829.601620	0.019396
829.790691	0.019321
829.979744	0.019013
830.168779	0.018931
830.357795	0.018843
830.546793	0.019107
830.735773	0.019167
830.924735	0.019189
831.113679	0.019402
831.302604	0.019185
831.491511	0.019182
831.680400	0.019691
831.869271	0.019530
832.058123	0.019637
832.246957	0.019428
832.435773	0.019239
832.624571	0.019052
832.813351	0.018959
833.002112	0.019241
833.190855	0.019046
833.379580	0.018819
833.568287	0.019040
833.756975	0.019117
833.945645	0.019066
834.134297	0.019291
834.322931	0.019578
834.511547	0.019734
834.700144	0.019645
834.888723	0.019877
835.077284	0.020168
835.265826	0.019988
835.454351	0.019945
835.642857	0.020239
835.831345	0.020321
836.019815	0.020356
836.208266	0.020279
836.396699	0.020598
836.585114	0.020607
836.773511	0.020413
836.961890	0.020786
837.150250	0.020954
837.338592	0.021010
837.526916	0.021058
837.715222	0.021220
837.903510	0.021369
838.091779	0.021094
838.280030	0.021205
838.468263	0.021410
838.656477	0.021488
838.844674	0.021790
839.032852	0.021848
839.221012	0.021959
839.409153	0.021851
839.597277	0.021807
839.785382	0.022207
839.973469	0.022442
840.161538	0.022317
840.349589	0.022399
840.537621	0.022318
840.725635	0.022409
840.913631	0.022481
841.101609	0.022409
841.289568	0.022427
841.477509	0.022294
841.665432	0.022326
841.853337	0.022557
842.041224	0.022630
842.229092	0.022479
842.416942	0.022417
842.604774	0.022351
842.792588	0.022344
842.980383	0.022437
843.168160	0.022529
843.355919	0.022263
843.543660	0.022458
843.731382	0.022538
843.919087	0.022713
844.106773	0.022898
844.294441	0.023157
844.482090	0.023538
844.669722	0.023622
844.857335	0.023693
845.044930	0.023873
845.232507	0.023731
845.420065	0.023796
845.607605	0.023787
845.795127	0.023673
845.982631	0.023907
846.170117	0.023702
846.357584	0.023963
846.545033	0.023951
846.732464	0.024183
846.919877	0.024430
847.107272	0.024482
847.294648	0.024477
847.482006	0.024560
847.669346	0.024409
847.856667	0.024665
848.043971	0.024418
848.231256	0.024385
848.418523	0.024721
848.605771	0.024735
848.793002	0.024750
848.980214	0.025185
849.167408	0.025790
849.354584	0.025678
849.541742	0.025850
849.728881	0.026254
849.916002	0.026374
850.103105	0.026068
850.290190	0.026250
850.477256	0.026498
850.664304	0.026618
850.851334	0.026516
851.038346	0.026834
851.225340	0.027077
851.412315	0.027090
851.599272	0.027313
851.786211	0.027757
851.973132	0.027650
852.160034	0.027641
852.346918	0.027286
852.533784	0.027084
852.720632	0.026937
852.907462	0.026797
853.094273	0.026931
853.281066	0.027044
853.467841	0.026877
853.654598	0.027142
853.841336	0.027182
854.028056	0.027528
854.214758	0.027481
854.401442	0.027943
854.588107	0.028241
854.774755	0.028355
854.961384	0.028362
855.147995	0.028472
855.334587	0.028280
855.521162	0.028330
855.707718	0.028293
855.894256	0.028735
856.080775	0.028899
856.267277	0.028922
856.453760	0.029006
856.640225	0.029246
856.826672	0.029157
857.013101	0.029217
857.199511	0.029204
857.385903	0.029336
857.572277	0.029315
857.758633	0.029075
857.944970	0.028879
858.131290	0.028889
858.317591	0.028867
858.503873	0.029093
858.690138	0.029588
858.876384	0.029844
859.062612	0.030061
859.248822	0.030139
859.435014	0.030505
859.621188	0.030589
859.807343	0.030810
859.993480	0.030874
860.179599	0.030958
860.365699	0.030901
860.551781	0.030986
860.737846	0.031012
860.923891	0.030857
861.109919	0.030602
861.295929	0.030779
861.481920	0.030848
861.667893	0.030972
861.853848	0.031141
862.039784	0.031362
862.225702	0.031178
862.411603	0.031336
862.597484	0.031950
862.783348	0.032167
862.969193	0.032119
863.155021	0.031852
863.340830	0.031827
863.526620	0.031740
863.712393	0.031715
863.898147	0.031762
864.083883	0.031956
864.269601	0.031750
864.455301	0.031689
864.640982	0.031961
864.826645	0.032429
865.012290	0.032807
865.197917	0.032910
865.383526	0.032894
865.569116	0.033215
865.754688	0.033038
865.940242	0.033179
866.125777	0.033295
866.311295	0.033060
866.496794	0.032587
866.682275	0.032226
866.867737	0.032269
867.053182	0.032426
867.238608	0.032443
867.424016	0.032642
867.609406	0.032880
867.794778	0.032802
867.980131	0.033240
868.165466	0.033618
868.350783	0.033922
868.536082	0.034221
868.721362	0.033959
868.906625	0.034039
869.091869	0.034146
869.277094	0.033896
869.462302	0.034190
869.647491	0.034028
869.832662	0.033871
870.017815	0.034066
870.202950	0.033614
870.388066	0.033750
870.573165	0.033695
870.758245	0.033733
870.943306	0.033672
871.128350	0.033499
871.313375	0.033581
871.498382	0.033784
871.683371	0.033765
871.868342	0.034342
872.053294	0.034616
872.238229	0.034941
872.423144	0.034734
872.608042	0.034960
872.792922	0.035177
872.977783	0.035479
873.162626	0.035613
873.347451	0.035755
873.532258	0.035456
873.717046	0.035561
873.901816	0.035467
874.086568	0.035500
874.271302	0.035500
874.456017	0.035608
874.640715	0.035742
874.825394	0.036029
875.010055	0.036160
875.194697	0.036513
875.379322	0.036382
875.563928	0.036723
875.748516	0.036823
875.933085	0.037127
876.117637	0.037472
876.302170	0.037417
876.486685	0.037372
876.671182	0.037139
876.855661	0.037371
877.040121	0.037337
877.224563	0.037148
877.408987	0.037156
877.593393	0.037280
877.777780	0.036977
877.962150	0.036677
878.146501	0.036747
878.330833	0.036887
878.515148	0.036503
878.699444	0.036502
878.883722	0.036579
879.067982	0.036966
879.252224	0.037037
879.436447	0.037041
879.620653	0.037444
879.804840	0.037171
879.989008	0.037269
880.173159	0.037255
880.357291	0.037280
880.541405	0.037308
880.725501	0.037225
880.909579	0.036914
881.093638	0.037199
881.277680	0.037246
881.461703	0.037042
881.645707	0.037001
881.829694	0.037399
882.013662	0.037179
882.197612	0.036833
882.381544	0.036492
882.565458	0.036527
882.749353	0.036375
882.933230	0.036522
883.117089	0.036853
883.300930	0.036821
883.484753	0.036518
883.668557	0.037072
883.852343	0.037352
884.036111	0.037683
884.219861	0.037632
884.403592	0.037601
884.587305	0.037724
884.771000	0.037849
884.954677	0.037819
885.138335	0.038080
885.321976	0.038098
885.505598	0.038273
885.689201	0.038631
885.872787	0.038789
886.056354	0.038741
886.239904	0.038280
886.423434	0.038347
886.606947	0.038344
886.790442	0.038045
886.973918	0.038043
887.157376	0.037531
887.340816	0.037442
887.524237	0.037458
887.707641	0.037641
887.891026	0.037632
888.074393	0.037651
888.257741	0.037793
888.441072	0.038194
888.624384	0.037842
888.807678	0.038309
888.990954	0.038052
889.174211	0.038030
889.357451	0.038161
889.540672	0.038133
889.723875	0.037794
889.907059	0.037733
890.090226	0.037628
890.273374	0.038077
890.456504	0.038139
890.639616	0.037937
890.822709	0.038101
891.005785	0.037725
891.188842	0.037910
891.371881	0.038016
891.554901	0.038137
891.737904	0.038053
891.920888	0.037783
892.103854	0.037650
892.286802	0.038028
892.469731	0.038273
892.652643	0.038561
892.835536	0.038397
893.018410	0.038621
893.201267	0.038443
893.384106	0.038416
893.566926	0.038308
893.749728	0.038270
893.932511	0.038537
894.115277	0.037959
894.298024	0.037989
894.480753	0.038016
894.663464	0.037792
894.846157	0.038200
895.028831	0.038448
895.211487	0.038721
895.394125	0.039250
895.576745	0.038676
895.759346	0.039083
895.941930	0.038859
896.124495	0.039035
896.307041	0.039172
896.489570	0.039124
896.672080	0.038877
896.854573	0.038672
897.037046	0.038173
897.219502	0.038447
897.401940	0.038242
897.584359	0.038279
897.766760	0.038216
897.949143	0.038224
898.131507	0.037954
898.313854	0.037812
898.496182	0.037966
898.678492	0.037867
898.860783	0.037650
899.043057	0.037713
899.225312	0.037856
899.407549	0.037916
899.589768	0.037744
899.771968	0.037279
899.954151	0.037468
900.136315	0.037099
900.318461	0.037145
900.500588	0.037056
900.682698	0.036721
900.864789	0.036881
901.046862	0.036664
901.228917	0.036750
901.410953	0.036863
901.592971	0.036805
901.774972	0.036830
901.956953	0.037089
902.138917	0.036974
902.320862	0.037045
902.502790	0.036380
902.684699	0.036622
902.866589	0.036809
903.048462	0.036916
903.230316	0.037196
903.412152	0.037402
903.593970	0.037103
903.775770	0.036929
903.957551	0.036660
904.139314	0.037040
904.321059	0.036293
904.502786	0.035657
904.684494	0.035630
904.866185	0.035098
905.047857	0.035051
905.229510	0.034771
905.411146	0.034868
905.592763	0.035054
905.774363	0.035008
905.955943	0.035212
906.137506	0.035401
906.319051	0.035392
906.500577	0.035269
906.682085	0.034894
906.863575	0.034837
907.045046	0.034958
907.226500	0.034725
907.407935	0.034159
907.589352	0.034294
907.770750	0.034461
907.952131	0.034317
908.133493	0.034022
908.314837	0.034195
908.496163	0.034400
908.677470	0.034168
908.858760	0.034180
909.040031	0.034059
909.221284	0.033678
909.402518	0.033386
909.583735	0.033273
909.764933	0.033492
909.946113	0.033450
910.127275	0.033095
910.308418	0.032703
910.489544	0.032663
910.670651	0.032834
910.851740	0.032599
911.032810	0.032204
911.213863	0.031875
911.394897	0.031452
911.575913	0.031222
911.756911	0.031165
911.937890	0.031113
912.118851	0.031044
912.299794	0.030918
912.480719	0.031410
912.661626	0.031561
912.842514	0.031364
913.023384	0.031433
913.204236	0.031494
913.385070	0.031947
913.565886	0.031568
913.746683	0.031178
913.927462	0.031332
914.108223	0.030579
914.288965	0.030578
914.469690	0.031090
914.650396	0.031137
914.831084	0.030872
915.011754	0.029813
915.192405	0.029455
915.373038	0.030079
915.553653	0.029589
915.734250	0.029725
915.914829	0.029310
916.095389	0.028866
916.275931	0.028774
916.456455	0.028675
916.636961	0.028946
916.817448	0.029369
916.997917	0.028546
917.178368	0.028619
917.358801	0.028296
917.539216	0.028208
917.719612	0.027866
917.899990	0.027077
918.080350	0.026546
918.260692	0.026137
918.441015	0.025910
918.621320	0.025882
918.801607	0.025216
918.981876	0.025064
919.162127	0.024957
919.342359	0.024290
919.522573	0.024351
919.702769	0.024475
919.882947	0.024238
920.063106	0.023745
920.243247	0.023216
920.423370	0.023400
920.603475	0.023323
920.783562	0.023182
920.963630	0.023761
921.143680	0.023765
921.323712	0.023408
921.503725	0.023622
921.683721	0.023764
921.863698	0.023879
922.043657	0.023484
922.223598	0.023428
922.403520	0.023039
922.583424	0.022345
922.763311	0.022003
922.943178	0.022103
923.123028	0.021459
923.302859	0.021694
923.482673	0.021217
923.662467	0.021162
923.842244	0.020769
924.022003	0.020823
924.201743	0.021071
924.381465	0.021367
924.561169	0.020780
924.740854	0.020333
924.920522	0.019893
925.100171	0.019745
925.279802	0.019742
925.459414	0.019540
925.639009	0.019413
925.818585	0.019218
925.998143	0.019064
926.177683	0.019206
926.357205	0.019847
926.536708	0.019702
926.716193	0.019768
926.895660	0.019149
927.075109	0.018828
927.254539	0.018608
927.433951	0.018086
927.613345	0.017182
927.792721	0.016833
927.972079	0.016188
928.151418	0.015443
928.330739	0.014419
928.510042	0.014297
928.689327	0.014689
928.868593	0.014159
929.047841	0.014358
929.227071	0.014783
929.406283	0.014365
929.585476	0.014560
929.764652	0.014731
929.943809	0.015505
930.122948	0.014480
930.302068	0.013943
930.481171	0.013597
930.660255	0.012939
930.839321	0.011785
931.018369	0.011809
931.197398	0.010996
931.376409	0.010743
931.555402	0.009886
931.734377	0.010119
931.913334	0.009866
932.092272	0.009460
932.271192	0.009154
932.450094	0.009564
932.628978	0.009315
932.807844	0.008644
932.986691	0.008335
933.165520	0.007889
933.344331	0.008068
933.523123	0.006867
933.701898	0.006626
933.880654	0.006271
934.059392	0.005683
934.238111	0.004677
934.416813	0.004347
934.595496	0.003981
934.774161	0.003747
934.952808	0.003465
935.131437	0.002573
935.310047	0.002911
935.488639	0.002522
935.667213	0.001697
935.845769	0.002019
936.024306	0.002132
936.202825	0.001416
936.381326	0.001233
936.559809	0.000909
936.738274	0.002131
936.916720	0.001351
937.095148	0.000910
937.273558	0.001090
937.451950	0.000056
937.630323	-0.000978
937.808678	-0.001056
937.987015	-0.001425
938.165334	-0.001526
938.343635	-0.002677
938.521917	-0.002349
938.700181	-0.002822
938.878427	-0.003180
939.056655	-0.002400
939.234864	-0.001478
939.413055	-0.000922
939.591228	-0.001079
939.769383	-0.001347
939.947519	-0.001271
940.125638	-0.003133
940.303738	-0.002348
940.481820	-0.002765
940.659883	-0.002822
940.837929	-0.003026
941.015956	-0.003626
941.193965	-0.004261
941.371955	-0.004719
941.549928	-0.004922
941.727882	-0.003446
941.905818	-0.004949
942.083736	-0.004809
942.261636	-0.005789
942.439517	-0.006473
942.617380	-0.007139
942.795225	-0.006746
942.973052	-0.006631
943.150860	-0.006772
943.328651	-0.007554
943.506423	-0.006958
943.684176	-0.007120
943.861912	-0.007726
944.039629	-0.008229
944.217328	-0.008848
944.395009	-0.009425
944.572672	-0.011088
944.750317	-0.011707
944.927943	-0.012317
945.105551	-0.012979
945.283141	-0.013810
945.460712	-0.012998
945.638265	-0.013411
945.815801	-0.013652
945.993317	-0.014057
946.170816	-0.014254
946.348297	-0.013378
946.525759	-0.014030
946.703203	-0.013617
946.880629	-0.013787
947.058036	-0.015608
947.235425	-0.016015
947.412797	-0.017279
947.590149	-0.016424
947.767484	-0.015082
947.944800	-0.015780
948.122099	-0.015432
948.299379	-0.017285
948.476640	-0.016447
948.653884	-0.015852
948.831109	-0.014965
949.008316	-0.013979
949.185505	-0.015319
949.362676	-0.016944
949.539828	-0.016880
949.716962	-0.016707
949.894078	-0.015691
950.071176	-0.015748
950.248256	-0.015985
950.425317	-0.016891
950.602360	-0.016422
950.779385	-0.017399
950.956391	-0.017737
951.133380	-0.017112
951.310350	-0.016960
951.487302	-0.016367
951.664235	-0.017786
951.841151	-0.017459
952.018048	-0.016215
952.194927	-0.017235
952.371788	-0.014446
952.548631	-0.012580
952.725455	-0.013326
952.902261	-0.014344
953.079049	-0.015011
953.255819	-0.014092
953.432570	-0.013439
953.609303	-0.015469
953.786018	-0.014526
953.962715	-0.016607
954.139394	-0.017458
954.316054	-0.017053
954.492696	-0.018460
954.669320	-0.016912
954.845926	-0.017275
955.022513	-0.017471
955.199083	-0.016653
955.375634	-0.014648
955.552166	-0.014386
955.728681	-0.013340
955.905177	-0.016949
956.081655	-0.015915
956.258115	-0.016959
956.434557	-0.015097
956.610980	-0.013409
956.787385	-0.012797
956.963772	-0.013263
957.140141	-0.012079
957.316492	-0.013138
957.492824	-0.009476
957.669138	-0.009785
957.845434	-0.010765
958.021712	-0.012719
958.197971	-0.015630
958.374212	-0.016218
958.550435	-0.016469
958.726640	-0.016391
958.902826	-0.014326
959.078995	-0.014541
959.255145	-0.013022
959.431277	-0.011800
959.607390	-0.011490
959.783486	-0.011899
959.959563	-0.011482
960.135622	-0.011601
960.311662	-0.011689
960.487685	-0.012088
960.663689	-0.011345
960.839675	-0.009908
961.015643	-0.010485
961.191593	-0.012393
961.367524	-0.011765
961.543437	-0.012305
961.719332	-0.013244
961.895209	-0.014250
962.071067	-0.014498
962.246907	-0.014754
962.422730	-0.016735
962.598533	-0.017526
962.774319	-0.017819
962.950086	-0.016182
963.125835	-0.013841
963.301566	-0.013403
963.477279	-0.012056
963.652973	-0.013673
963.828650	-0.014002
964.004308	-0.012757
964.179947	-0.011004
964.355569	-0.008225
964.531172	-0.009336
964.706757	-0.010012
964.882324	-0.011007
965.057873	-0.012140
965.233403	-0.010381
965.408916	-0.009387
965.584410	-0.008327
965.759885	-0.007543
965.935343	-0.007240
966.110782	-0.007548
966.286203	-0.008387
966.461606	-0.007108
966.636991	-0.006357
966.812357	-0.005146
966.987705	-0.005362
967.163035	-0.005359
967.338347	-0.005013
967.513641	-0.005009
967.688916	-0.005360
967.864173	-0.005377
968.039412	-0.005408
968.214632	-0.005369
968.389835	-0.006507
968.565019	-0.006907
968.740185	-0.008866
968.915333	-0.010947
969.090462	-0.011110
969.265573	-0.010258
969.440667	-0.009075
969.615741	-0.008056
969.790798	-0.007341
969.965836	-0.008908
970.140856	-0.007975
970.315858	-0.006039
970.490842	-0.004068
970.665808	-0.004875
970.840755	-0.004351
971.015684	-0.006834
971.190595	-0.007456
971.365487	-0.006043
971.540362	-0.004917
971.715218	-0.006515
971.890056	-0.005401
972.064875	-0.006474
972.239677	-0.003326
972.414460	-0.003288
972.589225	-0.000781
972.763972	-0.000479
972.938700	-0.001498
973.113411	-0.000546
973.288103	0.000747
973.462777	-0.001380
973.637432	0.001046
973.812070	-0.000120
973.986689	-0.000251
974.161290	0.000557
974.335873	-0.001260
974.510437	0.000005
974.684984	0.001482
974.859512	0.000539
975.034022	0.001675
975.208513	0.001257
975.382987	-0.000381
975.557442	0.001140
975.731879	-0.000616
975.906298	0.000895
976.080698	-0.002541
976.255080	-0.004411
976.429445	-0.003460
976.603790	-0.003557
976.778118	-0.006850
976.952427	-0.005544
977.126719	-0.009769
977.300992	-0.008683
977.475246	-0.008212
977.649483	-0.007012
977.823701	-0.008698
977.997901	-0.009965
978.172083	-0.010698
978.346247	-0.007309
978.520392	-0.008585
978.694519	-0.006507
978.868628	-0.006467
979.042719	-0.007539
979.216791	-0.006007
979.390845	-0.005127
979.564882	-0.003772
979.738899	-0.004308
979.912899	-0.006874
980.086880	-0.005420
980.260843	-0.004994
980.434788	-0.005514
980.608715	-0.003136
980.782623	-0.002217
980.956514	-0.000721
981.130386	-0.000264
981.304240	0.001605
981.478075	0.004302
981.651892	0.004522
981.825692	0.007761
981.999472	0.009364
982.173235	0.007101
982.346980	0.005726
982.520706	0.003654
982.694414	0.003582
982.868104	0.004595
983.041775	-0.000416
983.215428	-0.000897
983.389064	-0.001684
983.562680	-0.001273
983.736279	-0.001619
983.909860	-0.001511
984.083422	-0.001932
984.256966	-0.001722
984.430491	-0.004803
984.603999	0.000236
984.777488	0.001621
984.950959	0.001419
985.124412	-0.001659
985.297847	-0.000760
985.471263	-0.000272
985.644661	0.001770
985.818041	-0.001854
985.991403	0.001233
986.164747	-0.000978
986.338072	-0.002322
986.511379	-0.002711
986.684668	-0.002520
986.857938	-0.002521
987.031191	-0.004158
987.204425	-0.004625
987.377641	-0.002299
987.550839	-0.006259
987.724018	-0.005795
987.897179	-0.005832
988.070322	-0.005949
988.243447	-0.004485
988.416554	-0.006326
988.589642	-0.004859
988.762712	-0.005412
988.935764	-0.004876
989.108798	-0.001708
989.281813	-0.000759
989.454811	-0.000448
989.627790	-0.001095
989.800751	-0.000717
989.973693	0.001833
990.146617	0.000858
990.319524	0.000221
990.492412	-0.001714
990.665281	-0.002150
990.838133	-0.004382
991.010966	-0.006827
991.183781	-0.007007
991.356578	-0.007013
991.529356	-0.005726
991.702117	-0.004985
991.874859	-0.004767
992.047583	-0.004016
992.220288	-0.003449
992.392976	-0.003410
992.565645	-0.003306
992.738296	-0.004807
992.910929	-0.005358
993.083543	-0.008140
993.256139	-0.008168
993.428718	-0.007683
993.601277	-0.005126
993.773819	-0.006181
993.946342	-0.006714
994.118848	-0.005416
994.291335	-0.003124
994.463803	-0.003238
994.636254	-0.002931
994.808686	-0.004844
994.981100	-0.004541
995.153496	-0.005731
995.325874	-0.006125
995.498233	-0.002419
995.670574	-0.002511
995.842897	-0.002530
996.015202	-0.003545
996.187488	-0.003506
996.359757	-0.002927
996.532007	-0.003321
996.704239	-0.005154
996.876452	-0.004179
997.048648	-0.005815
997.220825	-0.004736
997.392984	-0.006504
997.565124	-0.004305
997.737247	-0.003902
997.909351	-0.005353
998.081437	-0.005426
998.253505	-0.004511
998.425554	-0.005873
998.597586	-0.007002
998.769599	-0.008228
998.941594	-0.007997
999.113571	-0.006779
999.285529	-0.006873
999.457469	-0.006126
999.629391	-0.004584
999.801295	-0.004715
999.973181	-0.003372
1000.145048	-0.001000
1000.316897	0.000660
1000.488728	0.003443
1000.660541	-0.000820
1000.832335	0.000397
1001.004111	0.001748
1001.175869	0.000106
1001.347609	0.000403
1001.519331	-0.001157
1001.691034	-0.002951
1001.862719	-0.003988
1002.034386	-0.007071
1002.206035	-0.004882
1002.377665	-0.005744
1002.549277	-0.004995
1002.720871	-0.004515
1002.892447	-0.004363
1003.064004	-0.003528
1003.235544	-0.003996
1003.407065	-0.003214
1003.578568	-0.003077
1003.750052	-0.004299
1003.921519	-0.002507
1004.092967	-0.002965
1004.264397	-0.001292
1004.435809	-0.000532
1004.607202	-0.000728
1004.778577	0.001884
1004.949934	0.001429
1005.121273	0.000281
1005.292594	0.001795
1005.463896	-0.000986
1005.635180	-0.001869
1005.806446	-0.002116
1005.977694	-0.002589
1006.148923	-0.002461
1006.320135	-0.002890
1006.491328	-0.000443
1006.662503	0.001222
1006.833659	-0.000121
1007.004798	0.000963
1007.175918	0.004005
1007.347020	0.001806
1007.518103	0.003262
1007.689169	0.001983
1007.860216	0.001161
1008.031245	-0.001076
1008.202256	-0.001115
1008.373248	-0.001299
1008.544223	-0.001567
1008.715179	-0.004714
1008.886117	-0.003021
1009.057036	-0.003372
1009.227938	-0.001553
1009.398821	-0.001637
1009.569686	0.000389
1009.740533	0.000577
1009.911361	0.001438
1010.082172	0.000801
1010.252964	0.000029
1010.423738	0.000115
1010.594493	-0.001752
1010.765231	-0.003421
1010.935950	-0.004573
1011.106651	-0.005894
1011.277334	-0.006117
1011.447998	-0.005846
1011.618645	-0.005429
1011.789273	-0.003670
1011.959882	-0.004411
1012.130474	-0.004194
1012.301048	-0.003478
1012.471603	-0.002489
1012.642140	-0.003739
1012.812658	-0.003586
1012.983159	-0.005859
1013.153641	-0.007982
1013.324105	-0.009395
1013.494551	-0.010551
1013.664979	-0.010770
1013.835388	-0.009426
1014.005779	-0.009477
1014.176152	-0.010399
1014.346507	-0.010739
1014.516843	-0.009608
1014.687162	-0.007206
1014.857462	-0.007791
1015.027744	-0.006759
1015.198007	-0.006810
1015.368252	-0.009625
1015.538480	-0.008914
1015.708689	-0.008571
1015.878879	-0.010180
1016.049052	-0.009165
1016.219206	-0.010503
1016.389342	-0.009127
1016.559460	-0.009174
1016.729559	-0.008810
1016.899641	-0.007865
1017.069704	-0.007501
1017.239749	-0.007594
1017.409775	-0.006864
1017.579784	-0.007171
1017.749774	-0.006264
1017.919746	-0.006058
1018.089700	-0.007880
1018.259635	-0.005756
1018.429553	-0.007105
1018.599452	-0.007491
1018.769333	-0.005929
1018.939195	-0.004033
1019.109040	-0.004270
1019.278866	-0.004222
1019.448674	-0.005550
1019.618464	-0.003789
1019.788235	-0.006975
1019.957989	-0.005378
1020.127724	-0.009054
1020.297441	-0.010192
1020.467139	-0.010346
1020.636820	-0.010800
1020.806482	-0.010797
1020.976126	-0.009188
1021.145752	-0.009701
1021.315359	-0.007792
1021.484948	-0.008056
1021.654519	-0.005646
1021.824072	-0.002991
1021.993607	-0.004264
1022.163123	-0.004214
1022.332621	-0.003918
1022.502101	-0.005904
1022.671563	-0.005611
1022.841007	-0.006530
1023.010432	-0.005688
1023.179839	-0.005796
1023.349228	-0.009343
1023.518598	-0.009226
1023.687951	-0.006739
1023.857285	-0.006849
1024.026601	-0.004889
1024.195899	-0.004151
1024.365178	-0.001618
1024.534439	-0.003344
1024.703682	-0.003455
1024.872907	-0.002588
1025.042114	-0.000421
1025.211302	-0.002747
1025.380472	-0.000847
1025.549624	0.000569
1025.718758	0.000412
1025.887873	-0.001499
1026.056970	-0.001537
1026.226049	0.000031
1026.395110	-0.000100
1026.564153	-0.002185
1026.733177	-0.000134
1026.902183	-0.003206
1027.071171	-0.004511
1027.240141	-0.006418
1027.409092	-0.005072
1027.578026	-0.003897
1027.746940	-0.005320
1027.915837	-0.004906
1028.084716	-0.004040
1028.253576	-0.006714
1028.422418	-0.004488
1028.591242	-0.003733
1028.760048	-0.001867
1028.928835	-0.002005
1029.097604	-0.000985
1029.266355	-0.000807
1029.435088	-0.001044
1029.603803	-0.000588
1029.772499	-0.001347
1029.941177	-0.001400
1030.109837	-0.001866
1030.278478	-0.001498
1030.447102	-0.003079
1030.615707	-0.003506
1030.784294	-0.002229
1030.952863	-0.001698
1031.121413	-0.002885
1031.289945	0.000244
1031.458460	-0.002044
1031.626955	-0.004179
1031.795433	-0.005992
1031.963892	-0.007322
1032.132334	-0.007579
1032.300756	-0.008888
1032.469161	-0.007400
1032.637548	-0.009398
1032.805916	-0.009712
1032.974266	-0.007837
1033.142598	-0.007315
1033.310911	-0.007686
1033.479207	-0.006695
1033.647484	-0.006489
1033.815743	-0.006336
1033.983983	-0.007851
1034.152206	-0.007186
1034.320410	-0.007942
1034.488596	-0.010797
1034.656764	-0.010390
1034.824914	-0.009918
1034.993045	-0.011093
1035.161158	-0.009662
1035.329253	-0.010293
1035.497330	-0.011512
1035.665388	-0.010113
1035.833428	-0.009745
1036.001450	-0.006373
1036.169454	-0.006212
1036.337440	-0.005670
1036.505407	-0.003570
1036.673356	-0.003870
1036.841287	-0.004532
1037.009200	-0.002657
1037.177094	-0.001093
1037.344970	-0.002621
1037.512828	-0.004167
1037.680668	-0.003317
1037.848489	-0.004383
1038.016293	-0.004192
1038.184078	-0.004814
1038.351845	-0.003781
1038.519593	-0.005184
1038.687324	-0.006003
1038.855036	-0.005580
1039.022730	-0.004712
1039.190406	-0.005444
1039.358063	-0.004377
1039.525702	-0.005668
1039.693323	-0.008062
1039.860926	-0.008290
1040.028511	-0.008349
1040.196077	-0.008317
1040.363625	-0.007281
1040.531155	-0.008242
1040.698667	-0.007575
1040.866161	-0.006864
1041.033636	-0.006217
1041.201093	-0.004790
1041.368532	-0.005088
1041.535952	-0.005014
1041.703355	-0.006130
1041.870739	-0.006851
1042.038105	-0.007525
1042.205452	-0.007289
1042.372782	-0.006861
1042.540093	-0.006657
1042.707386	-0.006018
1042.874661	-0.005878
1043.041918	-0.005868
1043.209156	-0.006078
1043.376376	-0.006663
1043.543578	-0.006704
1043.710762	-0.008624
1043.877927	-0.009197
1044.045074	-0.009635
1044.212203	-0.010165
1044.379314	-0.009246
1044.546407	-0.009387
1044.713481	-0.008672
1044.880537	-0.006343
1045.047575	-0.004557
1045.214595	-0.003124
1045.381596	-0.002539
1045.548579	-0.001561
1045.715544	-0.001653
1045.882491	-0.001632
1046.049420	-0.001911
1046.216330	-0.000509
1046.383222	-0.001573
1046.550096	-0.000090
1046.716951	0.000423
1046.883789	0.001082
1047.050608	-0.001836
1047.217409	-0.001082
1047.384192	-0.002245
1047.550956	-0.003072
1047.717703	-0.003988
1047.884431	-0.003749
1048.051140	-0.006433
1048.217832	-0.006509
1048.384505	-0.005767
1048.551161	-0.005234
1048.717798	-0.004716
1048.884416	-0.005962
1049.051017	-0.004356
1049.217599	-0.005497
1049.384163	-0.005107
1049.550709	-0.003678
1049.717237	-0.004071
1049.883746	-0.004211
1050.050237	-0.003665
1050.216710	-0.004512
1050.383165	-0.002527
1050.549601	-0.000465
1050.716019	0.001334
1050.882420	0.001005
1051.048801	-0.000381
1051.215165	-0.001090
1051.381510	-0.003487
1051.547837	-0.003086
1051.714146	-0.001149
1051.880437	-0.001698
1052.046709	-0.005135
1052.212964	-0.007213
1052.379200	-0.008011
1052.545417	-0.006198
1052.711617	-0.006176
1052.877798	-0.005943
1053.043961	-0.007197
1053.210106	-0.009830
1053.376233	-0.010057
1053.542341	-0.008223
1053.708432	-0.007309
1053.874504	-0.008283
1054.040557	-0.008936
1054.206593	-0.010606
1054.372610	-0.010531
1054.538609	-0.009819
1054.704590	-0.007487
1054.870553	-0.005445
1055.036497	-0.003777
1055.202424	-0.003963
1055.368331	-0.001402
1055.534221	-0.001914
1055.700093	-0.001294
1055.865946	-0.001026
1056.031781	-0.000374
1056.197598	-0.001414
1056.363397	-0.002336
1056.529177	-0.005396
1056.694939	-0.004974
1056.860683	-0.008605
1057.026409	-0.009382
1057.192116	-0.008976
1057.357806	-0.007581
1057.523477	-0.006479
1057.689130	-0.008143
1057.854764	-0.009540
1058.020381	-0.006246
1058.185979	-0.007942
1058.351559	-0.006859
1058.517120	-0.005713
1058.682664	-0.004623
1058.848189	-0.007266
1059.013696	-0.009130
1059.179185	-0.008870
1059.344656	-0.006943
1059.510108	-0.010495
1059.675542	-0.008051
1059.840958	-0.006869
1060.006356	-0.008877
1060.171735	-0.009051
1060.337096	-0.008803
1060.502439	-0.008306
1060.667764	-0.005241
1060.833071	-0.007007
1060.998359	-0.005031
1061.163629	-0.007525
1061.328881	-0.009086
1061.494115	-0.006369
1061.659330	-0.006980
1061.824527	-0.006431
1061.989706	-0.005836
1062.154867	-0.008690
1062.320010	-0.007387
1062.485134	-0.007909
1062.650240	-0.005693
1062.815328	-0.003597
1062.980398	-0.004250
1063.145449	-0.004876
1063.310482	-0.004463
1063.475497	-0.005099
1063.640494	-0.004817
1063.805473	-0.005369
1063.970433	-0.006160
1064.135375	-0.007565
1064.300299	-0.006894
1064.465204	-0.009340
1064.630092	-0.006379
1064.794961	-0.007649
1064.959812	-0.005810
1065.124645	-0.006291
1065.289459	-0.007177
1065.454256	-0.005735
1065.619034	-0.004441
1065.783793	-0.005827
1065.948535	-0.005214
1066.113258	-0.009576
1066.277964	-0.008474
1066.442651	-0.009411
1066.607319	-0.009330
1066.771970	-0.008738
1066.936602	-0.010408
1067.101216	-0.011116
1067.265812	-0.011015
1067.430389	-0.009304
1067.594949	-0.006358
1067.759490	-0.007077
1067.924013	-0.007551
1068.088518	-0.006658
1068.253004	-0.005140
1068.417472	-0.002750
1068.581922	-0.002620
1068.746354	-0.004951
1068.910768	-0.006086
1069.075163	-0.007089
1069.239540	-0.004879
1069.403899	-0.003995
1069.568240	-0.003603
1069.732562	-0.006066
1069.896866	-0.009600
1070.061152	-0.009706
1070.225420	-0.005032
1070.389670	-0.004662
1070.553901	-0.005969
1070.718114	-0.007550
1070.882309	-0.011872
1071.046486	-0.012988
1071.210644	-0.011481
1071.374784	-0.007648
1071.538906	-0.006867
1071.703010	-0.008743
1071.867096	-0.008464
1072.031163	-0.006643
1072.195212	-0.007382
1072.359243	-0.004655
1072.523256	-0.004295
1072.687250	-0.004397
1072.851226	-0.004367
1073.015184	-0.005419
1073.179124	-0.005354
1073.343045	-0.005497
1073.506949	-0.006369
1073.670834	-0.004023
1073.834701	-0.004293
1073.998549	-0.004742
1074.162380	-0.004086
1074.326192	-0.005178
1074.489986	-0.002569
1074.653761	-0.002096
1074.817519	-0.000808
1074.981258	0.003395
1075.144979	0.003247
1075.308682	0.005350
1075.472367	0.006013
1075.636033	0.003060
1075.799681	0.002942
1075.963311	0.004155
1076.126923	0.001383
1076.290516	0.000393
1076.454092	-0.001657
1076.617649	-0.004336
1076.781187	-0.004321
1076.944708	-0.004226
1077.108210	-0.001609
1077.271695	-0.003005
1077.435160	-0.005316
1077.598608	-0.005846
1077.762038	-0.008174
1077.925449	-0.009267
1078.088842	-0.009746
1078.252217	-0.010065
1078.415573	-0.011146
1078.578912	-0.011610
1078.742232	-0.011008
1078.905534	-0.012982
1079.068817	-0.010515
1079.232083	-0.005654
1079.395330	-0.005258
1079.558559	-0.002789
1079.721770	-0.004026
1079.884962	-0.004219
1080.048136	-0.003672
1080.211293	-0.003165
1080.374430	-0.001641
1080.537550	-0.001050
1080.700651	-0.002816
1080.863735	-0.001724
1081.026800	-0.001438
1081.189846	-0.001372
1081.352875	-0.000384
1081.515885	-0.000637
1081.678877	0.000454
1081.841851	0.002078
1082.004807	-0.002032
1082.167744	-0.004680
1082.330663	-0.004820
1082.493564	-0.004343
1082.656447	-0.003395
1082.819312	-0.003610
1082.982158	-0.005961
1083.144986	-0.008189
1083.307796	-0.011877
1083.470587	-0.009634
1083.633361	-0.007142
1083.796116	-0.010139
1083.958853	-0.011297
1084.121571	-0.009633
1084.284272	-0.008078
1084.446954	-0.006032
1084.609618	-0.003413
1084.772264	-0.001239
1084.934892	-0.000862
1085.097501	-0.001189
1085.260092	0.000296
1085.422665	0.003198
1085.585220	0.001476
1085.747756	0.000558
1085.910274	-0.000066
1086.072774	-0.000813
1086.235256	-0.001747
1086.397720	-0.002737
1086.560165	-0.002969
1086.722592	-0.001210
1086.885001	-0.006418
1087.047392	-0.006669
1087.209764	-0.007939
1087.372119	-0.007651
1087.534455	-0.009203
1087.696772	-0.008530
1087.859072	-0.008360
1088.021353	-0.008785
1088.183616	-0.009361
1088.345861	-0.006376
1088.508088	-0.007379
1088.670296	-0.007778
1088.832486	-0.006778
1088.994658	-0.008219
1089.156812	-0.007554
1089.318948	-0.003751
1089.481065	-0.006723
1089.643164	-0.010146
1089.805245	-0.012111
1089.967308	-0.012021
1090.129352	-0.009829
1090.291378	-0.011686
1090.453386	-0.011547
1090.615376	-0.011547
1090.777347	-0.015178
1090.939301	-0.009335
1091.101236	-0.007505
1091.263153	-0.004929
1091.425051	-0.003639
1091.586932	-0.008004
1091.748794	-0.006748
1091.910638	-0.005026
1092.072463	-0.005522
1092.234271	-0.004584
1092.396060	-0.008057
1092.557831	-0.008375
1092.719584	-0.011560
1092.881319	-0.014692
1093.043035	-0.009689
1093.204733	-0.009301
1093.366413	-0.011387
1093.528075	-0.009943
1093.689718	-0.009785
1093.851343	-0.011615
1094.012950	-0.012388
1094.174539	-0.012342
1094.336110	-0.008631
1094.497662	-0.013816
1094.659196	-0.016148
1094.820712	-0.011766
1094.982210	-0.014098
1095.143689	-0.015545
1095.305151	-0.013045
1095.466594	-0.009619
1095.628018	-0.005955
1095.789425	-0.006480
1095.950813	-0.003216
1096.112183	-0.002437
1096.273535	-0.003796
1096.434869	-0.003363
1096.596184	-0.001473
1096.757482	-0.002391
1096.918761	-0.005928
1097.080021	-0.010094
1097.241264	-0.013005
1097.402488	-0.009141
1097.563694	-0.007892
1097.724882	-0.007636
1097.886052	-0.011387
1098.047203	-0.009246
1098.208336	-0.008540
1098.369451	-0.009344
1098.530548	-0.008057
1098.691627	-0.005139
1098.852687	-0.005751
1099.013729	-0.003493
1099.174753	-0.007502
1099.335758	-0.004910
1099.496746	-0.006638
1099.657715	-0.006567
1099.818666	-0.002247
1099.979599	-0.000262
1100.140513	0.000327
1100.301409	-0.002180
1100.462287	-0.004244
1100.623147	-0.003486
1100.783989	-0.003572
1100.944812	-0.005348
1101.105617	-0.000545
1101.266404	-0.001174
1101.427173	-0.002806
1101.587923	-0.004111
1101.748656	-0.004930
1101.909370	-0.005774
1102.070066	0.001577
1102.230743	0.000870
1102.391403	0.000042
1102.552044	-0.005247
1102.712667	-0.008226
1102.873271	-0.008880
1103.033858	-0.008410
1103.194426	-0.010586
1103.354976	-0.007469
1103.515508	-0.015240
1103.676021	-0.014066
1103.836517	-0.012093
1103.996994	-0.009805
1104.157453	-0.006046
1104.317893	-0.005617
1104.478316	-0.004317
1104.638720	-0.004855
1104.799106	-0.006927
1104.959474	-0.001902
1105.119823	-0.002636
1105.280155	-0.002807
1105.440468	-0.006309
1105.600763	-0.005815
1105.761039	-0.004112
1105.921298	-0.002675
1106.081538	0.002153
1106.241760	0.001136
1106.401964	-0.001079
1106.562149	0.001701
1106.722316	0.000722
1106.882465	0.000530
1107.042596	-0.004605
1107.202709	-0.006697
1107.362803	-0.009305
1107.522879	-0.011668
1107.682937	-0.010802
1107.842977	-0.009286
1108.002999	-0.011830
1108.163002	-0.009722
1108.322987	-0.006222
1108.482954	-0.006039
1108.642902	0.000370
1108.802833	0.000978
1108.962745	0.002386
1109.122639	0.002238
1109.282515	0.001405
1109.442372	0.002432
1109.602211	0.002874
1109.762032	0.000934
1109.921835	0.003824
1110.081620	-0.007436
1110.241386	-0.010261
1110.401134	-0.008125
1110.560864	-0.012225
1110.720576	-0.013837
1110.880269	-0.014678
1111.039945	-0.019241
1111.199602	-0.017143
1111.359240	-0.017372
1111.518861	-0.011398
1111.678463	-0.009005
1111.838047	-0.013224
1111.997613	-0.007312
1112.157161	-0.002810
1112.316690	-0.000971
1112.476202	0.000577
1112.635695	-0.000992
1112.795169	-0.002748
1112.954626	-0.003250
1113.114064	-0.005773
1113.273484	-0.004093
1113.432886	-0.006654
1113.592270	-0.014148
1113.751635	-0.018516
1113.910983	-0.017559
1114.070312	-0.014181
1114.229622	-0.014421
1114.388915	-0.008999
1114.548189	-0.008331
1114.707445	-0.010984
1114.866683	-0.009969
1115.025903	-0.006092
1115.185104	-0.005342
1115.344287	-0.003417
1115.503452	-0.007320
1115.662599	-0.002600
1115.821727	-0.007100
1115.980838	-0.008207
1116.139930	-0.008320
1116.299004	-0.008951
1116.458059	-0.008837
1116.617097	-0.006627
1116.776116	-0.009638
1116.935117	-0.009481
1117.094099	-0.015070
1117.253064	-0.013882
1117.412010	-0.012392
1117.570938	-0.009928
1117.729848	-0.007567
1117.888740	-0.007071
1118.047613	-0.007129
1118.206468	-0.006021
1118.365305	-0.006353
1118.524124	-0.003010
1118.682924	-0.003364
1118.841707	-0.006348
1119.000471	-0.003430
1119.159216	-0.000143
1119.317944	-0.002509
1119.476653	-0.004355
1119.635344	-0.007572
1119.794017	-0.007669
1119.952672	-0.004140
1120.111308	-0.008510
1120.269927	-0.004926
1120.428527	-0.009065
1120.587108	-0.012039
1120.745672	-0.010012
1120.904217	-0.008292
1121.062744	-0.004264
1121.221253	-0.004975
1121.379744	-0.008562
1121.538216	-0.005309
1121.696671	-0.004917
1121.855107	-0.005444
1122.013524	-0.010254
1122.171924	-0.005543
1122.330305	-0.001255
1122.488668	0.001760
1122.647013	0.000451
1122.805340	-0.000789
1122.963648	-0.002497
1123.121938	-0.005882
1123.280210	-0.004158
1123.438464	0.001980
1123.596700	-0.004219
1123.754917	-0.005434
1123.913116	-0.008585
1124.071297	-0.007836
1124.229459	-0.004452
1124.387604	-0.002547
1124.545730	0.001777
1124.703838	-0.001002
1124.861928	-0.008391
1125.019999	-0.002074
1125.178052	-0.005552
1125.336088	-0.004709
1125.494104	-0.006235
1125.652103	-0.008977
1125.810083	-0.010342
1125.968045	-0.012969
1126.125989	-0.010073
1126.283915	-0.002682
1126.441823	-0.007373
1126.599712	-0.000603
1126.757583	-0.002001
1126.915436	-0.000660
1127.073270	-0.002371
1127.231087	-0.003500
1127.388885	-0.000398
1127.546665	0.004519
1127.704426	0.000029
1127.862170	0.001282
1128.019895	-0.001859
1128.177602	0.003212
1128.335291	0.009252
1128.492961	0.016299
1128.650614	0.020391
1128.808248	0.018222
1128.965864	0.013753
1129.123461	0.016046
1129.281041	0.012284
1129.438602	0.009422
1129.596145	0.010779
1129.753670	0.007069
1129.911176	0.008932
1130.068665	0.007482
1130.226135	0.007599
1130.383587	0.009023
1130.541020	0.010537
1130.698436	0.010951
1130.855833	0.013771
1131.013212	0.007380
1131.170573	0.005665
1131.327915	-0.002171
1131.485239	0.001719
1131.642545	-0.002959
1131.799833	-0.004973
1131.957103	-0.006956
1132.114354	-0.004730
1132.271588	-0.006545
1132.428803	-0.004969
1132.585999	-0.000546
1132.743178	0.001003
1132.900338	-0.001109
1133.057480	0.000364
1133.214604	0.001824
1133.371710	0.001532
1133.528797	-0.004475
1133.685866	-0.010016
1133.842917	-0.015614
1133.999950	-0.017530
1134.156964	-0.016165
1134.313960	-0.018381
1134.470938	-0.012216
1134.627898	-0.016081
1134.784840	-0.016614
1134.941763	-0.007263
1135.098668	-0.002162
1135.255555	0.000054
1135.412424	-0.006622
1135.569274	-0.015173
1135.726107	-0.013786
1135.882921	-0.015635
1136.039716	-0.015532
1136.196494	-0.011577
1136.353253	-0.018973
1136.509995	-0.017067
1136.666717	-0.012374
1136.823422	-0.010530
1136.980109	0.001740
1137.136777	0.001406
1137.293427	0.000227
1137.450059	0.001277
1137.606672	-0.001323
1137.763267	0.004586
1137.919844	-0.007024
1138.076403	-0.006346
1138.232944	-0.008213
1138.389466	-0.008569
1138.545971	-0.010275
1138.702457	-0.019984
1138.858924	-0.019782
1139.015374	-0.021401
1139.171805	-0.032972
1139.328218	-0.023152
1139.484613	-0.032415
1139.640990	-0.029625
1139.797348	-0.029325
1139.953688	-0.029241
1140.110010	-0.022450
1140.266314	-0.016986
1140.422600	-0.016282
1140.578867	-0.006229
1140.735116	-0.009368
1140.891347	-0.003083
1141.047559	0.003206
1141.203754	0.000991
1141.359930	0.003026
1141.516088	0.002205
1141.672228	-0.006799
1141.828349	-0.000101
1141.984452	-0.002332
1142.140537	-0.000944
1142.296604	-0.004695
1142.452653	-0.010085
1142.608683	-0.009618
1142.764695	-0.011779
1142.920689	-0.011408
1143.076665	-0.006161
1143.232622	-0.023095
1143.388562	-0.018611
1143.544483	-0.020039
1143.700385	-0.019457
1143.856270	-0.018452
1144.012136	-0.020970
1144.167985	-0.021770
1144.323814	-0.015405
1144.479626	-0.022990
1144.635420	-0.011243
1144.791195	-0.011936
1144.946952	-0.013007
1145.102691	-0.009649
1145.258411	-0.007968
1145.414113	-0.011560
1145.569798	-0.013350
1145.725463	-0.017287
1145.881111	-0.010136
1146.036741	-0.006634
1146.192352	-0.006897
1146.347945	0.000728
1146.503519	0.005001
1146.659076	0.004565
1146.814614	0.016238
1146.970134	0.020866
1147.125636	0.023317
1147.281120	0.033890
1147.436585	0.026158
1147.592032	0.028880
1147.747461	0.021968
1147.902872	0.010096
1148.058265	0.012901
1148.213639	0.004825
1148.368995	0.003962
1148.524333	0.006056
1148.679653	-0.000248
1148.834954	0.003577
1148.990237	-0.001144
1149.145502	0.004375
1149.300749	0.004223
1149.455977	-0.000434
1149.611188	-0.004124
1149.766380	-0.007241
1149.921553	-0.004745
1150.076709	-0.010909
1150.231846	-0.021359
1150.386966	-0.015544
1150.542066	-0.014563
1150.697149	-0.003867
1150.852214	0.002891
1151.007260	0.014565
1151.162288	0.020461
1151.317298	0.012528
1151.472289	0.018027
1151.627263	0.029896
1151.782218	0.021564
1151.937155	0.015696
1152.092073	0.009569
1152.246974	0.011311
1152.401856	-0.002690
1152.556720	-0.009804
1152.711566	-0.005820
1152.866393	-0.005146
1153.021203	-0.006861
1153.175994	-0.006559
1153.330767	-0.001637
1153.485521	-0.003916
1153.640258	-0.016655
1153.794976	-0.006543
1153.949676	-0.003674
1154.104358	-0.002941
1154.259021	-0.007412
1154.413667	-0.006737
1154.568294	-0.010521
1154.722903	-0.018409
1154.877493	-0.010428
1155.032066	-0.006860
1155.186620	-0.010005
1155.341156	-0.000379
1155.495674	-0.001330
1155.650173	-0.006653
1155.804654	-0.015585
1155.959118	0.001618
1156.113562	0.007839
1156.267989	-0.004239
1156.422397	-0.011621
1156.576788	-0.013346
1156.731160	-0.027948
1156.885513	-0.029692
1157.039849	-0.020963
1157.194166	-0.016183
1157.348465	-0.030770
1157.502746	-0.035384
1157.657009	-0.025324
1157.811253	-0.015443
1157.965479	-0.016440
1158.119687	-0.006821
1158.273877	-0.004485
1158.428048	-0.008267
1158.582201	-0.005181
1158.736337	0.006290
1158.890453	0.013100
1159.044552	0.014217
1159.198632	0.008743
1159.352694	0.008524
1159.506738	0.005367
1159.660764	-0.003675
1159.814771	0.004734
1159.968761	0.005888
1160.122732	0.001454
1160.276685	-0.018267
1160.430619	-0.015653
1160.584535	-0.005479
1160.738434	-0.012854
1160.892313	-0.016277
1161.046175	-0.004496
1161.200019	-0.011376
1161.353844	-0.017730
1161.507651	-0.019984
1161.661440	0.000763
1161.815210	-0.011119
1161.968962	-0.021887
1162.122697	-0.016323
1162.276412	-0.015165
1162.430110	-0.013440
1162.583789	-0.016889
1162.737451	-0.005491
1162.891094	-0.008740
1163.044718	-0.010419
1163.198325	-0.009451
1163.351913	-0.002702
1163.505483	-0.006841
1163.659035	-0.004403
1163.812569	-0.005265
1163.966084	0.000000
1164.119581	-0.011862
1164.273060	-0.003266
1164.426521	0.003377
1164.579964	0.018214
1164.733388	0.014721
1164.886794	0.019823
1165.040182	0.027984
1165.193551	0.022056
1165.346903	0.014569
1165.500236	0.020317
1165.653551	-0.003620
1165.806848	-0.019435
1165.960126	-0.039206
1166.113386	-0.042797
1166.266628	-0.039595
1166.419852	-0.049418
1166.573058	-0.052277
1166.726245	-0.050822
1166.879414	-0.059027
1167.032565	-0.051529
1167.185698	-0.041347
1167.338812	-0.034628
1167.491909	-0.027687
1167.644987	-0.027802
1167.798046	-0.033513
1167.951088	-0.035569
1168.104111	-0.032514
1168.257117	-0.021580
1168.410103	-0.028929
1168.563072	-0.021418
1168.716023	-0.010043
1168.868955	-0.001918
1169.021869	0.002778
1169.174765	0.012416
1169.327642	0.010037
1169.480501	0.016797
1169.633343	0.006202
1169.786165	0.024993
1169.938970	0.009122
1170.091757	0.005671
1170.244525	0.007191
1170.397275	0.009691
1170.550007	-0.008363
1170.702720	0.001105
1170.855415	-0.007691
1171.008092	0.012269
1171.160751	0.022149
1171.313392	0.039642
1171.466014	-0.017884
1171.618619	0.121732
1171.771205	0.121732
1171.923772	0.121732
