sample name	sample
index	338
start time	 03-01-2021  10:57:19 AM
880	-0.010438
Peak Time (s)	92.037
Peak Height 	-0.01044
calc peak height	90,93
Baseline Time (s)	9.536
Baseline Value 	-0.002317
subtract baseline	10,4
Abs	-0.204395
Peak Time (s)	92.037
Peak Height 	-0.2044
calc peak height	90,93
Baseline Time (s)	9.036
Baseline Value 	6.9549E-4
subtract baseline	10,3
PK_550	0.001478
Peak Time (s)	90.035
Peak Height 	0.001478
calc peak height	90,93
Baseline Time (s)	9.536
Baseline Value 	5.4082E-4
subtract baseline	10,2
PK_880	-0.122718
Peak Time (s)	90.535
Peak Height 	-0.1227
calc peak height	90,93
Baseline Time (s)	11.037
Baseline Value 	1.9343E-4
subtract baseline	10,1


Time (s)	A880-A510	A880-A775	A880-A975	A880	I510	I775	I975	I880	
0.036000	-0.004473	-0.000788	-0.008093	0.006988	6853.058771	47769.074263	3925.725766	25157.501124
0.536000	-0.002379	-0.001339	-0.001789	0.004204	6898.750275	48000.862403	3949.958949	25301.324365
1.036500	-0.002814	-0.000478	0.000008	0.003619	6900.154611	48151.481355	3956.394437	25331.654089
1.536500	-0.001937	-0.000378	-0.005143	0.004203	6902.917285	48100.947508	3940.958902	25301.341420
2.037000	-0.001641	-0.000839	0.004930	0.000452	6941.241988	48445.275184	3978.513994	25496.575493
2.540500	-0.001774	-0.000356	0.003178	0.000227	6942.112861	48519.584403	3974.304694	25508.306789
3.035000	0.000009	-0.000020	0.001759	-0.001246	6973.215581	48710.341370	3974.455039	25585.473314
3.535000	-0.000685	-0.000981	0.002161	-0.000221	6956.774572	48501.096111	3972.745092	25531.785290
4.035000	0.000156	-0.000341	-0.001068	0.000096	6961.784689	48535.066393	3963.044116	25515.199492
4.535500	-0.001449	-0.001020	0.000157	-0.000558	6952.694126	48532.388254	3968.171393	25549.412418
5.036000	-0.000623	-0.000541	-0.001783	0.000296	6952.426382	48492.924989	3960.552045	25504.722952
5.536000	-0.001289	0.000127	0.006108	0.000151	6947.467898	48578.576044	3982.604967	25512.322044
6.036500	-0.000186	-0.000106	-0.001367	0.000036	6959.085010	48566.055055	3962.390992	25518.329020
6.537000	0.000645	-0.000484	0.000100	-0.000269	6969.958032	48558.428108	3967.227803	25534.302829
7.037000	0.001266	0.000686	0.004075	0.001075	6963.029781	48540.058250	3974.441956	25464.017513
7.537000	0.000129	-0.000389	-0.000795	-0.000045	6962.868216	48544.709656	3964.169002	25522.533184
8.037500	-0.000716	-0.000805	-0.001905	-0.000302	6957.246720	48528.064847	3961.847708	25536.017394
8.535500	-0.000081	-0.000404	-0.000036	-0.000232	6962.648546	48562.884983	3966.753271	25532.330051
9.035500	-0.001690	-0.000009	0.000000	-0.000076	6945.810145	48588.136305	3966.426812	25524.203107
9.536000	0.000331	0.000000	0.000290	0.000000	6964.368750	48581.028612	3967.010823	25520.200400
10.036000	0.000466	0.000361	-0.001372	0.000472	6961.150284	48569.337977	3961.192776	25495.532872
10.536000	0.000927	-0.000409	0.003330	-0.000001	6970.084814	48538.068923	3975.351738	25520.233815
11.036500	0.000000	0.000603	0.002955	0.000649	6955.003082	48576.128382	3972.533362	25486.257991
11.537000	-0.000010	0.000289	-0.000594	0.000575	6955.616043	48550.817165	3963.025939	25490.109451
12.037500	-0.000417	0.000373	0.001971	0.000821	6949.387515	48533.845345	3969.364118	25477.275434
12.534500	0.001489	0.000571	0.007023	0.000257	6972.998777	48614.141845	3984.845718	25506.769158
13.038000	0.000162	-0.000135	0.006969	-0.002113	6983.018564	48789.884001	3991.290208	25631.044292
13.535500	0.000715	-0.000386	0.002670	-0.000459	6972.438435	48588.679272	3974.794632	25544.212802
14.035500	-0.001136	-0.000282	-0.001711	0.003324	6918.786736	48202.661642	3952.543510	25346.946063
14.535500	-0.003764	0.000639	0.002338	0.003056	6896.512072	48327.042694	3964.256534	25360.854138
15.036500	0.000055	0.000386	0.001014	0.000970	6952.472480	48519.563529	3966.338161	25469.511743
15.558000	0.000581	0.000107	0.007039	-0.000131	6968.017071	48606.106203	3985.966540	25527.043504
16.037000	-0.003851	-0.000127	0.000060	0.003871	6888.031210	48161.806619	3955.854011	25318.578822
16.539000	-0.000117	-0.000490	-0.001602	-0.000003	6960.121896	48529.743753	3961.859654	25520.376523
17.037000	0.002153	-0.000732	0.002127	-0.000294	6984.669596	48534.882004	3972.849975	25535.600325
17.537500	-0.002233	0.000290	-0.006566	0.003385	6907.839404	48256.148672	3939.344370	25343.800680
18.035500	-0.001193	0.000672	0.004419	0.002106	6929.786441	48430.220712	3972.554397	25410.299710
18.535500	0.000143	0.000846	0.002434	0.002116	6942.386584	48447.375821	3967.087304	25409.753207
19.036000	-0.001802	-0.000714	-0.002552	0.001346	6931.213999	48364.528607	3955.617494	25449.883532
19.535500	-0.002587	0.000459	-0.000481	0.002140	6916.264138	48404.280852	3959.079820	25408.527512
20.036500	-0.001015	0.000003	0.002283	0.002264	6929.972266	48343.436317	3966.270304	25402.049288
20.537000	-0.003101	-0.000085	-0.005061	0.001298	6919.357651	48435.477103	3948.971412	25452.364281
21.040000	-0.000231	0.000161	-0.001532	0.001745	6942.362028	48414.515478	3957.299710	25429.102811
21.537000	-0.000559	-0.000044	0.001244	0.001247	6943.971904	48445.241565	3966.208851	25455.047443
22.035500	-0.001547	0.001017	0.000806	0.002641	6921.352171	48410.181633	3961.214413	25382.425584
22.535000	0.000302	0.000027	-0.003229	0.001994	6945.057852	48374.228140	3952.034189	25416.109183
23.035500	0.000188	0.000131	0.002569	0.002110	6942.867872	48372.980505	3967.472204	25410.072665
23.535500	-0.001355	0.000414	0.000235	0.002673	6922.868220	48343.595382	3959.575094	25380.766071
24.036000	-0.002419	-0.000135	-0.002376	0.002321	6916.126684	48322.952051	3953.454274	25399.066281
24.536000	-0.003730	-0.000076	0.004632	0.002232	6904.597468	48338.524825	3972.792498	25403.742558
25.036500	-0.002792	-0.000343	-0.002431	0.002337	6912.454401	48299.523099	3953.262461	25398.246794
25.537000	-0.001058	0.000194	0.005326	0.002446	6927.831793	48344.375417	3974.110849	25392.556383
26.037000	-0.000895	0.001110	0.004677	0.003009	6924.047797	48381.370623	3970.782481	25363.291214
26.537500	-0.001765	-0.000042	0.003287	0.002249	6923.009479	48340.288510	3969.056301	25402.830632
27.037500	-0.001630	0.000258	-0.002671	0.002542	6921.510377	48341.033645	3952.060716	25387.569224
27.535500	-0.000401	-0.000141	0.001223	0.000498	6952.622286	48513.833129	3968.202274	25494.182974
28.035500	-0.001904	0.000153	0.002433	0.004607	6899.425145	48114.177725	3960.294200	25280.438664
28.538500	0.002124	0.000722	-0.000524	0.001143	6970.601380	48536.775804	3961.674675	25460.497901
29.046500	0.000161	0.000448	0.003788	0.001035	6952.853518	48519.131781	3973.762460	25466.087815
29.536500	-0.004629	-0.000507	-0.001318	0.005671	6863.885052	47934.809120	3947.277922	25225.414788
30.036500	-0.001375	-0.000061	0.000812	0.005610	6894.959609	47987.434944	3953.181986	25228.565555
30.537000	-0.001088	-0.000615	-0.001027	0.000055	6950.298211	48510.533288	3963.266364	25517.345927
31.048000	-0.000488	-0.000123	0.001478	0.000385	6952.873182	48527.569781	3969.208901	25500.086115
31.540500	-0.002293	-0.000214	0.003544	0.004470	6897.038766	48090.207069	3963.688755	25287.498166
32.035000	-0.002884	-0.000118	0.001274	0.005951	6877.584731	47946.110800	3953.510769	25210.955726
32.551500	0.001401	-0.000037	-0.004298	0.001535	6959.925597	48415.713070	3950.389466	25440.051136
33.035500	-0.000192	0.000174	0.003080	0.001347	6946.520935	48457.618302	3970.962795	25449.835041
33.536000	-0.002322	0.000536	-0.001504	0.006736	6875.508687	47932.540391	3943.921977	25170.502269
34.036500	-0.004735	0.000007	-0.002294	0.005363	6865.772060	48020.220396	3945.481131	25241.304881
34.536000	0.001314	0.000462	0.006736	-0.000524	6978.816325	48685.080599	3986.218619	25547.657725
35.036500	-0.000882	0.000249	0.002589	0.002266	6931.217507	48369.108328	3967.101505	25401.973545
35.539500	-0.002252	-0.000080	0.003595	0.002681	6914.308354	48291.055912	3968.716398	25380.364432
36.037500	-0.003458	-0.000965	0.001089	0.003029	6899.650793	48162.211633	3960.930489	25362.277166
36.535000	-0.000319	0.000059	0.003372	0.002270	6936.534993	48348.699832	3969.234447	25401.765657
37.035000	0.000970	0.000010	-0.002324	0.002163	6949.809018	48354.723385	3954.023103	25407.302810
37.535500	-0.001367	-0.000163	0.009461	0.002610	6923.358253	48289.860115	3985.082906	25384.076534
38.036000	-0.002644	0.000117	-0.005078	0.003322	6904.553643	48244.607415	3943.490944	25347.030077
38.536000	0.000347	-0.000623	-0.000060	0.001666	6948.611160	48340.539549	3961.511712	25433.194893
39.036500	-0.001414	0.000502	0.000912	0.002185	6926.939773	48404.076560	3962.743512	25406.153217
39.536500	-0.000933	0.000357	0.000687	0.002278	6930.625001	48379.189290	3961.879640	25401.345579
40.036500	-0.003146	-0.000040	0.000633	0.003528	6897.884688	48206.653078	3958.335410	25336.357167
40.537000	-0.001373	0.000684	0.006170	0.002521	6924.136189	48387.893436	3976.227626	25388.671440
41.037500	-0.002088	0.000240	0.000465	0.002428	6918.244528	48351.100746	3960.866248	25393.494055
41.535000	0.000574	0.000364	0.001851	0.002483	6942.994209	48358.384166	3964.492828	25390.666054
42.035500	-0.001390	0.000686	0.000336	0.003772	6912.149007	48257.112126	3956.867403	25323.702879
42.535500	-0.002233	-0.000045	0.002550	0.001900	6921.879063	48376.610561	3967.995279	25420.996985
43.036000	-0.002453	-0.000029	0.000855	0.002107	6917.840169	48356.595891	3962.803244	25410.244818
43.538500	-0.002574	-0.000787	-0.003895	0.001650	6921.023111	48325.062632	3951.167011	25434.043343
44.039000	-0.002408	-0.000273	0.001473	0.002462	6914.905998	48293.786565	3963.519337	25391.763697
44.536500	-0.000469	0.000280	0.000367	0.001904	6938.587321	48410.283569	3962.028177	25420.822488
45.036500	0.003569	0.000454	0.005519	-0.003042	7024.891831	48950.809211	3989.836471	25679.930337
45.537500	-0.002703	0.000073	0.004668	0.003183	6905.305146	48254.559013	3970.279839	25354.256133
46.064500	-0.001574	0.000314	-0.000653	0.003708	6911.004658	48224.877934	3954.363454	25327.001939
46.535000	0.000445	-0.000202	-0.001920	-0.000496	6970.216883	48612.037344	3962.335925	25546.192705
47.035000	0.001806	0.000370	0.000819	-0.000370	6982.061769	48659.045872	3969.470138	25539.553579
47.535000	-0.001331	0.000074	0.000714	0.001273	6936.389287	48454.948953	3964.691406	25453.710360
48.036000	-0.001449	0.000266	0.000436	0.003392	6915.184415	48252.862473	3958.169143	25343.425994
48.536000	-0.001746	0.000476	0.003755	0.001660	6928.771344	48456.539181	3971.955220	25433.535701
49.036500	-0.000870	0.001044	0.002212	0.003254	6921.959845	48348.735281	3963.373950	25350.559313
49.536500	-0.003878	0.000304	-0.000989	0.004621	6880.741388	48128.546846	3950.991586	25279.728036
50.037500	-0.000660	0.000504	0.004997	0.003903	6917.812846	48224.388544	3969.211827	25316.930041
50.537500	0.001217	0.000690	0.005629	0.000029	6972.575000	48650.694188	3981.615312	25518.685025
51.037500	0.002433	0.000537	0.006205	-0.001150	6995.604526	48759.051144	3986.479924	25580.439083
51.535000	-0.001492	0.000770	-0.000551	0.004399	6905.269819	48200.339628	3952.772075	25291.210323
52.035500	0.002013	0.001567	0.000045	0.006411	6919.367631	48073.550559	3948.953148	25187.228125
52.535500	-0.002531	-0.007442	-0.003596	0.215257	5323.741683	30225.982798	3496.577589	16639.541406
53.035500	-0.117422	-0.008931	-0.211536	0.111732	5258.780439	37482.173561	3343.397502	20365.652567
53.536000	-0.166322	-0.037632	-0.240920	-0.126519	6597.580561	58972.535345	3691.468704	33204.960326
54.036000	-0.220982	-0.304169	-0.299590	-0.441064	9701.226726	65535.000000	4423.082163	65535.000000
54.537000	-0.126755	-0.304169	-0.179864	-0.441064	11371.213185	65535.000000	4944.700904	65535.000000
55.037500	-0.114948	-0.215625	-0.177274	-0.352520	9984.450993	65535.000000	4555.963823	53963.595431
55.535000	-0.120933	-0.103813	-0.175012	-0.240708	8279.834842	65535.000000	4159.974944	42349.666258
56.035000	-0.128632	-0.177102	-0.191045	-0.313997	9171.721978	65535.000000	4354.470865	49620.524774
56.535500	-0.172890	-0.304169	-0.240182	-0.441064	10508.304698	65535.000000	4663.967644	65535.000000
57.035500	-0.187823	-0.304169	-0.263746	-0.441064	10248.069739	65535.000000	4564.462899	65535.000000
57.535500	-0.090815	-0.172241	-0.168663	-0.309136	9673.331702	65535.000000	4419.297664	49099.318040
58.036500	-0.110281	-0.107247	-0.177495	-0.244142	8460.167046	65535.000000	4162.998508	42663.590966
58.536500	-0.109781	-0.096117	-0.190314	-0.233012	8323.534839	65535.000000	4088.786900	41654.914448
59.036500	-0.106285	-0.082252	-0.187440	-0.219147	8193.437889	65535.000000	4056.078534	40433.997506
59.534500	-0.109322	-0.059035	-0.197068	-0.193959	7854.631880	65251.079985	3957.756666	38313.253177
60.040000	-0.106573	-0.045313	-0.194083	-0.175153	7671.481023	64524.544804	3915.616153	36808.127600
60.534500	-0.110622	-0.023818	-0.196963	-0.140681	7258.766739	62708.193712	3822.010583	34212.863948
61.035000	-0.118282	-0.015314	-0.203062	-0.101229	6801.331333	58589.673268	3718.237458	31484.834940
61.535500	-0.119790	-0.012775	-0.207270	-0.109731	6866.140696	60025.400690	3727.560367	32051.963632
62.036000	-0.125221	-0.017753	-0.222460	-0.119906	6910.696053	60713.995890	3716.679819	32745.438491
62.536000	-0.126734	-0.005140	-0.215415	-0.065467	6414.884657	55399.107061	3619.819348	29217.177813
63.036500	-0.131425	-0.007048	-0.216198	-0.052126	6268.238791	53585.246167	3592.940667	28417.930265
63.536500	-0.137466	-0.000310	-0.221968	-0.049266	6198.069896	54040.628747	3576.942912	28249.790386
64.049500	-0.131931	-0.000520	-0.220733	-0.068136	6393.966304	56289.014528	3614.713262	29380.073075
64.540000	-0.131794	-0.000107	-0.224016	-0.068347	6396.834910	56365.796531	3608.827909	29392.993757
65.057000	-0.130662	0.000353	-0.221504	-0.063707	6367.974396	55853.000343	3604.774049	29110.329014
65.538000	-0.132587	0.002161	-0.217907	-0.052297	6260.357352	54693.559359	3590.066776	28428.052007
66.038500	-0.135564	0.002042	-0.216935	-0.042194	6157.957248	53486.918006	3573.208678	27838.651858
66.535500	-0.130158	0.002345	-0.218967	-0.039826	6181.465988	53246.667349	3565.210058	27702.489728
67.036000	-0.132459	0.001765	-0.216460	-0.034127	6119.911406	52522.937839	3559.458439	27377.807071
67.536500	-0.132160	0.001373	-0.219272	-0.029749	6088.957011	51980.076908	3546.655766	27131.237097
68.036500	-0.134267	0.001081	-0.214998	-0.025720	6042.949244	51493.460485	3547.090035	26906.554599
68.536500	-0.131724	-0.000797	-0.215410	-0.034775	6130.466781	52304.341573	3562.511903	27414.485073
69.037000	-0.134045	-0.002116	-0.215987	-0.039004	6145.099143	52636.988152	3569.122215	27655.393660
69.537500	-0.132886	-0.003162	-0.218387	-0.043043	6185.269944	52981.465773	3572.107530	27887.669951
70.037500	-0.135363	-0.004244	-0.216578	-0.045153	6182.417644	53100.343238	3579.288546	28009.848982
70.535000	-0.132641	-0.004179	-0.213972	-0.052371	6260.514965	53950.494854	3597.581310	28432.408222
71.035500	-0.132177	-0.004353	-0.220785	-0.055360	6288.068033	54282.944740	3590.411258	28609.449380
71.535500	-0.131542	-0.004814	-0.219660	-0.057315	6308.868151	54460.214464	3596.178955	28725.864450
72.036000	-0.131715	-0.005024	-0.214903	-0.059363	6324.015844	54679.264615	3609.072757	28848.429113
72.536500	-0.129215	-0.004438	-0.212826	-0.058635	6338.388713	54662.302152	3611.652964	28804.841980
73.036500	-0.128022	-0.005008	-0.208765	-0.058483	6346.862362	54576.209169	3619.174107	28795.740275
73.536500	-0.126639	-0.003358	-0.216757	-0.056129	6338.957454	54492.380448	3599.414921	28655.168328
74.043000	-0.125262	-0.003937	-0.212072	-0.055377	6344.040991	54334.194405	3606.869722	28610.422642
74.537500	-0.124870	-0.003305	-0.213949	-0.053417	6331.305320	54177.048629	3599.595011	28494.211733
75.037500	-0.125528	-0.003059	-0.212789	-0.051101	6307.259363	53932.752941	3597.415489	28357.509027
75.535000	-0.123669	-0.002448	-0.217358	-0.049220	6307.091918	53783.693673	3585.363407	28247.098472
76.035500	-0.121685	-0.002214	-0.210012	-0.047042	6305.531796	53556.059257	3595.006663	28119.782728
76.536000	-0.120975	-0.001348	-0.216251	-0.044228	6288.629610	53329.021529	3578.188914	27956.216545
77.036500	-0.124137	-0.000442	-0.218528	-0.041683	6243.202243	53138.796506	3569.373760	27809.226865
77.536500	-0.124909	-0.000284	-0.211869	-0.038846	6214.781464	52829.361714	3576.353203	27646.353530
78.036500	-0.126676	-0.001001	-0.211612	-0.032383	6150.846186	52009.477778	3565.050177	27279.279809
78.537000	-0.123928	-0.000459	-0.210592	-0.035525	6196.479091	52428.556564	3572.612496	27457.081438
79.037500	-0.122402	0.000021	-0.210358	-0.033327	6191.242438	52232.715362	3569.035664	27332.558348
79.535000	-0.122597	0.000665	-0.213797	-0.030964	6171.377177	52037.483027	3558.562187	27199.444649
80.035000	-0.126730	-0.000007	-0.216121	-0.024999	6094.099542	51291.184654	3543.838905	26866.558551
80.535500	-0.123062	0.000821	-0.209710	-0.028087	6145.600985	51730.180441	3560.733291	27038.308349
81.035500	-0.123150	0.000038	-0.211534	-0.027278	6138.717400	51551.157506	3556.012999	26993.192825
81.535500	-0.125678	-0.000069	-0.210398	-0.025886	6108.796827	51383.321388	3555.555974	26915.749887
82.036000	-0.126670	0.001189	-0.218806	-0.019253	6051.371260	50786.114052	3529.150034	26550.206183
82.536500	-0.123326	0.000645	-0.205469	-0.023142	6105.822389	51156.852354	3559.469628	26763.849966
83.037000	-0.124840	-0.000099	-0.206245	-0.022857	6092.196970	51042.518958	3557.567196	26748.156420
83.543000	-0.124516	0.000192	-0.211261	-0.021241	6082.450511	50895.678139	3545.780549	26659.211405
84.037000	-0.127752	0.000132	-0.218315	-0.015352	6014.388046	50241.763034	3523.289090	26337.820500
84.535000	-0.122065	0.000085	-0.207240	-0.020164	6092.816157	50764.797731	3550.991450	26600.104413
85.035000	-0.123410	0.000984	-0.215529	-0.018702	6071.660298	50702.780030	3533.868432	26520.110460
85.535000	-0.122022	-0.000339	-0.211007	-0.018703	6082.106233	50557.139677	3541.762236	26520.124597
86.035500	-0.129443	0.000093	-0.217547	-0.012520	5981.175190	49929.273839	3519.763038	26184.786688
86.536000	-0.123612	0.000330	-0.210307	-0.017203	6058.905852	50465.957534	3540.360484	26438.343522
87.036000	-0.124140	0.000694	-0.205360	-0.016509	6049.775664	50429.798138	3547.844670	26400.610802
87.536500	-0.124994	-0.000075	-0.211888	-0.015493	6035.852955	50234.524182	3534.619003	26345.450845
88.037000	-0.127074	0.001115	-0.217689	-0.009088	5973.419150	49668.686737	3513.699092	26000.699411
88.537000	-0.124422	0.000507	-0.216537	-0.014070	6029.536480	50142.812531	3524.138916	26268.416429
89.034500	-0.121786	0.000760	-0.209156	-0.013610	6045.713647	50120.240940	3536.095739	26243.564659
89.535000	-0.126291	0.000921	-0.217635	-0.013262	6009.742416	50099.806058	3520.878766	26224.767728
90.035500	-0.126146	0.001478	-0.213701	-0.012148	6002.614358	50039.272072	3525.706781	26164.783524
90.535500	-0.122718	0.000722	-0.215827	-0.011912	6026.170381	49931.528506	3521.660667	26152.063842
91.036000	-0.123702	0.000432	-0.215665	-0.011760	6017.768325	49883.681861	3521.678845	26143.931421
91.536500	-0.124098	0.000975	-0.212162	-0.010887	6008.403447	49847.928613	3526.184997	26097.048444
92.036500	-0.124206	0.001118	-0.204395	-0.010438	6004.304769	49814.875220	3538.868429	26072.961536
92.537000	-0.124346	0.000482	-0.216418	-0.010715	6005.314678	49776.045486	3518.613365	26087.825185
93.040000	-0.124710	-0.000022	-0.214857	-0.010417	6000.440188	49689.278359	3520.763434	26071.806352
93.534500	-0.124028	0.000856	-0.214020	-0.009504	5998.743156	49685.582294	3520.633676	26022.926714
94.035000	-0.129588	-0.000347	-0.212629	-0.004155	5919.621746	48983.987794	3513.913593	25738.650820
94.535000	-0.125000	0.000704	-0.213297	-0.008510	5984.335256	49562.124137	3520.172588	25969.834823
95.035000	-0.124111	0.000622	-0.203715	-0.007973	5986.914032	49495.510805	3535.753667	25941.213438
95.541000	-0.124610	0.000478	-0.211519	-0.008176	5984.750781	49501.861900	3522.639494	25952.038163
96.035500	-0.122312	0.000661	-0.210303	-0.007546	5996.972555	49453.916926	3523.642660	25918.488068
96.560500	-0.124230	0.000689	-0.211103	-0.006948	5978.551355	49392.648371	3521.249843	25886.640893
97.036500	-0.125716	0.000118	-0.215340	-0.005887	5960.021456	49218.066673	3512.260451	25830.319642
97.536500	-0.124487	0.000658	-0.213877	-0.006558	5973.835713	49347.615895	3515.869593	25865.945331
98.037000	-0.128252	0.000348	-0.207527	-0.001073	5907.138700	48730.908364	3517.335811	25576.392934
98.562500	-0.124171	-0.000685	-0.213737	-0.007137	5980.363953	49265.885504	3517.088174	25896.706443
99.035000	-0.124817	0.000373	-0.211065	-0.004357	5955.443318	49082.113841	3516.906499	25749.327160
