sample name	sample
index	291
start time	 02-25-2021  12:47:26 PM
880	0.008362
Peak Time (s)	92.538
Peak Height 	0.008362
calc peak height	90,93
Baseline Time (s)	9.537
Baseline Value 	-0.003538
subtract baseline	10,4
Abs	0.033702
Peak Time (s)	91.037
Peak Height 	0.0337
calc peak height	90,93
Baseline Time (s)	11.537
Baseline Value 	0.002532
subtract baseline	10,3
PK_550	0.013823
Peak Time (s)	90.036
Peak Height 	0.01382
calc peak height	90,93
Baseline Time (s)	9.537
Baseline Value 	-1.8388E-4
subtract baseline	10,2
PK_880	0.030898
Peak Time (s)	90.036
Peak Height 	0.0309
calc peak height	90,93
Baseline Time (s)	8.536
Baseline Value 	0.001457
subtract baseline	10,1


Time (s)	A880-A510	A880-A775	A880-A975	A880	I510	I775	I975	I880	
0.036000	-0.000407	0.000806	-0.003633	0.003039	6866.371681	45752.530052	3999.822420	24168.933505
0.537000	-0.002864	0.000482	-0.005194	0.006729	6811.403790	45358.906423	3986.916672	23989.360098
1.037000	-0.002557	-0.000849	0.000961	0.003610	6841.942956	45533.829506	4009.819937	24141.068529
1.538000	-0.000801	-0.000124	-0.003921	0.000995	6881.260127	45862.393518	4004.173045	24269.072966
2.035000	-0.000078	-0.000110	0.000535	0.001287	6885.149264	45834.886521	4014.563432	24254.731340
2.535000	-0.002800	-0.000439	-0.001409	0.005862	6819.676000	45353.643952	3998.342156	24031.403314
3.035500	0.000912	0.001207	0.003727	-0.000361	6909.100258	46128.618257	4026.765791	24335.789788
3.535500	-0.002255	-0.000078	-0.001077	0.000556	6872.088980	45910.276034	4012.356936	24290.641531
4.036000	0.000341	0.000988	-0.001858	0.000911	6892.359736	45980.690279	4009.517680	24273.201533
4.536000	-0.000925	-0.000098	-0.002457	0.001200	6878.281489	45844.665412	4007.303283	24258.999509
5.036000	-0.000585	-0.000415	-0.001269	0.000475	6887.918213	45885.019712	4012.082101	24294.657566
5.536500	-0.000963	0.000287	0.002233	0.000775	6881.784894	45924.761428	4020.119107	24279.903556
6.037000	-0.001468	0.000211	0.000018	0.000270	6881.781732	45967.261062	4015.817696	24304.724469
6.537000	0.000674	0.000616	0.000364	0.000939	6895.122854	45941.090561	4015.007616	24271.844868
7.037500	-0.000264	0.000524	-0.000060	0.000970	6886.339267	45928.881111	4013.867100	24270.312652
7.535000	-0.000699	0.000796	-0.004752	0.000654	6885.270315	45987.156694	4002.958907	24285.857808
8.035500	0.000497	0.000425	-0.001484	0.000413	6898.293246	45974.241843	4011.697425	24297.710657
8.535500	0.000000	0.000503	-0.001216	0.000184	6895.862054	46004.709677	4012.941464	24308.966227
9.035500	0.001143	-0.000274	0.001035	-0.000291	6910.572284	45974.693476	4019.785969	24332.336770
9.536500	-0.000647	0.000000	-0.000938	0.000000	6891.655962	45973.054085	4014.097007	24318.006930
10.036500	-0.000767	0.000948	0.004722	0.000956	6881.914987	45972.190828	4025.948499	24270.990790
10.536500	0.000273	-0.000601	0.002373	-0.000081	6900.747315	45921.672307	4022.631095	24322.010393
11.039500	0.000089	-0.000524	-0.002981	-0.000422	6902.169685	45962.957174	4010.042700	24338.775049
11.537000	-0.000340	0.000668	0.000000	0.000543	6889.517762	45985.405278	4015.087401	24291.278999
12.035000	-0.000864	-0.000196	0.002889	0.000108	6888.707809	45942.963414	4023.457769	24312.674687
12.534500	-0.000423	-0.000253	0.000254	0.001385	6881.156864	45811.179613	4013.614729	24249.959738
13.035500	0.001328	0.000366	-0.000696	0.000286	6906.995656	45980.954355	4013.986340	24303.921586
13.536000	0.000078	-0.000171	-0.004738	0.000037	6897.893878	45952.399456	4004.522864	24316.167048
14.036000	-0.000878	-0.000118	-0.002718	0.002749	6864.738484	45690.068208	4002.807288	24183.115892
14.536500	-0.002985	0.000469	-0.002962	0.002792	6845.438209	45743.679164	4002.096979	24181.037471
15.036500	-0.001744	0.000252	-0.000590	-0.000214	6883.665627	46019.203513	4015.506798	24328.544929
15.539500	0.003244	0.000927	0.004368	0.001226	6915.891549	45943.507956	4024.372217	24257.760846
16.037000	-0.002964	0.000713	0.000248	0.000674	6864.636160	45976.836760	4015.381327	24284.833532
16.535000	0.000178	0.000377	-0.001210	0.001586	6884.768967	45853.537558	4009.451407	24240.092177
17.035000	0.003395	0.000920	0.003798	-0.001966	6946.499640	46259.727421	4031.022498	24414.993072
17.535500	-0.000459	0.000332	-0.000529	0.001587	6879.001519	45848.965803	4011.150010	24240.026302
18.035500	-0.000155	0.000224	0.000959	0.001487	6882.645639	45848.111866	4015.126098	24244.930830
18.536500	-0.001373	0.000078	-0.005962	0.001934	6867.626804	45789.737369	3996.802006	24223.041125
19.037000	-0.001963	0.000292	-0.001126	0.001911	6862.517229	45813.119098	4008.851249	24224.166896
19.566500	-0.001927	0.000231	0.001429	0.001760	6864.199488	45821.918532	4015.621597	24231.555328
20.040000	-0.000481	-0.000126	-0.002268	0.001694	6877.834491	45793.256901	4006.547461	24234.807646
20.562500	-0.001745	0.000146	-0.002271	0.002028	6863.422836	45787.156094	4005.707257	24218.418815
21.034500	0.000159	0.000908	-0.000527	0.002161	6879.397626	45849.166799	4009.722421	24211.906329
21.554000	-0.002170	0.000181	-0.002419	0.001680	6862.737244	45824.917565	4006.205148	24235.485119
22.085000	0.000018	-0.000206	-0.001103	0.001561	6883.549715	45798.433842	4009.779966	24241.303979
22.822000	-0.001961	0.000202	-0.003267	0.001481	6866.404439	45846.579922	4004.590927	24245.221649
23.195000	-0.001945	0.000102	-0.000032	0.001698	6864.594706	45815.329014	4012.113430	24234.581319
23.536000	-0.000706	-0.000123	-0.003926	0.001747	6875.322466	45788.338909	4002.297588	24232.197218
24.036000	-0.000437	0.000481	-0.000217	0.001883	6876.528873	45834.509999	4011.189154	24225.530688
24.537000	-0.000938	0.000580	-0.004173	0.002348	6867.805317	45798.344376	4000.195752	24202.730958
25.037000	-0.000966	0.000152	0.000131	0.001533	6874.912376	45836.537705	4012.935457	24242.690064
25.537000	0.000962	0.000409	-0.003259	0.001693	6890.903768	45846.161816	4004.086047	24234.855083
26.037000	-0.000674	-0.000005	0.001394	0.001707	6875.975498	45803.897968	4015.666748	24234.157301
26.535000	0.000189	0.001719	0.000383	0.002858	6873.372315	45860.383683	4010.252398	24177.778234
27.035500	0.002942	0.000688	-0.000638	-0.000082	6925.077124	46049.378815	4015.055849	24322.055120
27.536000	-0.000024	0.000172	0.002149	-0.000377	6900.736099	46027.454469	4022.813217	24336.579764
28.036000	-0.000897	0.001224	-0.001123	0.001246	6878.124815	45970.899907	4010.518076	24256.766411
28.536500	-0.000785	0.000269	-0.001850	0.006363	6833.164260	45373.767370	3996.017179	24007.067482
29.036500	0.000545	-0.000167	-0.005818	-0.000026	6902.712734	45959.065166	4002.000221	24319.280397
29.537000	-0.001139	0.000870	0.003688	0.000761	6880.316821	45983.859838	4023.826833	24280.562958
30.037000	-0.000340	0.000272	0.000777	0.000239	6892.276829	45976.311097	4017.802392	24306.247841
30.541000	-0.002287	-0.000246	-0.003155	0.003625	6844.215300	45591.382513	3999.555848	24140.301412
31.034500	-0.001470	0.000952	0.005067	0.002534	6861.347137	45816.675233	4022.830568	24193.636349
31.538000	-0.001333	0.000474	-0.002296	0.000468	6881.211411	45973.582018	4009.530900	24294.962041
32.035500	0.002750	0.001012	0.000780	0.000958	6913.830376	45978.434915	4016.004328	24270.914115
32.535000	-0.004801	-0.000374	-0.006354	0.005425	6805.780515	45402.708368	3987.266559	24052.635932
33.036000	0.001941	0.000263	-0.005974	0.000331	6912.165312	45966.246083	4000.730929	24301.701005
33.536500	0.000719	0.000830	0.000842	-0.000437	6908.039755	46098.690717	4019.667710	24339.520444
34.036500	-0.001942	0.000841	-0.001220	0.003032	6852.627386	45756.581436	4005.823106	24169.268094
34.537000	-0.000475	0.000143	-0.000573	0.002393	6871.577553	45750.831644	4009.026760	24200.526707
35.037000	-0.000060	0.000529	-0.001683	0.002402	6875.244253	45788.003421	4006.240918	24200.108616
35.537000	-0.000213	0.000686	-0.003199	0.002408	6873.813137	45802.916589	4002.461980	24199.830010
36.035000	-0.002112	0.000332	0.003663	0.002169	6858.862634	45791.611247	4020.210839	24211.520727
36.535500	-0.000753	0.000599	-0.002445	0.003505	6859.070544	45686.289689	4001.611550	24146.192822
37.035500	-0.001252	0.000328	-0.001336	0.002309	6865.328372	45777.268676	4007.334320	24204.630094
37.535500	0.000594	0.001103	-0.001074	0.003162	6874.277675	45769.610655	4005.863523	24162.909620
38.036000	-0.002022	-0.000204	-0.002998	0.001958	6861.563991	45759.558826	4004.076269	24221.851197
38.539000	-0.001251	-0.000103	-0.001706	0.001887	6869.148238	45776.514275	4007.464456	24225.340518
39.036500	-0.000153	0.000341	-0.000295	0.002468	6873.809382	45762.989697	4009.536081	24196.886711
39.537000	-0.002609	0.000065	-0.001734	0.001948	6856.381835	45787.075106	4007.243414	24222.354960
40.037500	-0.000950	0.000419	-0.000256	0.002269	6868.414325	45790.272809	4010.129182	24206.631573
40.534500	-0.001294	0.000995	-0.002453	0.002870	6859.906288	45787.842488	4003.165145	24177.205710
41.035000	-0.003596	-0.000005	-0.003573	0.001750	6849.295428	45799.572565	4003.165145	24232.037370
41.535500	-0.001534	0.000026	-0.001288	0.001842	6866.997686	45793.572046	4008.618708	24227.526660
42.035500	-0.002673	0.001069	0.000122	0.002694	6849.108466	45812.408460	4010.011905	24185.813611
42.536000	-0.002477	0.000547	-0.001101	0.002942	6848.641062	45736.540178	4006.345802	24173.694515
43.036500	-0.000424	0.000186	0.002283	0.002561	6870.524758	45738.550416	4015.753230	24192.337439
43.536500	-0.001817	0.000627	-0.001560	0.000799	6873.848415	45956.005030	4010.542640	24278.708006
44.037000	0.000436	0.000299	0.000610	0.000660	6895.502558	45937.334602	4016.326191	24285.557335
44.537000	-0.000423	0.000254	-0.000492	0.003843	6858.987390	45619.108524	4005.617315	24129.664330
45.037500	0.000618	0.000149	0.000698	0.000419	6899.336605	45946.309269	4017.151746	24297.405311
45.535000	-0.002425	-0.000582	0.003263	-0.000414	6879.315460	45956.437547	4025.725270	24338.394710
46.035000	-0.000023	0.000180	-0.002329	0.000455	6893.194689	45945.848042	4009.481238	24295.622222
46.535500	-0.001582	0.000774	0.000937	0.001764	6867.266863	45875.182227	4014.375819	24231.354840
47.035500	-0.001553	0.000072	-0.003105	0.001570	6869.280159	45824.950103	4004.773806	24240.874064
47.539000	-0.002402	-0.000139	-0.005282	0.002397	6854.199563	45722.638181	3997.335529	24200.340570
48.036500	0.001475	-0.000186	0.001493	0.000458	6906.770057	45909.279255	4019.054177	24295.468629
48.538500	-0.001654	-0.000137	-0.001726	0.004096	6845.671318	45555.947084	4001.925753	24117.324414
49.037000	-0.000186	0.000747	0.003284	0.000803	6888.565266	45967.521348	4022.700811	24278.518196
49.537500	0.002425	0.000255	-0.000481	-0.002393	6941.514229	46236.068816	4021.264804	24436.129615
50.037500	0.000359	0.000822	0.002562	0.000186	6899.097962	46036.046609	4022.434170	24308.834416
50.535000	-0.002701	0.000947	-0.001280	0.006700	6813.102897	45407.139442	3996.593668	23990.747024
51.035500	0.015164	0.002246	0.004469	0.004481	6995.710458	45752.242061	4016.420109	24098.557835
51.535500	-0.022870	-0.017698	-0.011563	0.120904	5786.364038	34223.359574	3729.721332	19123.389177
52.035500	-0.030627	-0.037067	-0.013679	-0.150169	8146.821459	58765.815567	4419.213368	33148.604898
52.539000	-0.037369	-0.163241	-0.013120	-0.326072	10619.503558	65535.000000	5167.848560	48232.807648
53.036000	-0.033781	-0.165456	-0.001288	-0.328287	10722.618997	65535.000000	5241.553394	48464.426499
53.536500	-0.043576	-0.136212	-0.006512	-0.299044	10054.833926	65535.000000	5064.869679	45499.979993
54.034000	-0.037850	-0.106022	-0.001546	-0.268853	9665.947806	65535.000000	4944.166106	42641.955411
54.534500	-0.025818	-0.087988	-0.006808	-0.250520	9569.280318	65491.972817	4837.432472	41000.908990
55.035000	-0.015017	-0.098020	-0.008040	-0.260851	9899.072447	65535.000000	4877.906916	41917.117356
55.534500	-0.014215	-0.079830	-0.003505	-0.241447	9607.914121	65360.277547	4812.199495	40213.980600
56.035000	-0.014354	-0.062909	-0.003798	-0.217657	9251.253676	64381.215918	4710.438574	38227.132187
56.535500	-0.013426	-0.046783	-0.004329	-0.192514	8909.796311	63119.280125	4607.991478	36242.282023
57.039000	-0.013011	-0.026172	-0.000651	-0.143861	8283.787469	59358.323688	4442.499967	32713.009794
57.536500	-0.010966	-0.018690	-0.001948	-0.108027	7884.901622	55794.678781	4318.210094	30355.092528
58.037000	-0.007233	-0.012803	0.000488	-0.085227	7673.145149	53776.954282	4254.427862	28953.016746
58.536500	-0.004574	-0.011606	-0.005104	-0.056712	7400.438904	50679.625372	4154.074408	27299.996519
59.037500	-0.003102	-0.008955	0.001983	-0.039664	7243.821917	49123.926128	4126.223286	26362.307695
59.535000	-0.006394	-0.009819	0.000294	-0.029747	7115.338894	47992.333288	4094.568351	25833.551743
60.035000	-0.001563	-0.005235	-0.001690	-0.014980	7021.238916	46948.977740	4050.343595	25068.240860
60.535500	-0.000065	-0.005205	0.006785	-0.004822	6940.954134	45935.105662	4045.993485	24556.680166
61.035500	0.003726	0.001946	0.006603	0.010096	6840.122947	45173.566011	4007.713969	23826.788473
61.539000	0.002284	-0.001653	0.008195	-0.009103	7002.267405	46717.107092	4060.769734	24770.791761
62.036000	0.009101	0.005839	0.003087	-0.011632	7090.317367	47738.288373	4054.049805	24898.317739
62.537000	0.009434	0.006073	0.005204	-0.015971	7135.037649	48212.141209	4070.948098	25118.758266
63.037000	0.011309	0.006436	0.006184	-0.017293	7165.933149	48388.047154	4077.034595	25186.396364
63.537000	0.012011	0.007032	0.011239	-0.016607	7166.087106	48378.661247	4088.675027	25151.279998
64.037500	0.012249	0.007721	0.004017	-0.015120	7153.993449	48295.293167	4065.586491	25075.363953
64.537500	0.012050	0.008342	0.009763	-0.013378	7135.265125	48178.395764	4076.143145	24986.746334
65.038000	0.012440	0.008005	0.010388	-0.012338	7129.003938	48035.305008	4075.043047	24934.005307
65.535500	0.015102	0.008949	0.007089	-0.011236	7144.032606	48018.881318	4063.457905	24878.284283
66.035500	0.015296	0.009042	0.012792	-0.012185	7155.069811	48127.135771	4081.015640	24926.264208
66.536000	0.015095	0.009302	0.011390	-0.011458	7146.106476	48078.538644	4075.367097	24889.480411
67.036500	0.016661	0.009633	0.012047	-0.012252	7168.942816	48195.574586	4079.213135	24929.653484
67.539000	0.016707	0.009726	0.011250	-0.011106	7158.280570	48086.016835	4074.065047	24871.702882
68.037000	0.017841	0.010164	0.015905	-0.009550	7154.199482	47970.127306	4082.289958	24793.285902
68.534500	0.017037	0.010670	0.010530	-0.006368	7115.843898	47693.681161	4059.725099	24633.782473
69.035000	0.018172	0.011488	0.016227	-0.006101	7124.161811	47750.493685	4073.991716	24620.439546
69.537500	0.020426	0.011226	0.015019	-0.005358	7138.687253	47646.906222	4068.844834	24583.354977
70.038000	0.021125	0.011644	0.019013	-0.003148	7124.158747	47463.001092	4073.551061	24473.528708
70.535500	0.019140	0.012368	0.013846	-0.001259	7087.141589	47343.842246	4055.055003	24380.084113
71.038500	0.021643	0.013642	0.012466	-0.000641	7105.115495	47410.887876	4049.871163	24349.598025
71.535500	0.021628	0.014266	0.013539	0.000362	7095.398483	47372.143524	4050.051477	24300.215471
72.036500	0.023038	0.015230	0.018975	0.001495	7098.029878	47354.716684	4061.245402	24244.521942
72.536500	0.021715	0.014540	0.017935	0.002574	7075.184843	47174.430440	4055.720453	24191.698766
73.037000	0.022140	0.014981	0.020608	0.001925	7085.386255	47285.416882	4064.395264	24223.457682
73.537500	0.025832	0.016456	0.020352	0.003156	7108.851811	47310.399184	4060.501819	24163.209673
74.040500	0.024458	0.015697	0.024283	0.002726	7099.836152	47276.810771	4071.955775	24184.227520
74.535000	0.023638	0.015656	0.015900	0.003491	7084.738906	47194.603186	4048.063321	24146.859320
75.035500	0.026354	0.017216	0.022372	0.003881	7106.920188	47313.949478	4063.893671	24127.844450
75.538500	0.027084	0.015984	0.019409	0.003270	7119.749735	47250.578601	4057.743622	24157.629657
76.036000	0.028162	0.016672	0.021486	0.003609	7126.848099	47286.202996	4062.283960	24141.081612
76.539000	0.027435	0.016788	0.022919	0.004558	7110.776370	47201.284313	4063.552202	24094.821064
77.036500	0.026589	0.017457	0.026551	0.004386	7104.334248	47286.952471	4073.560460	24103.184652
77.537000	0.029093	0.017596	0.021213	0.005007	7122.365468	47237.853997	4057.920339	24072.972693
78.039500	0.028590	0.017562	0.021605	0.005049	7117.140623	47230.087267	4058.832892	24070.905430
78.534000	0.027507	0.016695	0.026658	0.005354	7103.855579	47110.820480	4071.289207	24056.094877
79.035000	0.028842	0.017670	0.024515	0.005641	7113.878232	47180.833116	4064.897304	24042.131598
79.535000	0.031062	0.017537	0.025253	0.005693	7134.702659	47161.966104	4066.696951	24039.629311
80.038500	0.029992	0.017037	0.030224	0.005628	7125.033672	47117.784012	4080.004503	24042.780736
80.536000	0.030083	0.016930	0.019780	0.006248	7119.954978	47043.847507	4050.970727	24012.652675
81.038500	0.028405	0.017441	0.021130	0.006200	7104.352876	47100.628427	4054.596325	24014.972309
81.536500	0.030098	0.017072	0.021114	0.005800	7124.395711	47103.740601	4055.595051	24034.403674
82.036500	0.031093	0.017830	0.030178	0.006590	7126.372345	47100.594662	4077.327005	23996.076471
82.536500	0.030852	0.018256	0.025822	0.007090	7119.261678	47093.054251	4064.524195	23971.854829
83.037000	0.032283	0.017588	0.031329	0.006170	7141.854681	47118.579630	4081.501602	24016.430890
83.537500	0.031153	0.016607	0.028263	0.005485	7137.571364	47088.531862	4075.181601	24049.698109
84.035500	0.031912	0.016364	0.030529	0.005228	7147.372419	47089.994189	4081.880340	24062.227713
84.536000	0.030259	0.016429	0.027371	0.005106	7132.622910	47109.072067	4073.827480	24068.164215
85.035500	0.031040	0.015169	0.026301	0.004122	7149.635079	47080.977498	4073.597952	24116.081573
85.536000	0.031340	0.015598	0.025946	0.004899	7145.030064	47045.583781	4070.611208	24078.217103
86.036500	0.032043	0.015925	0.029108	0.004915	7151.656527	47077.103471	4078.931535	24077.418642
86.536500	0.030667	0.015430	0.025423	0.005630	7131.504055	46954.431282	4067.308832	24042.674703
87.037000	0.030731	0.014601	0.031974	0.004785	7140.262099	46956.116250	4086.917158	24083.793896
87.537000	0.033497	0.014547	0.026898	0.005030	7164.612362	46925.755387	4072.775167	24071.827644
88.037000	0.030803	0.014824	0.032049	0.005038	7138.511261	46953.056261	4086.441937	24071.473326
88.537500	0.030628	0.014217	0.035177	0.005196	7135.306826	46875.730357	4094.407041	24063.790189
89.035000	0.029470	0.013499	0.030886	0.004982	7126.225207	46824.731291	4083.483819	24074.162651
89.535500	0.028390	0.012936	0.026604	0.004591	7119.607093	46807.334626	4073.158122	24093.192743
90.036000	0.030898	0.013823	0.032582	0.006469	7125.660567	46707.436875	4084.042733	24001.955547
90.536000	0.028706	0.012988	0.029459	0.007281	7096.907763	46541.918908	4073.595094	23962.603984
91.036500	0.030193	0.012993	0.033702	0.006491	7118.677226	46621.726476	4086.975306	24000.866237
91.536500	0.029244	0.013579	0.031537	0.007653	7098.496640	46563.908091	4078.114845	23944.624731
92.037500	0.028670	0.012657	0.031821	0.007680	7092.764666	46468.716752	4078.796148	23943.288611
92.537500	0.029328	0.012562	0.030902	0.008362	7092.537091	46390.982008	4074.554693	23910.362023
93.034500	0.028600	0.012116	0.028568	0.008726	7082.141059	46310.071588	4067.439484	23892.781882
93.535000	0.027683	0.011970	0.032530	0.008678	7073.898000	46300.253493	4078.029189	23895.111597
94.038000	0.027003	0.011609	0.030705	0.009510	7059.573748	46181.432700	4071.001444	23854.985486
94.535500	0.026391	0.011278	0.031734	0.010055	7048.658927	46094.294708	4072.277724	23828.761585
95.036000	0.027513	0.011127	0.028346	0.010698	7053.173377	46015.541030	4061.685902	23797.848385
95.536000	0.028181	0.011274	0.029691	0.011826	7048.831560	45918.376440	4062.252184	23743.744523
96.036000	0.029155	0.011760	0.031019	0.014193	7035.726809	45732.800094	4059.537710	23630.686664
