sample name	sample
index	187
start time	 02-18-2021  11:41:51 AM
880	-0.075509
Peak Time (s)	91.037
Peak Height 	-0.07551
calc peak height	90,93
Baseline Time (s)	11.037
Baseline Value 	-0.003146
subtract baseline	10,4
Abs	-0.012770
Peak Time (s)	92.038
Peak Height 	-0.01277
calc peak height	90,93
Baseline Time (s)	11.037
Baseline Value 	0.003346
subtract baseline	10,3
PK_550	-0.004215
Peak Time (s)	91.538
Peak Height 	-0.004215
calc peak height	90,93
Baseline Time (s)	9.537
Baseline Value 	7.7143E-4
subtract baseline	10,2
PK_880	-0.005798
Peak Time (s)	92.537
Peak Height 	-0.005798
calc peak height	90,93
Baseline Time (s)	9.037
Baseline Value 	0.001865
subtract baseline	10,1


Time (s)	A880-A510	A880-A775	A880-A975	A880	I510	I775	I975	I880	
0.033500	-0.000471	-0.000540	0.002069	0.001489	6694.945944	43526.412820	3900.269423	22943.169127
0.537000	-0.002987	-0.000147	-0.003649	0.004815	6643.977370	43252.994272	3878.599611	22789.989008
1.037500	-0.000663	-0.000726	-0.006775	0.003155	6678.658695	43353.497338	3875.126992	22866.257386
1.535000	-0.003300	-0.000593	-0.006175	0.005730	6633.352281	43126.742383	3870.472371	22748.056491
2.035500	0.001449	0.000072	-0.000217	0.000379	6721.651163	43687.777377	3897.423626	22994.516728
2.535500	-0.000089	0.000449	0.001738	0.000436	6707.570693	43717.842650	3902.017757	22991.882509
3.036000	0.000529	-0.000368	0.005542	-0.001873	6733.451037	43858.297382	3916.947656	23099.190429
3.536000	0.000254	-0.000460	-0.000782	0.000673	6708.502981	43610.312990	3895.353877	22980.910393
4.036500	0.000747	-0.000186	-0.001421	0.000156	6717.417748	43684.484165	3895.057404	23004.862268
4.536500	-0.000960	-0.000252	0.001387	0.000040	6703.389700	43689.228516	3902.127151	23010.254642
5.036500	0.000155	-0.000528	-0.000752	-0.000098	6714.431501	43676.212371	3897.284935	23016.644942
5.534500	0.000909	0.000073	-0.004104	0.000460	6716.156449	43680.253446	3887.886974	22990.756019
6.037500	0.000150	0.000936	0.000017	0.001075	6704.043522	43703.503192	3896.308742	22962.288587
6.535500	0.000832	-0.000156	-0.006439	-0.000238	6721.658673	43724.366452	3883.979259	23023.169160
7.035000	-0.001341	-0.000542	-0.005304	-0.000267	6702.728664	43690.709063	3886.756304	23024.476615
7.535500	0.000851	-0.001051	-0.001152	-0.000430	6723.521964	43658.308555	3897.121369	23032.080007
8.038500	0.000543	0.000586	-0.000472	0.000268	6714.632544	43746.583237	3897.076889	22999.692370
8.536000	-0.002634	-0.000225	-0.004080	-0.000053	6689.497328	43700.483266	3889.172946	23014.560387
9.036500	0.000000	0.000328	0.000700	0.000462	6708.121350	43703.967111	3899.437861	22990.660304
9.537000	0.000409	0.000000	-0.002077	0.000166	6714.345975	43701.018121	3893.455421	23004.403360
10.040000	-0.000123	-0.000503	0.000303	-0.000166	6712.573348	43684.904816	3899.999477	23019.795014
10.534500	-0.000213	-0.000798	-0.000221	-0.000495	6714.687486	43688.195538	3899.527717	23035.083766
11.037500	0.000102	0.000289	0.000000	0.000000	6713.102068	43743.811221	3898.864522	23012.102346
11.535500	0.001851	0.001204	0.002645	0.000404	6724.988703	43791.821215	3904.296154	22993.356549
12.035500	-0.000392	0.000098	0.003340	-0.000009	6708.827693	43726.691065	3906.994464	23012.541013
12.536000	-0.001048	0.000560	-0.002535	-0.000380	6706.308653	43805.041799	3893.668356	23029.743038
13.036000	0.002577	0.000688	0.003476	-0.001761	6750.668252	43947.455334	3911.604295	23093.966533
13.536500	0.000145	0.000060	0.002621	-0.000532	6718.184468	43772.347589	3906.515646	23036.817883
14.039500	0.001234	0.000556	-0.000063	-0.000633	6728.713656	43828.555842	3900.244257	23041.504113
14.536500	-0.001762	-0.000935	-0.008557	0.001998	6679.172246	43441.914404	3873.652201	22919.648123
15.037000	-0.000124	-0.000330	0.002698	0.000246	6708.934860	43662.462772	3904.809693	23000.674538
15.534500	0.000124	-0.000115	-0.000634	-0.001285	6724.649514	43826.685717	3900.439978	23071.788270
16.035000	-0.000328	0.000465	0.001799	-0.000467	6713.428213	43804.286740	3904.356936	23033.769422
16.535500	0.000346	0.000655	0.003216	-0.000311	6717.997506	43807.513741	3907.427305	23026.536263
17.036000	0.001215	-0.000146	-0.005832	0.000432	6719.111963	43662.271316	3883.827329	22992.059954
17.535000	0.002373	0.000611	0.002944	-0.002939	6759.363102	44051.568296	3913.185466	23148.910093
18.039000	-0.000894	0.000231	0.003273	-0.000064	6704.880649	43744.351953	3906.964117	23015.075095
18.536500	-0.000124	-0.000372	-0.003142	0.000793	6704.123267	43607.333238	3889.394882	22975.370231
19.037000	-0.000731	-0.000366	0.001290	0.001388	6693.549661	43552.123466	3898.628228	22947.806750
19.537000	-0.000178	0.000512	-0.002897	0.001427	6698.071819	43630.780867	3888.463015	22946.033193
20.037000	-0.001201	0.000403	-0.004384	0.001352	6689.736069	43627.523032	3885.088135	22949.483745
20.534500	-0.001607	-0.000430	-0.001736	0.000573	6693.012196	43622.379580	3893.296005	22985.518956
21.035000	-0.000261	-0.000703	0.000177	0.000148	6708.598043	43636.694136	3898.936045	23005.243271
21.535500	-0.000144	0.000505	-0.005975	0.001337	6699.147886	43638.419039	3881.333537	22950.154062
22.035500	-0.000947	-0.000709	-0.002584	0.000984	6695.192047	43557.804135	3890.271304	22966.485283
22.538500	-0.001344	-0.000112	0.001074	0.000857	6692.827260	43625.607277	3899.388336	22972.371582
23.036500	0.000171	-0.000116	0.002803	0.001262	6702.578117	43587.246039	3902.597104	22953.624373
23.536500	-0.002597	-0.000184	-0.002426	0.000532	6684.689095	43649.438149	3891.738572	22987.455515
24.037000	0.000640	-0.000149	0.003700	0.001022	6708.833078	43606.701794	3905.361239	22964.763019
24.537000	-0.000957	-0.000460	-0.008288	0.000322	6700.930246	43643.137609	3878.252203	22997.150680
25.037000	-0.001495	0.000031	-0.000713	0.001318	6687.461403	43595.843489	3893.965053	22951.068631
25.534500	-0.001453	0.000293	0.000589	0.000974	6690.846080	43652.701990	3897.934841	22966.965040
26.035500	-0.000148	0.000065	-0.000685	0.001285	6699.583322	43602.146720	3894.112988	22952.597119
26.538000	0.000423	0.000573	0.001247	0.001642	6701.457484	43616.275661	3897.908985	22936.062639
27.036000	-0.001803	-0.000556	-0.003682	0.000668	6690.462077	43601.751630	3888.399755	22981.137949
27.536000	0.000402	-0.000062	0.006268	-0.000269	6718.121867	43735.996406	3914.787069	23024.563035
28.036500	0.001055	-0.000310	-0.002626	-0.003359	6751.338676	44004.093632	3900.637127	23168.510723
28.536500	0.000503	-0.000265	0.004032	-0.000949	6725.033122	43780.909277	3910.976336	23056.156030
29.048000	0.000515	0.000090	0.007956	-0.000518	6721.330008	43773.820079	3919.554302	23036.161673
29.537000	-0.000644	-0.000151	0.001442	-0.001068	6715.944733	43802.918218	3904.949882	23061.710537
30.037500	0.000835	-0.000348	-0.000174	-0.001091	6729.225775	43786.430240	3901.083119	23062.766035
30.535500	0.001657	0.000871	0.003093	0.000319	6724.018569	43768.501577	3905.592110	22997.300843
31.048500	0.000926	0.000199	0.002856	-0.001078	6729.919568	43836.797533	3908.418904	23062.169834
31.536000	-0.001411	0.000390	0.000963	0.003664	6667.686708	43410.166050	3892.355857	22842.863922
32.035500	-0.001026	-0.000737	-0.003072	0.000755	6696.518713	43576.631229	3889.650714	22977.093944
32.547500	0.000786	-0.000068	0.002313	-0.000720	6725.510951	43777.910666	3906.221876	23045.507637
33.036500	-0.001035	-0.000307	0.000204	0.001789	6687.359671	43520.122809	3895.039140	22929.269348
33.533500	-0.000564	-0.000293	0.004923	-0.000262	6709.533147	43713.722528	3911.476947	23024.263464
34.037000	-0.001171	0.000173	0.003036	-0.000821	6709.114756	43810.203781	3908.231446	23050.240433
34.534500	0.001042	0.000102	0.007808	-0.001635	6735.894928	43880.165734	3921.946740	23088.092361
35.035000	0.000363	-0.000420	0.000462	0.001722	6700.232895	43515.905384	3895.824432	22932.400325
35.535000	-0.000662	0.000702	0.000818	0.002425	6685.058423	43555.067384	3894.986552	22899.933583
36.035500	-0.001822	-0.000738	0.000578	0.000942	6687.890516	43559.028991	3897.984863	22968.453492
36.536000	-0.001307	0.000168	-0.003768	0.002074	6682.481130	43537.839691	3884.833888	22916.104536
37.036500	-0.003053	-0.000986	-0.006718	0.000979	6676.789721	43532.452360	3880.418642	22966.761665
37.536500	-0.001117	0.000675	-0.001214	0.002140	6683.570833	43579.183811	3890.787167	22913.080469
38.036500	-0.000634	-0.000371	0.002612	0.001593	6692.595139	43532.420609	3901.330893	22938.320582
38.537000	-0.001054	-0.000364	0.004834	0.001037	6693.792553	43585.111344	3908.083511	22964.044814
39.040000	-0.002347	-0.001010	-0.002692	0.000776	6684.743296	43549.171291	3890.513382	22976.144778
39.534000	-0.001078	-0.000465	0.005503	0.001512	6689.422178	43531.277913	3908.560676	22942.106137
40.035000	-0.000707	0.000447	-0.002733	0.001910	6689.182892	43579.360619	3887.700273	22923.709518
40.535500	-0.001849	-0.000121	-0.003093	0.001705	6680.965131	43545.337565	3887.327544	22933.156252
41.035500	-0.000684	-0.000046	-0.002939	0.001325	6694.511693	43587.903356	3888.603290	22950.710013
41.536000	-0.001700	-0.000266	-0.001004	0.001609	6683.113410	43540.870126	3892.565935	22937.620754
42.036000	0.000469	-0.000887	-0.002149	0.001053	6707.050422	43534.634718	3891.150808	22963.291476
42.536000	-0.002113	-0.000283	0.001437	0.001739	6678.366444	43527.033680	3898.135053	22931.601024
43.039500	-0.000994	-0.000779	-0.001362	0.001165	6693.194711	43534.260887	3892.771570	22958.112704
43.537000	-0.001421	-0.000895	-0.005053	0.001436	6687.072707	43498.131483	3883.292997	22945.603584
44.034500	-0.001108	0.000073	-0.004982	0.001956	6685.257984	43539.990426	3882.221613	22921.561433
44.535000	0.000650	-0.000703	0.000075	-0.000799	6725.009406	43725.627508	3900.980627	23049.218326
45.035000	-0.002005	-0.000322	0.001079	0.002180	6675.454606	43482.197457	3896.207456	22911.241098
45.535500	0.002005	0.001092	0.000989	-0.000132	6731.101320	43831.874506	3901.577928	23018.240779
46.038000	0.000488	-0.000503	-0.005783	-0.001498	6729.763833	43810.204678	3888.553629	23081.693096
46.536000	-0.000860	-0.000112	0.003375	-0.001480	6717.673782	43845.335820	3910.668898	23080.871775
47.036500	-0.000733	-0.000611	-0.004235	0.001887	6689.155372	43482.499034	3884.165512	22924.756896
47.537000	-0.000205	-0.000283	0.000834	-0.001178	6720.793827	43800.812564	3903.740098	23066.802974
48.042000	0.001197	-0.000603	-0.002858	-0.001209	6733.494319	43773.617562	3894.885800	23068.280566
48.534000	-0.001266	-0.000717	0.002532	0.001560	6687.345936	43503.244520	3901.218797	22939.880775
49.037500	-0.000460	-0.000089	-0.000595	0.003326	6678.945708	43396.972932	3889.426590	22858.413859
49.546500	0.000903	0.000644	0.000243	-0.000648	6725.902562	43838.136025	3901.019927	23042.163515
50.035500	0.000851	0.000816	0.001849	-0.000758	6726.417794	43864.731901	3905.185952	23047.284318
50.535500	0.000527	0.000542	0.002297	-0.000708	6723.115926	43834.329089	3906.157187	23044.994433
51.036000	-0.004831	-0.000835	-0.004757	0.002640	6646.839009	43391.354245	3881.131809	22889.997407
51.536000	0.001028	0.000376	0.003943	-0.001558	6735.079244	43898.711869	3912.248107	23084.489813
52.036500	0.002385	0.000017	0.002567	-0.001666	6748.108598	43875.030724	3909.148285	23089.520980
52.536500	-0.007135	-0.004615	0.000614	-0.001344	6661.437823	43410.397808	3903.608309	23074.538330
53.037000	-0.029640	-0.010240	-0.011278	0.313758	4618.100152	22259.068069	3345.609110	12647.887155
53.537500	-0.046022	-0.026950	-0.020198	-0.027022	6548.164500	43723.327559	3915.493161	24305.429018
54.034500	-0.051221	-0.043708	-0.026508	-0.191535	8173.656820	60265.565801	4384.264097	34179.325463
54.535000	-0.017585	-0.074335	-0.000618	-0.255703	9510.663959	64871.263377	4738.078793	39165.269386
55.035500	-0.021145	-0.037968	-0.008735	-0.197047	8625.712436	61771.313843	4468.838359	34579.336029
55.538000	-0.023975	-0.021937	-0.014771	-0.150474	8007.932373	57773.619817	4284.015147	31354.407381
56.035500	-0.017145	-0.014648	-0.015847	-0.121499	7753.009267	55100.943683	4188.063633	29515.681477
56.536500	-0.014259	-0.009219	-0.018276	-0.093947	7483.971155	52508.649522	4098.727542	27877.488621
57.036500	-0.014892	-0.008061	-0.013768	-0.084649	7379.892498	51587.550895	4085.019236	27347.688360
57.536500	-0.012901	-0.006356	-0.014098	-0.063558	7186.285232	49462.310560	4025.525952	26187.186670
58.037000	-0.011552	-0.005569	-0.012584	-0.051821	7084.511726	48303.014982	3998.150567	25565.342334
58.537500	-0.007991	-0.006284	-0.012367	-0.054474	7145.095777	48506.056803	4005.769158	25704.403304
59.037500	-0.012463	-0.006404	-0.007960	-0.042432	6985.965975	47246.680056	3985.608081	25079.838895
59.538000	-0.013152	-0.005477	-0.012508	-0.031676	6879.180674	46254.487857	3946.247333	24536.440387
60.035500	-0.014225	-0.005706	-0.014356	-0.026409	6821.226585	45709.290208	3928.416347	24275.220061
60.535500	-0.015989	-0.005990	-0.013602	-0.028962	6828.386858	45933.437028	3936.666872	24401.417264
61.036000	-0.014000	-0.005662	-0.018304	-0.035564	6907.264636	46625.574244	3941.436360	24731.293159
61.536500	-0.014003	-0.005923	-0.021552	-0.039778	6946.512733	47025.468219	3943.869992	24944.537045
62.036500	-0.013200	-0.004804	-0.016100	-0.045235	7005.549806	47698.628889	3971.724263	25223.708824
62.537000	-0.009278	-0.004062	-0.018795	-0.059853	7185.469992	49311.182003	4002.977755	25989.056016
63.039500	-0.014470	-0.007592	-0.018320	-0.078146	7317.323808	50915.816278	4053.948451	26983.841684
63.535000	-0.015629	-0.006334	-0.015407	-0.075984	7283.520719	50815.989297	4056.035190	26864.079520
64.035000	-0.027312	-0.017016	-0.021799	-0.117996	7602.020003	54400.068792	4159.221445	29301.585585
64.535000	-0.026904	-0.018485	-0.021619	-0.128290	7719.818004	55457.158741	4191.207934	29935.680712
65.057000	-0.026460	-0.017369	-0.023152	-0.124325	7680.751827	55113.668432	4174.323309	29689.696017
65.535500	-0.021248	-0.015822	-0.024075	-0.126683	7765.158015	55585.135350	4178.708879	29835.699893
66.036000	-0.017802	-0.014121	-0.022324	-0.121965	7750.871907	55220.529881	4169.655778	29544.341157
66.536500	-0.018430	-0.013411	-0.021114	-0.117669	7695.964541	54790.297072	4160.303571	29281.731682
67.037000	-0.021300	-0.012164	-0.018624	-0.107333	7551.718394	53715.623617	4136.820892	28660.411830
67.537500	-0.016726	-0.011777	-0.020280	-0.110205	7632.511045	54098.471905	4140.433941	28831.597224
68.034500	-0.015996	-0.010890	-0.015276	-0.107314	7608.916780	53862.762406	4146.732597	28659.310186
68.534500	-0.016419	-0.010377	-0.019192	-0.104050	7568.943860	53540.887358	4125.450852	28466.175743
69.035000	-0.020745	-0.010092	-0.024208	-0.094899	7425.676692	52517.643508	4084.479258	27932.389738
69.535500	-0.015154	-0.009353	-0.013085	-0.098429	7522.157218	53007.799349	4126.881592	28136.989114
70.035500	-0.015924	-0.009500	-0.016157	-0.096613	7494.589624	52781.875075	4112.576501	28031.520718
70.535500	-0.015074	-0.008894	-0.016400	-0.094172	7477.725828	52571.535991	4104.792091	27890.487153
71.036500	-0.020577	-0.008954	-0.020342	-0.086189	7337.143959	51660.158887	4070.772139	27434.662162
71.536500	-0.013898	-0.008410	-0.016734	-0.090541	7451.806055	52212.888908	4093.373818	27682.092623
72.039500	-0.014513	-0.008010	-0.019627	-0.089116	7430.384873	52096.640288	4081.062531	27600.813866
72.536500	-0.012209	-0.007516	-0.016508	-0.087304	7435.537038	51947.687130	4084.776625	27497.841051
73.037000	-0.019136	-0.007611	-0.020602	-0.080215	7290.872499	51143.082888	4053.358810	27099.039545
73.535000	-0.013664	-0.006097	-0.014908	-0.084180	7387.760151	51755.483125	4080.449514	27321.290924
74.035500	-0.013831	-0.007113	-0.015423	-0.084414	7388.455872	51667.610820	4079.651759	27334.472676
74.535000	-0.013676	-0.006294	-0.016025	-0.082953	7374.916770	51595.493316	4073.817186	27252.277663
75.036000	-0.018905	-0.006411	-0.022457	-0.076582	7256.456548	50873.549684	4038.232004	26897.134519
75.536000	-0.014780	-0.006559	-0.014886	-0.081565	7349.210788	51410.631490	4073.116655	27174.489458
76.039000	-0.014505	-0.006027	-0.021520	-0.080996	7346.176763	51406.378121	4052.977215	27142.622974
76.536500	-0.014514	-0.006930	-0.020206	-0.081077	7346.918977	51314.744748	4056.852843	27147.174926
77.036500	-0.021047	-0.008092	-0.019997	-0.075232	7221.409651	50539.931211	4041.278169	26822.570838
77.534000	-0.015124	-0.006373	-0.017151	-0.080636	7336.114880	51327.553745	4064.143495	27122.504871
78.034500	-0.016164	-0.006773	-0.019706	-0.080868	7327.840793	51308.884324	4057.660755	27135.476510
78.535000	-0.017792	-0.006828	-0.021750	-0.080373	7306.148160	51247.643637	4050.615417	27107.822065
79.035500	-0.020426	-0.007935	-0.026991	-0.075542	7230.723193	50591.155242	4023.063109	26839.651524
79.536000	-0.018393	-0.008264	-0.017436	-0.081275	7309.221267	51188.255094	4065.134716	27158.225678
80.036500	-0.017629	-0.007188	-0.019727	-0.080449	7308.590963	51216.109921	4056.437286	27112.093030
80.536000	-0.016519	-0.007421	-0.018373	-0.080615	7321.615920	51208.583994	4060.670118	27121.338673
81.036500	-0.020242	-0.007688	-0.024938	-0.074746	7224.601733	50530.929772	4026.467735	26795.761147
81.536500	-0.018424	-0.008174	-0.022479	-0.080998	7306.081557	51167.529420	4050.329617	27142.782883
82.037000	-0.017013	-0.007602	-0.016907	-0.080821	7318.669744	51211.289176	4065.344638	27132.836662
82.537500	-0.017824	-0.008512	-0.023042	-0.081117	7313.414611	51143.170358	4049.100072	27149.422460
83.034500	-0.018972	-0.008157	-0.023768	-0.076140	7251.332595	50632.533127	4033.442668	26872.717353
83.535000	-0.016090	-0.006897	-0.021493	-0.080205	7321.813999	51221.251028	4050.862160	27098.459680
84.035500	-0.017216	-0.007106	-0.019350	-0.080217	7310.430390	51199.369914	4056.841363	27099.121451
84.535500	-0.016665	-0.007400	-0.020303	-0.080761	7321.618440	51227.193814	4055.704910	27129.537419
85.036000	-0.019143	-0.008486	-0.021109	-0.075620	7244.376972	50539.194352	4039.290529	26843.965595
85.536500	-0.015185	-0.007027	-0.020438	-0.080422	7333.306108	51230.994360	4054.387832	27110.580725
86.036500	-0.014018	-0.007459	-0.018772	-0.081004	7351.277889	51247.627377	4060.645020	27143.094667
86.536500	-0.013987	-0.007595	-0.019259	-0.081326	7354.908175	51268.372021	4060.184758	27161.089927
87.037500	-0.017626	-0.007148	-0.021938	-0.075315	7256.579872	50652.737349	4036.186887	26827.146406
87.538000	-0.014654	-0.006975	-0.019613	-0.080973	7344.410263	51298.135388	4058.212146	27141.360038
88.035000	-0.012340	-0.006014	-0.015624	-0.080430	7362.644650	51344.717498	4067.846624	27111.005858
88.538500	-0.011867	-0.006310	-0.016109	-0.080938	7372.791614	51368.450261	4067.913121	27139.415389
89.035500	-0.014889	-0.006550	-0.020854	-0.075124	7282.303295	50697.375652	4038.628316	26816.582148
89.536000	-0.012130	-0.005966	-0.019740	-0.080508	7365.635491	51358.768874	4056.567422	27115.405722
90.035500	-0.010473	-0.004987	-0.014746	-0.080090	7378.440136	51421.479011	4069.359870	27092.071848
90.536500	-0.009190	-0.005157	-0.016434	-0.079795	7388.683694	51369.530975	4063.799013	27075.598163
91.037000	-0.012446	-0.004427	-0.014977	-0.075509	7311.063757	50974.215165	4055.908961	26837.836639
91.537500	-0.007942	-0.004215	-0.014818	-0.079521	7398.811192	51444.075084	4067.557743	27060.335493
92.037500	-0.007859	-0.004272	-0.012770	-0.079159	7395.912596	51397.312815	4072.298828	27040.188780
92.537000	-0.005798	-0.004246	-0.015285	-0.079376	7419.652962	51424.390006	4065.841117	27052.237128
93.035000	-0.008984	-0.003610	-0.016666	-0.078574	7378.164091	51405.939617	4059.742451	27007.645035
93.535500	-0.005230	-0.003448	-0.013277	-0.078053	7411.762382	51365.769120	4067.761416	26978.670678
94.035500	-0.006915	-0.003687	-0.015177	-0.077921	7392.847196	51324.456073	4062.075243	26971.368003
94.536000	-0.006269	-0.003386	-0.015301	-0.077510	7395.288616	51312.160837	4060.579281	26948.547185
95.036500	-0.004964	-0.003512	-0.014345	-0.076502	7398.385785	51185.939764	4060.433893	26892.724459
95.536000	-0.005170	-0.002720	-0.014656	-0.076370	7394.866223	51259.331966	4059.199167	26885.430177
96.059000	-0.006058	-0.002743	-0.014353	-0.076209	7383.971660	51238.822102	4059.593465	26876.506428
96.537500	-0.005929	-0.002712	-0.015661	-0.075901	7382.121116	51208.026251	4055.097384	26859.483170
97.037500	-0.008782	-0.002301	-0.017125	-0.069898	7291.248547	50590.055118	4034.535174	26530.113803
97.535000	-0.004036	-0.001975	-0.014660	-0.074794	7390.275437	51166.938644	4054.804595	26798.442115
98.061000	-0.003082	-0.002139	-0.011879	-0.074811	7400.372400	51150.677169	4062.600573	26799.375097
98.536000	-0.001967	-0.001246	-0.012399	-0.073193	7395.136043	51070.092587	4056.637069	26710.339326
