sample name	sample
index	807
start time	 03-31-2021  03:10:32 PM


Wavelength (nm)	Absorbance
494.344910	NaN
494.563924	NaN
494.782919	NaN
495.001897	-0.382030
495.220856	-0.565497
495.439797	-0.726145
495.658719	-1.090177
495.877624	-0.771119
496.096510	-0.439618
496.315378	-0.247084
496.534227	-0.622229
496.753059	-1.036392
496.971872	-0.279775
497.190667	0.044869
497.409444	0.028712
497.628203	0.030518
497.846943	0.026954
498.065665	0.026128
498.284369	0.026216
498.503055	0.025795
498.721723	0.025719
498.940372	0.027543
499.159003	0.026853
499.377616	0.027482
499.596210	0.026732
499.814787	0.027615
500.033345	0.027795
500.251885	0.027718
500.470406	0.028019
500.688910	0.027945
500.907395	0.027040
501.125862	0.026381
501.344311	0.026466
501.562742	0.027416
501.781154	0.027120
501.999548	0.026661
502.217924	0.026820
502.436282	0.027495
502.654621	0.027864
502.872942	0.027523
503.091245	0.029167
503.309530	0.028471
503.527797	0.027383
503.746045	0.027883
503.964275	0.028201
504.182487	0.027942
504.400681	0.027193
504.618856	0.027036
504.837013	0.026725
505.055152	0.025890
505.273273	0.026818
505.491376	0.026825
505.709460	0.026059
505.927526	0.026104
506.145574	0.026501
506.363604	0.027043
506.581615	0.026900
506.799608	0.027517
507.017583	0.027633
507.235540	0.027588
507.453478	0.027680
507.671399	0.027944
507.889301	0.027806
508.107185	0.027106
508.325050	0.026198
508.542898	0.026129
508.760727	0.026119
508.978538	0.025431
509.196330	0.024960
509.414105	0.025673
509.631861	0.025712
509.849599	0.025498
510.067319	0.025771
510.285021	0.024769
510.502704	0.025172
510.720369	0.024205
510.938016	0.024227
511.155645	0.024023
511.373255	0.022567
511.590848	0.021906
511.808422	0.020871
512.025977	0.019778
512.243515	0.020737
512.461034	0.020584
512.678536	0.019668
512.896018	0.019833
513.113483	0.019263
513.330930	0.019868
513.548358	0.020281
513.765768	0.020596
513.983160	0.020634
514.200533	0.020137
514.417889	0.019653
514.635226	0.020393
514.852545	0.019958
515.069845	0.021080
515.287128	0.021430
515.504392	0.020600
515.721638	0.021154
515.938866	0.021294
516.156075	0.021298
516.373267	0.021897
516.590440	0.022032
516.807594	0.022234
517.024731	0.021810
517.241850	0.020767
517.458950	0.021660
517.676032	0.022130
517.893095	0.022156
518.110141	0.022028
518.327168	0.021280
518.544177	0.020911
518.761168	0.020939
518.978141	0.020588
519.195095	0.021239
519.412031	0.020941
519.628949	0.020203
519.845849	0.020640
520.062731	0.020680
520.279594	0.020737
520.496439	0.020626
520.713266	0.020181
520.930074	0.019928
521.146865	0.020040
521.363637	0.019586
521.580391	0.019811
521.797127	0.019452
522.013844	0.019551
522.230543	0.019668
522.447224	0.019798
522.663887	0.019679
522.880532	0.019766
523.097158	0.019434
523.313766	0.019637
523.530356	0.018965
523.746928	0.018658
523.963481	0.018517
524.180017	0.018373
524.396534	0.017829
524.613032	0.018127
524.829513	0.018620
525.045975	0.018566
525.262420	0.018417
525.478845	0.018900
525.695253	0.019063
525.911643	0.018796
526.128014	0.018728
526.344367	0.019782
526.560702	0.019728
526.777018	0.018949
526.993316	0.018869
527.209597	0.019308
527.425858	0.018979
527.642102	0.019300
527.858328	0.019382
528.074535	0.018950
528.290724	0.018265
528.506894	0.018347
528.723047	0.018810
528.939181	0.018970
529.155297	0.018742
529.371395	0.018784
529.587475	0.018082
529.803536	0.018054
530.019579	0.018225
530.235604	0.018275
530.451611	0.017819
530.667600	0.017720
530.883570	0.018101
531.099522	0.017932
531.315456	0.017984
531.531372	0.018181
531.747269	0.018306
531.963148	0.018497
532.179009	0.018494
532.394852	0.018408
532.610676	0.017483
532.826482	0.017235
533.042271	0.016902
533.258040	0.016916
533.473792	0.016651
533.689525	0.016603
533.905240	0.016776
534.120937	0.016365
534.336616	0.016239
534.552277	0.016392
534.767919	0.015950
534.983543	0.016085
535.199149	0.015843
535.414736	0.015795
535.630306	0.015835
535.845857	0.014944
536.061390	0.015128
536.276904	0.015599
536.492401	0.015607
536.707879	0.016294
536.923339	0.016305
537.138781	0.015627
537.354204	0.015398
537.569610	0.014830
537.784997	0.015248
538.000366	0.015125
538.215716	0.014715
538.431049	0.015009
538.646363	0.014120
538.861659	0.014527
539.076937	0.015271
539.292196	0.015427
539.507438	0.015463
539.722661	0.015314
539.937866	0.015396
540.153052	0.015542
540.368221	0.015595
540.583371	0.016035
540.798503	0.015891
541.013617	0.016050
541.228712	0.016260
541.443789	0.016395
541.658848	0.016489
541.873889	0.017069
542.088912	0.017486
542.303916	0.017137
542.518902	0.017085
542.733870	0.016720
542.948820	0.016235
543.163752	0.016388
543.378665	0.016684
543.593560	0.016646
543.808437	0.016468
544.023295	0.016252
544.238136	0.016591
544.452958	0.016758
544.667762	0.016987
544.882548	0.017480
545.097315	0.017604
545.312064	0.017235
545.526795	0.017663
545.741508	0.016783
545.956203	0.016536
546.170879	0.015904
546.385537	0.015285
546.600177	0.014933
546.814799	0.014438
547.029402	0.013995
547.243988	0.014103
547.458555	0.013421
547.673103	0.014195
547.887634	0.014213
548.102146	0.014822
548.316640	0.014952
548.531116	0.015012
548.745574	0.015253
548.960013	0.015351
549.174435	0.015055
549.388838	0.015240
549.603222	0.015229
549.817589	0.015125
550.031937	0.014876
550.246267	0.015008
550.460579	0.015076
550.674873	0.015105
550.889148	0.015073
551.103405	0.015400
551.317644	0.015304
551.531865	0.015288
551.746068	0.015438
551.960252	0.015957
552.174418	0.015946
552.388566	0.015849
552.602696	0.015653
552.816807	0.015680
553.030900	0.015568
553.244975	0.015701
553.459032	0.015423
553.673070	0.015556
553.887091	0.015157
554.101093	0.015125
554.315077	0.014997
554.529042	0.015132
554.742990	0.015049
554.956919	0.015165
555.170830	0.015093
555.384722	0.015222
555.598597	0.015299
555.812453	0.015143
556.026291	0.014888
556.240111	0.015240
556.453913	0.015032
556.667696	0.014647
556.881461	0.014604
557.095208	0.014672
557.308937	0.014531
557.522647	0.013959
557.736339	0.014036
557.950013	0.014370
558.163669	0.014129
558.377307	0.014126
558.590926	0.014364
558.804527	0.014369
559.018110	0.014475
559.231675	0.014493
559.445221	0.014769
559.658749	0.015003
559.872259	0.014844
560.085751	0.014954
560.299225	0.015215
560.512680	0.015320
560.726117	0.015528
560.939536	0.015428
561.152937	0.015196
561.366319	0.014978
561.579683	0.014804
561.793029	0.014841
562.006357	0.014514
562.219667	0.014416
562.432958	0.014395
562.646231	0.014220
562.859486	0.014366
563.072723	0.014682
563.285941	0.014593
563.499141	0.014710
563.712323	0.014519
563.925487	0.014614
564.138632	0.014415
564.351760	0.014220
564.564869	0.014097
564.777960	0.013500
564.991032	0.013288
565.204087	0.013508
565.417123	0.013210
565.630141	0.013191
565.843140	0.013289
566.056122	0.013519
566.269085	0.013790
566.482030	0.013623
566.694957	0.014198
566.907866	0.014085
567.120756	0.014202
567.333628	0.013832
567.546482	0.013590
567.759318	0.013783
567.972135	0.013682
568.184935	0.013737
568.397716	0.013889
568.610478	0.013640
568.823223	0.013468
569.035949	0.013184
569.248657	0.013665
569.461347	0.013913
569.674019	0.013820
569.886672	0.013708
570.099308	0.013324
570.311925	0.013331
570.524523	0.013207
570.737104	0.013264
570.949666	0.013053
571.162210	0.012883
571.374736	0.012969
571.587244	0.012688
571.799733	0.012814
572.012205	0.012931
572.224658	0.012751
572.437092	0.013019
572.649509	0.013344
572.861907	0.013621
573.074287	0.013980
573.286649	0.013646
573.498993	0.014329
573.711318	0.014476
573.923625	0.014484
574.135914	0.014606
574.348185	0.014729
574.560438	0.015008
574.772672	0.014984
574.984888	0.014574
575.197086	0.015081
575.409266	0.014723
575.621427	0.014652
575.833570	0.014823
576.045695	0.014918
576.257802	0.014271
576.469890	0.013848
576.681961	0.013781
576.894013	0.013965
577.106046	0.013665
577.318062	0.013766
577.530059	0.013627
577.742039	0.013303
577.954000	0.013448
578.165942	0.013835
578.377867	0.014117
578.589773	0.014256
578.801661	0.014092
579.013531	0.014338
579.225382	0.013797
579.437216	0.013995
579.649031	0.014275
579.860828	0.014130
580.072606	0.014364
580.284367	0.013961
580.496109	0.013760
580.707833	0.013631
580.919539	0.013397
581.131227	0.013539
581.342896	0.013344
581.554547	0.013533
581.766180	0.013191
581.977795	0.012774
582.189391	0.012884
582.400969	0.013044
582.612529	0.013280
582.824071	0.013658
583.035595	0.014097
583.247100	0.014206
583.458587	0.014138
583.670056	0.014197
583.881506	0.014283
584.092939	0.014300
584.304353	0.014437
584.515749	0.014426
584.727127	0.014056
584.938486	0.013827
585.149828	0.013586
585.361151	0.013477
585.572456	0.013478
585.783742	0.013574
585.995011	0.013554
586.206261	0.013697
586.417493	0.013508
586.628706	0.013475
586.839902	0.013679
587.051079	0.013763
587.262238	0.013642
587.473379	0.013890
587.684502	0.013979
587.895606	0.013933
588.106692	0.013776
588.317760	0.014141
588.528810	0.014349
588.739841	0.014142
588.950855	0.013937
589.161850	0.013813
589.372827	0.013263
589.583785	0.013200
589.794726	0.013048
590.005648	0.012895
590.216552	0.012829
590.427437	0.012818
590.638305	0.012822
590.849154	0.013260
591.059985	0.013396
591.270798	0.013928
591.481592	0.013601
591.692369	0.013844
591.903127	0.013897
592.113867	0.013985
592.324588	0.014037
592.535292	0.013819
592.745977	0.013730
592.956644	0.013972
593.167293	0.014054
593.377923	0.014547
593.588536	0.014504
593.799130	0.014652
594.009706	0.014298
594.220263	0.014267
594.430803	0.014468
594.641324	0.014240
594.851827	0.014190
595.062312	0.013946
595.272778	0.013810
595.483227	0.013710
595.693657	0.013216
595.904069	0.013145
596.114462	0.012985
596.324838	0.012843
596.535195	0.012797
596.745534	0.012754
596.955855	0.012780
597.166157	0.012641
597.376441	0.012657
597.586707	0.013190
597.796955	0.013559
598.007185	0.013858
598.217396	0.013961
598.427589	0.014046
598.637764	0.013802
598.847921	0.013784
599.058060	0.013864
599.268180	0.013959
599.478282	0.014088
599.688366	0.013951
599.898431	0.013963
600.108479	0.013704
600.318508	0.013802
600.528519	0.013690
600.738511	0.013622
600.948486	0.013722
601.158442	0.013419
601.368380	0.013039
601.578300	0.012738
601.788202	0.012642
601.998085	0.012881
602.207950	0.012691
602.417797	0.012896
602.627626	0.013098
602.837436	0.012844
603.047228	0.013039
603.257002	0.013036
603.466758	0.013412
603.676496	0.013302
603.886215	0.013275
604.095916	0.013422
604.305599	0.013267
604.515264	0.013217
604.724910	0.013460
604.934538	0.013159
605.144148	0.013162
605.353740	0.013175
605.563314	0.012854
605.772869	0.012735
605.982406	0.012618
606.191925	0.012864
606.401425	0.012680
606.610908	0.012501
606.820372	0.012638
607.029818	0.012890
607.239246	0.012895
607.448655	0.012988
607.658047	0.013311
607.867420	0.013328
608.076775	0.013064
608.286111	0.013225
608.495430	0.013333
608.704730	0.013476
608.914012	0.013230
609.123275	0.012998
609.332521	0.013231
609.541748	0.012853
609.750957	0.012859
609.960148	0.013024
610.169321	0.012776
610.378475	0.012807
610.587611	0.013027
610.796729	0.013082
611.005829	0.013278
611.214910	0.012939
611.423974	0.012905
611.633019	0.012832
611.842045	0.012711
612.051054	0.013032
612.260044	0.013096
612.469017	0.013000
612.677970	0.012954
612.886906	0.012586
613.095824	0.012872
613.304723	0.012921
613.513604	0.013054
613.722467	0.013241
613.931311	0.013023
614.140138	0.012863
614.348946	0.012909
614.557736	0.012841
614.766507	0.013268
614.975261	0.013209
615.183996	0.013362
615.392713	0.013383
615.601412	0.013011
615.810092	0.013293
616.018754	0.013322
616.227399	0.013182
616.436024	0.013214
616.644632	0.013049
616.853222	0.013054
617.061793	0.012972
617.270346	0.013218
617.478880	0.013675
617.687397	0.013647
617.895895	0.013713
618.104375	0.013862
618.312837	0.013952
618.521281	0.013992
618.729706	0.014028
618.938113	0.014113
619.146502	0.013846
619.354873	0.013844
619.563226	0.013629
619.771560	0.013512
619.979876	0.013480
620.188174	0.013510
620.396453	0.013604
620.604715	0.013596
620.812958	0.013610
621.021183	0.013670
621.229390	0.013718
621.437578	0.013774
621.645748	0.013983
621.853900	0.013823
622.062034	0.013884
622.270150	0.014056
622.478247	0.014144
622.686326	0.014112
622.894387	0.013889
623.102430	0.013744
623.310454	0.013743
623.518461	0.013662
623.726449	0.013466
623.934418	0.013176
624.142370	0.012770
624.350303	0.012548
624.558218	0.012292
624.766115	0.012357
624.973994	0.012364
625.181855	0.012495
625.389697	0.012407
625.597521	0.012845
625.805327	0.013269
626.013114	0.013449
626.220883	0.013556
626.428634	0.013728
626.636367	0.013795
626.844082	0.013605
627.051778	0.013373
627.259457	0.013263
627.467117	0.013084
627.674758	0.012743
627.882382	0.012590
628.089987	0.012361
628.297574	0.012417
628.505143	0.012477
628.712694	0.012518
628.920226	0.012481
629.127740	0.012764
629.335236	0.012837
629.542714	0.012916
629.750174	0.013138
629.957615	0.013475
630.165038	0.013655
630.372443	0.013578
630.579829	0.013906
630.787198	0.014178
630.994548	0.014181
631.201880	0.014011
631.409194	0.014230
631.616489	0.014047
631.823766	0.014065
632.031025	0.013792
632.238266	0.013856
632.445489	0.013628
632.652693	0.013693
632.859879	0.013590
633.067047	0.013718
633.274197	0.013565
633.481329	0.013754
633.688442	0.013674
633.895537	0.013707
634.102614	0.013716
634.309672	0.013673
634.516713	0.013496
634.723735	0.013287
634.930739	0.013288
635.137724	0.013108
635.344692	0.012762
635.551641	0.012779
635.758572	0.012990
635.965485	0.013179
636.172379	0.013182
636.379256	0.013103
636.586114	0.013196
636.792954	0.013096
636.999775	0.013289
637.206579	0.013808
637.413364	0.013687
637.620131	0.013486
637.826880	0.013220
638.033610	0.013345
638.240323	0.013459
638.447017	0.013584
638.653692	0.013616
638.860350	0.013527
639.066990	0.013255
639.273611	0.013265
639.480214	0.013142
639.686798	0.013065
639.893365	0.013020
640.099913	0.013114
640.306443	0.012921
640.512955	0.013022
640.719449	0.013001
640.925924	0.013061
641.132381	0.013091
641.338820	0.013291
641.545241	0.013449
641.751644	0.013420
641.958028	0.013408
642.164394	0.013366
642.370742	0.013178
642.577071	0.013367
642.783383	0.013066
642.989676	0.012979
643.195951	0.012884
643.402207	0.012718
643.608446	0.012633
643.814666	0.012442
644.020868	0.012443
644.227052	0.012379
644.433218	0.012253
644.639365	0.012420
644.845494	0.012559
645.051605	0.012773
645.257698	0.013063
645.463772	0.013124
645.669828	0.013288
645.875866	0.013396
646.081886	0.013713
646.287888	0.013704
646.493871	0.013847
646.699836	0.013847
646.905783	0.013755
647.111712	0.013714
647.317622	0.013912
647.523514	0.013917
647.729388	0.014039
647.935244	0.013854
648.141082	0.013864
648.346901	0.013863
648.552702	0.013730
648.758485	0.013729
648.964250	0.013483
649.169996	0.013148
649.375724	0.013152
649.581434	0.013255
649.787126	0.013410
649.992800	0.013331
650.198455	0.013094
650.404092	0.013070
650.609711	0.012929
650.815311	0.013078
651.020894	0.013139
651.226458	0.012923
651.432004	0.012699
651.637532	0.012481
651.843041	0.012463
652.048532	0.012775
652.254006	0.012910
652.459460	0.012954
652.664897	0.012845
652.870315	0.012944
653.075716	0.013189
653.281097	0.013428
653.486461	0.013575
653.691807	0.013732
653.897134	0.013632
654.102443	0.013719
654.307734	0.013745
654.513006	0.013832
654.718261	0.013742
654.923497	0.013505
655.128715	0.013373
655.333915	0.013319
655.539096	0.013360
655.744259	0.013286
655.949404	0.012997
656.154531	0.012928
656.359640	0.012992
656.564730	0.013086
656.769802	0.013277
656.974856	0.013076
657.179892	0.013069
657.384909	0.012766
657.589908	0.012722
657.794889	0.013087
657.999852	0.013156
658.204797	0.013095
658.409723	0.013040
658.614631	0.012984
658.819521	0.013206
659.024393	0.013252
659.229246	0.013501
659.434081	0.013459
659.638898	0.013196
659.843697	0.013262
660.048478	0.013303
660.253240	0.013317
660.457984	0.013076
660.662710	0.013089
660.867417	0.013070
661.072107	0.012825
661.276778	0.012798
661.481431	0.012880
661.686066	0.012850
661.890682	0.012901
662.095281	0.012807
662.299861	0.013028
662.504422	0.012959
662.708966	0.012849
662.913491	0.013082
663.117999	0.013057
663.322488	0.013181
663.526958	0.013338
663.731411	0.013328
663.935845	0.013512
664.140261	0.013427
664.344659	0.013492
664.549038	0.013716
664.753400	0.013516
664.957743	0.013672
665.162068	0.013511
665.366375	0.013237
665.570663	0.013171
665.774933	0.013099
665.979185	0.013090
666.183419	0.013140
666.387635	0.012976
666.591832	0.013251
666.796011	0.013310
667.000172	0.013308
667.204315	0.013286
667.408439	0.013322
667.612545	0.013323
667.816634	0.013497
668.020703	0.013365
668.224755	0.013501
668.428788	0.013437
668.632803	0.013481
668.836800	0.013522
669.040779	0.013585
669.244739	0.013645
669.448681	0.013645
669.652605	0.013458
669.856511	0.013420
670.060399	0.013367
670.264268	0.013323
670.468119	0.013137
670.671952	0.013279
670.875767	0.013394
671.079563	0.013377
671.283341	0.013408
671.487101	0.013613
671.690843	0.013645
671.894567	0.013627
672.098272	0.013713
672.301959	0.013671
672.505628	0.013596
672.709278	0.013792
672.912911	0.013809
673.116525	0.013859
673.320121	0.013683
673.523699	0.013773
673.727258	0.013939
673.930799	0.014012
674.134322	0.014417
674.337827	0.014412
674.541314	0.014109
674.744782	0.013911
674.948232	0.013758
675.151664	0.013836
675.355078	0.013719
675.558474	0.013505
675.761851	0.013306
675.965210	0.013037
676.168551	0.013010
676.371873	0.013148
676.575178	0.013198
676.778464	0.013277
676.981732	0.013326
677.184981	0.013404
677.388213	0.013713
677.591426	0.013676
677.794621	0.013835
677.997798	0.013785
678.200956	0.013707
678.404097	0.013795
678.607219	0.013764
678.810323	0.014021
679.013408	0.013996
679.216476	0.013897
679.419525	0.013998
679.622556	0.013995
679.825569	0.014105
680.028563	0.014204
680.231540	0.014321
680.434498	0.014511
680.637438	0.014348
680.840359	0.014456
681.043263	0.014293
681.246148	0.014361
681.449015	0.014186
681.651864	0.014268
681.854694	0.014093
682.057506	0.013950
682.260301	0.013799
682.463076	0.013796
682.665834	0.013753
682.868573	0.013790
683.071295	0.013674
683.273998	0.013650
683.476682	0.013688
683.679349	0.013839
683.881997	0.014012
684.084627	0.014115
684.287239	0.014013
684.489833	0.013889
684.692408	0.014030
684.894965	0.014118
685.097504	0.014166
685.300025	0.013978
685.502527	0.013911
685.705012	0.013786
685.907478	0.013671
686.109925	0.013534
686.312355	0.013505
686.514766	0.013128
686.717159	0.012914
686.919534	0.012647
687.121891	0.012546
687.324230	0.012546
687.526550	0.012407
687.728852	0.012375
687.931136	0.012480
688.133401	0.012620
688.335649	0.013023
688.537878	0.013219
688.740089	0.013434
688.942281	0.013430
689.144456	0.013479
689.346612	0.013554
689.548750	0.013536
689.750870	0.013532
689.952971	0.013342
690.155055	0.013191
690.357120	0.013171
690.559167	0.013076
690.761195	0.012938
690.963206	0.012756
691.165198	0.012715
691.367172	0.012691
691.569128	0.012789
691.771065	0.013018
691.972984	0.013069
692.174885	0.013121
692.376768	0.013382
692.578633	0.013524
692.780479	0.013702
692.982308	0.013787
693.184118	0.013970
693.385909	0.013979
693.587683	0.013975
693.789438	0.014025
693.991175	0.014200
694.192894	0.014189
694.394595	0.014417
694.596277	0.014349
694.797941	0.014455
694.999587	0.014381
695.201215	0.014449
695.402824	0.014451
695.604416	0.014346
695.805989	0.014192
696.007543	0.014046
696.209080	0.013896
696.410598	0.013881
696.612099	0.013665
696.813580	0.013732
697.015044	0.013815
697.216490	0.013753
697.417917	0.013861
697.619326	0.013898
697.820717	0.013984
698.022089	0.014106
698.223444	0.014157
698.424780	0.014280
698.626098	0.014142
698.827397	0.013937
699.028679	0.013922
699.229942	0.013965
699.431187	0.013914
699.632414	0.013876
699.833622	0.013662
700.034813	0.013572
700.235985	0.013633
700.437139	0.013787
700.638274	0.013760
700.839392	0.013837
701.040491	0.013845
701.241572	0.013824
701.442635	0.013988
701.643679	0.014365
701.844706	0.014723
702.045714	0.014815
702.246704	0.014663
702.447675	0.014812
702.648629	0.014981
702.849564	0.014865
703.050481	0.014994
703.251380	0.014812
703.452260	0.014729
703.653122	0.014575
703.853966	0.014439
704.054792	0.014629
704.255600	0.014582
704.456389	0.014442
704.657160	0.014465
704.857913	0.014165
705.058648	0.014467
705.259365	0.014295
705.460063	0.014238
705.660743	0.014388
705.861405	0.014314
706.062048	0.014293
706.262674	0.014165
706.463281	0.014194
706.663870	0.014332
706.864441	0.014207
707.064993	0.014338
707.265527	0.014458
707.466043	0.014377
707.666541	0.014337
707.867021	0.014484
708.067482	0.014758
708.267925	0.014705
708.468350	0.014805
708.668757	0.014667
708.869145	0.014725
709.069516	0.014608
709.269868	0.014504
709.470201	0.014498
709.670517	0.014423
709.870814	0.014205
710.071093	0.014365
710.271354	0.014410
710.471597	0.014555
710.671821	0.014518
710.872028	0.014578
711.072216	0.014681
711.272385	0.015030
711.472537	0.014909
711.672670	0.014950
711.872785	0.014782
712.072882	0.014748
712.272961	0.014819
712.473021	0.014722
712.673063	0.014675
712.873087	0.014655
713.073093	0.014426
713.273081	0.014575
713.473050	0.014553
713.673001	0.014620
713.872934	0.014425
714.072849	0.014196
714.272745	0.014020
714.472623	0.014048
714.672483	0.014015
714.872325	0.013876
715.072148	0.013631
715.271954	0.013496
715.471741	0.013322
715.671509	0.013312
715.871260	0.013293
716.070992	0.013358
716.270707	0.013252
716.470403	0.013253
716.670080	0.013259
716.869740	0.013546
717.069381	0.013665
717.269004	0.013697
717.468609	0.013863
717.668195	0.014028
717.867764	0.014113
718.067314	0.014225
718.266846	0.014173
718.466360	0.014245
718.665855	0.014010
718.865332	0.014013
719.064791	0.014050
719.264232	0.013962
719.463655	0.013860
719.663059	0.013865
719.862445	0.013681
720.061813	0.013669
720.261163	0.013774
720.460494	0.013957
720.659807	0.013803
720.859102	0.013933
721.058379	0.014032
721.257638	0.013907
721.456878	0.013927
721.656100	0.014297
721.855304	0.014388
722.054490	0.014408
722.253657	0.014192
722.452806	0.014427
722.651937	0.014307
722.851050	0.014175
723.050145	0.014158
723.249221	0.014290
723.448279	0.014164
723.647319	0.014186
723.846340	0.014123
724.045344	0.014351
724.244329	0.014206
724.443296	0.014177
724.642245	0.014461
724.841175	0.014387
725.040088	0.014311
725.238982	0.014115
725.437857	0.014027
725.636715	0.013843
725.835554	0.013710
726.034376	0.013631
726.233179	0.013542
726.431963	0.013365
726.630730	0.013472
726.829478	0.013405
727.028208	0.013462
727.226920	0.013438
727.425614	0.013640
727.624289	0.013731
727.822946	0.013746
728.021585	0.013958
728.220206	0.013895
728.418808	0.013935
728.617392	0.014093
728.815958	0.014180
729.014506	0.014126
729.213036	0.014217
729.411547	0.014059
729.610040	0.014161
729.808515	0.014165
730.006972	0.014232
730.205410	0.014459
730.403831	0.014479
730.602233	0.014347
730.800616	0.014376
730.998982	0.014110
731.197329	0.014179
731.395658	0.014273
731.593969	0.014320
731.792262	0.014210
731.990536	0.013957
732.188793	0.013626
732.387031	0.013646
732.585250	0.013577
732.783452	0.013521
732.981635	0.013369
733.179800	0.013243
733.377947	0.013084
733.576076	0.013045
733.774186	0.012986
733.972278	0.013113
734.170352	0.013075
734.368408	0.013136
734.566446	0.013257
734.764465	0.013445
734.962466	0.013429
735.160449	0.013531
735.358413	0.013632
735.556360	0.013665
735.754288	0.013465
735.952198	0.013392
736.150090	0.013309
736.347963	0.013211
736.545818	0.013029
736.743655	0.012848
736.941474	0.012604
737.139275	0.012486
737.337057	0.012481
737.534821	0.012475
737.732567	0.012529
737.930295	0.012470
738.128005	0.012569
738.325696	0.012565
738.523369	0.012604
738.721024	0.012704
738.918660	0.012723
739.116279	0.013020
739.313879	0.013162
739.511461	0.013049
739.709024	0.013203
739.906570	0.013145
740.104097	0.013338
740.301606	0.013431
740.499097	0.013404
740.696569	0.013496
740.894024	0.013343
741.091460	0.013457
741.288878	0.013696
741.486277	0.013751
741.683659	0.013759
741.881022	0.013758
742.078367	0.013703
742.275694	0.013854
742.473002	0.013844
742.670293	0.013763
742.867565	0.013903
743.064819	0.013929
743.262054	0.014021
743.459272	0.014058
743.656471	0.014081
743.853652	0.014460
744.050815	0.014479
744.247959	0.014512
744.445085	0.014685
744.642194	0.014715
744.839283	0.014596
745.036355	0.014421
745.233408	0.014281
745.430444	0.014074
745.627461	0.013563
745.824459	0.013723
746.021440	0.013609
746.218402	0.013475
746.415346	0.013349
746.612272	0.013228
746.809180	0.013083
747.006069	0.013185
747.202940	0.013167
747.399793	0.013240
747.596628	0.012813
747.793444	0.012844
747.990243	0.012863
748.187023	0.012860
748.383784	0.012900
748.580528	0.013180
748.777253	0.013150
748.973960	0.013341
749.170649	0.013488
749.367320	0.013684
749.563973	0.013754
749.760607	0.013608
749.957223	0.013480
750.153821	0.013554
750.350400	0.013382
750.546962	0.013605
750.743505	0.013536
750.940030	0.013654
751.136536	0.013726
751.333025	0.013764
751.529495	0.013855
751.725947	0.013945
751.922381	0.014015
752.118796	0.014111
752.315194	0.013915
752.511573	0.014026
752.707934	0.014005
752.904276	0.013937
753.100601	0.013811
753.296907	0.013839
753.493195	0.014050
753.689465	0.014099
753.885716	0.014248
754.081949	0.014563
754.278164	0.014628
754.474361	0.014721
754.670540	0.014830
754.866700	0.015167
755.062843	0.015303
755.258967	0.015177
755.455072	0.015290
755.651160	0.015433
755.847229	0.015487
756.043280	0.015304
756.239313	0.015304
756.435328	0.015418
756.631324	0.015298
756.827302	0.015379
757.023262	0.015298
757.219204	0.015258
757.415127	0.015131
757.611033	0.015039
757.806920	0.015269
758.002788	0.015191
758.198639	0.015153
758.394471	0.015180
758.590286	0.015190
758.786081	0.015194
758.981859	0.015092
759.177619	0.015008
759.373360	0.014834
759.569083	0.014656
759.764788	0.014574
759.960474	0.014421
760.156143	0.014283
760.351793	0.014222
760.547425	0.014279
760.743038	0.014277
760.938634	0.014227
761.134211	0.014171
761.329770	0.014212
761.525311	0.014556
761.720833	0.014422
761.916338	0.014410
762.111824	0.014231
762.307292	0.014268
762.502741	0.014238
762.698173	0.014401
762.893586	0.014518
763.088981	0.014518
763.284358	0.014433
763.479716	0.014692
763.675057	0.014959
763.870379	0.015044
764.065683	0.014928
764.260968	0.014941
764.456236	0.014987
764.651485	0.014806
764.846716	0.014476
765.041929	0.014203
765.237123	0.014088
765.432299	0.013848
765.627457	0.013638
765.822597	0.013687
766.017719	0.013638
766.212822	0.013289
766.407907	0.013232
766.602974	0.013295
766.798023	0.013331
766.993054	0.013139
767.188066	0.013109
767.383060	0.013273
767.578036	0.012911
767.772993	0.012906
767.967933	0.013099
768.162854	0.013116
768.357757	0.013190
768.552642	0.013219
768.747508	0.013217
768.942356	0.013254
769.137186	0.013210
769.331998	0.013393
769.526792	0.013498
769.721567	0.013366
769.916324	0.013492
770.111063	0.013747
770.305784	0.013781
770.500486	0.014279
770.695171	0.014209
770.889837	0.014155
771.084484	0.014316
771.279114	0.014337
771.473725	0.014421
771.668318	0.014230
771.862893	0.014107
772.057450	0.014077
772.251988	0.013622
772.446509	0.013603
772.641011	0.013887
772.835494	0.014013
773.029960	0.013867
773.224407	0.013980
773.418836	0.014012
773.613247	0.013951
773.807640	0.013885
774.002014	0.013974
774.196370	0.013795
774.390708	0.013553
774.585028	0.013342
774.779330	0.013335
774.973613	0.013223
775.167878	0.013468
775.362125	0.013558
775.556354	0.013577
775.750564	0.013463
775.944756	0.013783
776.138930	0.013956
776.333086	0.013944
776.527223	0.013976
776.721343	0.013953
776.915444	0.013986
777.109526	0.014044
777.303591	0.014146
777.497637	0.014218
777.691666	0.014135
777.885676	0.014098
778.079667	0.014084
778.273641	0.014117
778.467596	0.014043
778.661533	0.013807
778.855452	0.013773
779.049352	0.013627
779.243235	0.013622
779.437099	0.013563
779.630945	0.013564
779.824773	0.013703
780.018582	0.013890
780.212373	0.014137
780.406146	0.014287
780.599901	0.014258
780.793638	0.014498
780.987356	0.014527
781.181056	0.014668
781.374738	0.014606
781.568402	0.014516
781.762047	0.014391
781.955674	0.014284
782.149283	0.014232
782.342874	0.014220
782.536447	0.014096
782.730001	0.014039
782.923537	0.013817
783.117055	0.013823
783.310555	0.013800
783.504036	0.013718
783.697499	0.013644
783.890944	0.013499
784.084371	0.013599
784.277780	0.013617
784.471170	0.013707
784.664542	0.013794
784.857896	0.013669
785.051231	0.013730
785.244549	0.013675
785.437848	0.013879
785.631129	0.014037
785.824392	0.013883
786.017636	0.013930
786.210863	0.013976
786.404071	0.014083
786.597260	0.014163
786.790432	0.013978
786.983585	0.013974
787.176721	0.013719
787.369838	0.013670
787.562936	0.013737
787.756017	0.013728
787.949079	0.013534
788.142123	0.013268
788.335149	0.013096
788.528156	0.013196
788.721146	0.013288
788.914117	0.013252
789.107070	0.013224
789.300005	0.013052
789.492921	0.012945
789.685819	0.013079
789.878699	0.013398
790.071561	0.013684
790.264405	0.013808
790.457230	0.013711
790.650037	0.013844
790.842826	0.013884
791.035597	0.013881
791.228349	0.013827
791.421084	0.013852
791.613800	0.013598
791.806497	0.013422
791.999177	0.013185
792.191838	0.013178
792.384481	0.013063
792.577106	0.012952
792.769713	0.012855
792.962301	0.012725
793.154871	0.012297
793.347423	0.012332
793.539957	0.012312
793.732473	0.012226
793.924970	0.012168
794.117449	0.012302
794.309910	0.012505
794.502353	0.012421
794.694777	0.012496
794.887183	0.012853
795.079571	0.012919
795.271941	0.012928
795.464293	0.013048
795.656626	0.013143
795.848941	0.013098
796.041238	0.012992
796.233516	0.013208
796.425777	0.013520
796.618019	0.013582
796.810243	0.013548
797.002449	0.013550
797.194636	0.013556
797.386805	0.013481
797.578956	0.013394
797.771089	0.013293
797.963204	0.013198
798.155300	0.012792
798.347378	0.012666
798.539438	0.012571
798.731480	0.012460
798.923503	0.012444
799.115509	0.012431
799.307496	0.012166
799.499465	0.012223
799.691415	0.012155
799.883348	0.012223
800.075262	0.012284
800.267158	0.012243
800.459035	0.012249
800.650895	0.012168
800.842736	0.012110
801.034559	0.012218
801.226364	0.011922
801.418150	0.011927
801.609919	0.011846
801.801669	0.011694
801.993401	0.011628
802.185114	0.011780
802.376810	0.011979
802.568487	0.012082
802.760146	0.011967
802.951787	0.012294
803.143409	0.012579
803.335014	0.012724
803.526600	0.012875
803.718168	0.013095
803.909717	0.013009
804.101249	0.012899
804.292762	0.012965
804.484257	0.013209
804.675734	0.013018
804.867192	0.012731
805.058632	0.012620
805.250054	0.012594
805.441458	0.012424
805.632844	0.012420
805.824211	0.012331
806.015561	0.012173
806.206891	0.012170
806.398204	0.012065
806.589499	0.012191
806.780775	0.012335
806.972033	0.012198
807.163273	0.012184
807.354495	0.012187
807.545698	0.012410
807.736883	0.012339
807.928050	0.012210
808.119199	0.012466
808.310329	0.012471
808.501441	0.012399
808.692535	0.012431
808.883611	0.012382
809.074669	0.012333
809.265708	0.012117
809.456729	0.012260
809.647732	0.012470
809.838717	0.012365
810.029683	0.012395
810.220632	0.012311
810.411562	0.012107
810.602474	0.012320
810.793367	0.012188
810.984242	0.012190
811.175100	0.012063
811.365938	0.011938
811.556759	0.012080
811.747562	0.011948
811.938346	0.011984
812.129112	0.012460
812.319860	0.012551
812.510589	0.012822
812.701300	0.012786
812.891994	0.012723
813.082668	0.012641
813.273325	0.012532
813.463964	0.012571
813.654584	0.012555
813.845186	0.012388
814.035769	0.012186
814.226335	0.011997
814.416882	0.012065
814.607411	0.012145
814.797922	0.012148
814.988415	0.012098
815.178889	0.012235
815.369345	0.012321
815.559783	0.012164
815.750203	0.012023
815.940605	0.012398
816.130988	0.012407
816.321353	0.012606
816.511700	0.012532
816.702028	0.012545
816.892339	0.012399
817.082631	0.012332
817.272905	0.012334
817.463161	0.012471
817.653398	0.012119
817.843617	0.011918
818.033819	0.011595
818.224001	0.011710
818.414166	0.011410
818.604312	0.011458
818.794440	0.011333
818.984550	0.011285
819.174642	0.011315
819.364716	0.011386
819.554771	0.011392
819.744808	0.011592
819.934827	0.011666
820.124827	0.012074
820.314810	0.012041
820.504774	0.012054
820.694720	0.012113
820.884647	0.011830
821.074557	0.011678
821.264448	0.011836
821.454321	0.011597
821.644176	0.011391
821.834012	0.011008
822.023831	0.010795
822.213631	0.010730
822.403413	0.010632
822.593176	0.010734
822.782922	0.010498
822.972649	0.010414
823.162358	0.010465
823.352049	0.010297
823.541721	0.010569
823.731376	0.010628
823.921012	0.010537
824.110629	0.010479
824.300229	0.010521
824.489811	0.010609
824.679374	0.010466
824.868919	0.010524
825.058445	0.010607
825.247954	0.010193
825.437444	0.010150
825.626916	0.010030
825.816370	0.009878
826.005806	0.009783
826.195223	0.009575
826.384622	0.009604
826.574003	0.009564
826.763366	0.009654
826.952711	0.009806
827.142037	0.009793
827.331345	0.009903
827.520635	0.010183
827.709906	0.010095
827.899160	0.010061
828.088395	0.009996
828.277612	0.009754
828.466810	0.009624
828.655991	0.009725
828.845153	0.009861
829.034297	0.009795
829.223423	0.009794
829.412531	0.010029
829.601620	0.010295
829.790691	0.010576
829.979744	0.010849
830.168779	0.010692
830.357795	0.010578
830.546793	0.010511
830.735773	0.010750
830.924735	0.010522
831.113679	0.010295
831.302604	0.010278
831.491511	0.010224
831.680400	0.010174
831.869271	0.010497
832.058123	0.010793
832.246957	0.010792
832.435773	0.010706
832.624571	0.010579
832.813351	0.010623
833.002112	0.010796
833.190855	0.010748
833.379580	0.010744
833.568287	0.010705
833.756975	0.010492
833.945645	0.010463
834.134297	0.010355
834.322931	0.010490
834.511547	0.010394
834.700144	0.010283
834.888723	0.010103
835.077284	0.009972
835.265826	0.009817
835.454351	0.009822
835.642857	0.009795
835.831345	0.009951
836.019815	0.010047
836.208266	0.009949
836.396699	0.009658
836.585114	0.009871
836.773511	0.010187
836.961890	0.010451
837.150250	0.010432
837.338592	0.010456
837.526916	0.010200
837.715222	0.010324
837.903510	0.010593
838.091779	0.010655
838.280030	0.010641
838.468263	0.010430
838.656477	0.010290
838.844674	0.010397
839.032852	0.010132
839.221012	0.010256
839.409153	0.010283
839.597277	0.010390
839.785382	0.010601
839.973469	0.010349
840.161538	0.010385
840.349589	0.010356
840.537621	0.010206
840.725635	0.010207
840.913631	0.010112
841.101609	0.009770
841.289568	0.009490
841.477509	0.009338
841.665432	0.009589
841.853337	0.009613
842.041224	0.009565
842.229092	0.009339
842.416942	0.009540
842.604774	0.009545
842.792588	0.009549
842.980383	0.009532
843.168160	0.009615
843.355919	0.009463
843.543660	0.009273
843.731382	0.009136
843.919087	0.009329
844.106773	0.009274
844.294441	0.009246
844.482090	0.009507
844.669722	0.009711
844.857335	0.009644
845.044930	0.009770
845.232507	0.009760
845.420065	0.010140
845.607605	0.010266
845.795127	0.010595
845.982631	0.010770
846.170117	0.010770
846.357584	0.010849
846.545033	0.011168
846.732464	0.011298
846.919877	0.011502
847.107272	0.011419
847.294648	0.011351
847.482006	0.011120
847.669346	0.011154
847.856667	0.011298
848.043971	0.011152
848.231256	0.011021
848.418523	0.010987
848.605771	0.010870
848.793002	0.010942
848.980214	0.010989
849.167408	0.011024
849.354584	0.011178
849.541742	0.011071
849.728881	0.011008
849.916002	0.010934
850.103105	0.011080
850.290190	0.011359
850.477256	0.011269
850.664304	0.011314
850.851334	0.011318
851.038346	0.011553
851.225340	0.011644
851.412315	0.011729
851.599272	0.011822
851.786211	0.011634
851.973132	0.011721
852.160034	0.011887
852.346918	0.011799
852.533784	0.011863
852.720632	0.011436
852.907462	0.011329
853.094273	0.011431
853.281066	0.011488
853.467841	0.011156
853.654598	0.010787
853.841336	0.010277
854.028056	0.010175
854.214758	0.009973
854.401442	0.010103
854.588107	0.010028
854.774755	0.010094
854.961384	0.009916
855.147995	0.010136
855.334587	0.010355
855.521162	0.010624
855.707718	0.010695
855.894256	0.010869
856.080775	0.010809
856.267277	0.010860
856.453760	0.010775
856.640225	0.010919
856.826672	0.010910
857.013101	0.010787
857.199511	0.011175
857.385903	0.011094
857.572277	0.011061
857.758633	0.011078
857.944970	0.011032
858.131290	0.010953
858.317591	0.010880
858.503873	0.010877
858.690138	0.011063
858.876384	0.010680
859.062612	0.010844
859.248822	0.010677
859.435014	0.010792
859.621188	0.010494
859.807343	0.010295
859.993480	0.010279
860.179599	0.010169
860.365699	0.009715
860.551781	0.009851
860.737846	0.009651
860.923891	0.009720
861.109919	0.009581
861.295929	0.009601
861.481920	0.009834
861.667893	0.009894
861.853848	0.010088
862.039784	0.010190
862.225702	0.009986
862.411603	0.010097
862.597484	0.010025
862.783348	0.010175
862.969193	0.010474
863.155021	0.010350
863.340830	0.010256
863.526620	0.010072
863.712393	0.010071
863.898147	0.009948
864.083883	0.010138
864.269601	0.010223
864.455301	0.010020
864.640982	0.009947
864.826645	0.009957
865.012290	0.010165
865.197917	0.010274
865.383526	0.010436
865.569116	0.010404
865.754688	0.010405
865.940242	0.010760
866.125777	0.010659
866.311295	0.010566
866.496794	0.010321
866.682275	0.010097
866.867737	0.009861
867.053182	0.009905
867.238608	0.010109
867.424016	0.010084
867.609406	0.009601
867.794778	0.009697
867.980131	0.009648
868.165466	0.009708
868.350783	0.009569
868.536082	0.010006
868.721362	0.009970
868.906625	0.009635
869.091869	0.009449
869.277094	0.009621
869.462302	0.009683
869.647491	0.009826
869.832662	0.009961
870.017815	0.009973
870.202950	0.009791
870.388066	0.009520
870.573165	0.009825
870.758245	0.009823
870.943306	0.009848
871.128350	0.009512
871.313375	0.009588
871.498382	0.009627
871.683371	0.009493
871.868342	0.009160
872.053294	0.009374
872.238229	0.009160
872.423144	0.009045
872.608042	0.009026
872.792922	0.009220
872.977783	0.009143
873.162626	0.009283
873.347451	0.009512
873.532258	0.009681
873.717046	0.009617
873.901816	0.009980
874.086568	0.009985
874.271302	0.009846
874.456017	0.009631
874.640715	0.009697
874.825394	0.009440
875.010055	0.009221
875.194697	0.009236
875.379322	0.009185
875.563928	0.009019
875.748516	0.009213
875.933085	0.009290
876.117637	0.009221
876.302170	0.009022
876.486685	0.009204
876.671182	0.009119
876.855661	0.009122
877.040121	0.008845
877.224563	0.008335
877.408987	0.008069
877.593393	0.007825
877.777780	0.007862
877.962150	0.007752
878.146501	0.007409
878.330833	0.007576
878.515148	0.007513
878.699444	0.007581
878.883722	0.007927
879.067982	0.008005
879.252224	0.007930
879.436447	0.008257
879.620653	0.008508
879.804840	0.008897
879.989008	0.008874
880.173159	0.008909
880.357291	0.009262
880.541405	0.009416
880.725501	0.009524
880.909579	0.009782
881.093638	0.009471
881.277680	0.009361
881.461703	0.009178
881.645707	0.009408
881.829694	0.009557
882.013662	0.009448
882.197612	0.009628
882.381544	0.009581
882.565458	0.009595
882.749353	0.009748
882.933230	0.009689
883.117089	0.009761
883.300930	0.009519
883.484753	0.009614
883.668557	0.009502
883.852343	0.008979
884.036111	0.008780
884.219861	0.008756
884.403592	0.008852
884.587305	0.009005
884.771000	0.008709
884.954677	0.008710
885.138335	0.008429
885.321976	0.008406
885.505598	0.008841
885.689201	0.009079
885.872787	0.009294
886.056354	0.009178
886.239904	0.009131
886.423434	0.009375
886.606947	0.009537
886.790442	0.009528
886.973918	0.009747
887.157376	0.009303
887.340816	0.009283
887.524237	0.009193
887.707641	0.009177
887.891026	0.009027
888.074393	0.008970
888.257741	0.008647
888.441072	0.008684
888.624384	0.008269
888.807678	0.008378
888.990954	0.008104
889.174211	0.007722
889.357451	0.007504
889.540672	0.007569
889.723875	0.007292
889.907059	0.007509
890.090226	0.007601
890.273374	0.007923
890.456504	0.007819
890.639616	0.007770
890.822709	0.007481
891.005785	0.007630
891.188842	0.007680
891.371881	0.007721
891.554901	0.007232
891.737904	0.006815
891.920888	0.006627
892.103854	0.006624
892.286802	0.006616
892.469731	0.006900
892.652643	0.006589
892.835536	0.006148
893.018410	0.006101
893.201267	0.006725
893.384106	0.006930
893.566926	0.006798
893.749728	0.006766
893.932511	0.006742
894.115277	0.006664
894.298024	0.006395
894.480753	0.006548
894.663464	0.006374
894.846157	0.005916
895.028831	0.005805
895.211487	0.005703
895.394125	0.005735
895.576745	0.005915
895.759346	0.005633
895.941930	0.006333
896.124495	0.006474
896.307041	0.006706
896.489570	0.007071
896.672080	0.006980
896.854573	0.006989
897.037046	0.007051
897.219502	0.006926
897.401940	0.007404
897.584359	0.006940
897.766760	0.006790
897.949143	0.006801
898.131507	0.006667
898.313854	0.006562
898.496182	0.007002
898.678492	0.007032
898.860783	0.006987
899.043057	0.006761
899.225312	0.006905
899.407549	0.006704
899.589768	0.006789
899.771968	0.006622
899.954151	0.006884
900.136315	0.006357
900.318461	0.006298
900.500588	0.006038
900.682698	0.006201
900.864789	0.006254
901.046862	0.006551
901.228917	0.006463
901.410953	0.006339
901.592971	0.006373
901.774972	0.006510
901.956953	0.006309
902.138917	0.006541
902.320862	0.006343
902.502790	0.006417
902.684699	0.006517
902.866589	0.006219
903.048462	0.006319
903.230316	0.005909
903.412152	0.005937
903.593970	0.005870
903.775770	0.005987
903.957551	0.006244
904.139314	0.006118
904.321059	0.005735
904.502786	0.005888
904.684494	0.005677
904.866185	0.005900
905.047857	0.005889
905.229510	0.005937
905.411146	0.005782
905.592763	0.005759
905.774363	0.005913
905.955943	0.006054
906.137506	0.006381
906.319051	0.006551
906.500577	0.006700
906.682085	0.006455
906.863575	0.006726
907.045046	0.007082
907.226500	0.006881
907.407935	0.006696
907.589352	0.006917
907.770750	0.006548
907.952131	0.006301
908.133493	0.006019
908.314837	0.006284
908.496163	0.006003
908.677470	0.005968
908.858760	0.005944
909.040031	0.006192
909.221284	0.005870
909.402518	0.006076
909.583735	0.006435
909.764933	0.006471
909.946113	0.006430
910.127275	0.006392
910.308418	0.006022
910.489544	0.005701
910.670651	0.005567
910.851740	0.005731
911.032810	0.005257
911.213863	0.005246
911.394897	0.005261
911.575913	0.005437
911.756911	0.005581
911.937890	0.005583
912.118851	0.005614
912.299794	0.005350
912.480719	0.005317
912.661626	0.005504
912.842514	0.004925
913.023384	0.004951
913.204236	0.004491
913.385070	0.004414
913.565886	0.004542
913.746683	0.004705
913.927462	0.004427
914.108223	0.004148
914.288965	0.004286
914.469690	0.004508
914.650396	0.004395
914.831084	0.004353
915.011754	0.004395
915.192405	0.004138
915.373038	0.004087
915.553653	0.004573
915.734250	0.004760
915.914829	0.005058
916.095389	0.005286
916.275931	0.005280
916.456455	0.005358
916.636961	0.005354
916.817448	0.005296
916.997917	0.005246
917.178368	0.005378
917.358801	0.005466
917.539216	0.004658
917.719612	0.004185
917.899990	0.004156
918.080350	0.004256
918.260692	0.004059
918.441015	0.003922
918.621320	0.004226
918.801607	0.003875
918.981876	0.003246
919.162127	0.003719
919.342359	0.004304
919.522573	0.004461
919.702769	0.004403
919.882947	0.004057
920.063106	0.004468
920.243247	0.004200
920.423370	0.004078
920.603475	0.004258
920.783562	0.004155
920.963630	0.003603
921.143680	0.003104
921.323712	0.002906
921.503725	0.003271
921.683721	0.002836
921.863698	0.002753
922.043657	0.002626
922.223598	0.002469
922.403520	0.002519
922.583424	0.002640
922.763311	0.002902
922.943178	0.003131
923.123028	0.003123
923.302859	0.003199
923.482673	0.003188
923.662467	0.003381
923.842244	0.003589
924.022003	0.003430
924.201743	0.003483
924.381465	0.003536
924.561169	0.003709
924.740854	0.003757
924.920522	0.003762
925.100171	0.003576
925.279802	0.003671
925.459414	0.003704
925.639009	0.003851
925.818585	0.003443
925.998143	0.003610
926.177683	0.002589
926.357205	0.002304
926.536708	0.002288
926.716193	0.002457
926.895660	0.001997
927.075109	0.001755
927.254539	0.001347
927.433951	0.001805
927.613345	0.001097
927.792721	0.001840
927.972079	0.001433
928.151418	0.001096
928.330739	0.000745
928.510042	0.001038
928.689327	0.000860
928.868593	0.001474
929.047841	0.001402
929.227071	0.001468
929.406283	0.001206
929.585476	0.001830
929.764652	0.001900
929.943809	0.001963
930.122948	0.001995
930.302068	0.002323
930.481171	0.001584
930.660255	0.001635
930.839321	0.001273
931.018369	0.001255
931.197398	0.000924
931.376409	0.000643
931.555402	0.001336
931.734377	0.000550
931.913334	0.000239
932.092272	-0.000420
932.271192	-0.000662
932.450094	-0.001197
932.628978	-0.001517
932.807844	-0.001759
932.986691	-0.001342
933.165520	-0.002086
933.344331	-0.001957
933.523123	-0.002080
933.701898	-0.001690
933.880654	-0.002126
934.059392	-0.001827
934.238111	-0.002096
934.416813	-0.002091
934.595496	-0.002468
934.774161	-0.003181
934.952808	-0.003028
935.131437	-0.003470
935.310047	-0.003856
935.488639	-0.004062
935.667213	-0.003839
935.845769	-0.003942
936.024306	-0.003915
936.202825	-0.004292
936.381326	-0.003585
936.559809	-0.003790
936.738274	-0.004039
936.916720	-0.003832
937.095148	-0.004226
937.273558	-0.004576
937.451950	-0.004547
937.630323	-0.004732
937.808678	-0.004642
937.987015	-0.004895
938.165334	-0.005139
938.343635	-0.004329
938.521917	-0.003968
938.700181	-0.003741
938.878427	-0.003340
939.056655	-0.003360
939.234864	-0.004347
939.413055	-0.004442
939.591228	-0.004704
939.769383	-0.005034
939.947519	-0.005439
940.125638	-0.006474
940.303738	-0.006522
940.481820	-0.006585
940.659883	-0.006784
940.837929	-0.005654
941.015956	-0.005247
941.193965	-0.006053
941.371955	-0.005886
941.549928	-0.005712
941.727882	-0.005436
941.905818	-0.005523
942.083736	-0.006253
942.261636	-0.005993
942.439517	-0.006668
942.617380	-0.007345
942.795225	-0.007057
942.973052	-0.007373
943.150860	-0.007822
943.328651	-0.007038
943.506423	-0.007102
943.684176	-0.005896
943.861912	-0.005279
944.039629	-0.005310
944.217328	-0.004606
944.395009	-0.003431
944.572672	-0.003379
944.750317	-0.003241
944.927943	-0.004528
945.105551	-0.003347
945.283141	-0.003677
945.460712	-0.005060
945.638265	-0.004600
945.815801	-0.004902
945.993317	-0.005900
946.170816	-0.006242
946.348297	-0.006554
946.525759	-0.005932
946.703203	-0.006677
946.880629	-0.006389
947.058036	-0.006316
947.235425	-0.005959
947.412797	-0.005981
947.590149	-0.005767
947.767484	-0.005120
947.944800	-0.003413
948.122099	-0.003678
948.299379	-0.003633
948.476640	-0.003754
948.653884	-0.003409
948.831109	-0.003556
949.008316	-0.003343
949.185505	-0.002267
949.362676	-0.001804
949.539828	-0.002943
949.716962	-0.003006
949.894078	-0.003563
950.071176	-0.004279
950.248256	-0.003383
950.425317	-0.004155
950.602360	-0.003536
950.779385	-0.003993
950.956391	-0.004168
951.133380	-0.004253
951.310350	-0.003377
951.487302	-0.002737
951.664235	-0.001587
951.841151	-0.001216
952.018048	-0.000142
952.194927	-0.001325
952.371788	-0.000752
952.548631	0.000018
952.725455	-0.000420
952.902261	-0.000535
953.079049	0.000416
953.255819	-0.000218
953.432570	-0.001319
953.609303	-0.001468
953.786018	-0.001462
953.962715	-0.001597
954.139394	-0.001841
954.316054	-0.000094
954.492696	-0.000467
954.669320	-0.000991
954.845926	-0.000144
955.022513	0.000149
955.199083	0.001460
955.375634	0.002727
955.552166	0.003765
955.728681	0.002623
955.905177	0.002583
956.081655	0.003647
956.258115	0.004320
956.434557	0.004499
956.610980	0.007406
956.787385	0.007222
956.963772	0.007464
957.140141	0.006528
957.316492	0.008829
957.492824	0.008787
957.669138	0.008587
957.845434	0.008995
958.021712	0.010681
958.197971	0.008104
958.374212	0.008357
958.550435	0.008714
958.726640	0.008170
958.902826	0.008347
959.078995	0.008899
959.255145	0.010178
959.431277	0.012290
959.607390	0.012059
959.783486	0.012472
959.959563	0.011241
960.135622	0.012191
960.311662	0.013351
960.487685	0.012937
960.663689	0.012519
960.839675	0.013390
961.015643	0.010586
961.191593	0.009434
961.367524	0.008383
961.543437	0.009899
961.719332	0.009744
961.895209	0.008738
962.071067	0.008351
962.246907	0.009407
962.422730	0.010350
962.598533	0.011855
962.774319	0.012430
962.950086	0.015537
963.125835	0.015558
963.301566	0.014971
963.477279	0.017563
963.652973	0.019392
963.828650	0.018758
964.004308	0.017067
964.179947	0.016321
964.355569	0.018127
964.531172	0.018417
964.706757	0.019807
964.882324	0.019662
965.057873	0.018733
965.233403	0.018893
965.408916	0.018582
965.584410	0.018868
965.759885	0.020461
965.935343	0.017233
966.110782	0.017149
966.286203	0.016462
966.461606	0.018900
966.636991	0.018679
966.812357	0.018815
966.987705	0.018918
967.163035	0.019783
967.338347	0.019594
967.513641	0.022313
967.688916	0.023249
967.864173	0.022516
968.039412	0.021490
968.214632	0.023031
968.389835	0.024485
968.565019	0.025811
968.740185	0.027450
968.915333	0.026144
969.090462	0.025263
969.265573	0.025410
969.440667	0.025783
969.615741	0.025574
969.790798	0.025660
969.965836	0.023524
970.140856	0.024581
970.315858	0.024593
970.490842	0.027844
970.665808	0.029679
970.840755	0.029133
971.015684	0.027201
971.190595	0.028047
971.365487	0.026408
971.540362	0.025771
971.715218	0.025582
971.890056	0.023192
972.064875	0.020683
972.239677	0.018607
972.414460	0.021417
972.589225	0.022956
972.763972	0.023059
972.938700	0.024231
973.113411	0.026001
973.288103	0.025160
973.462777	0.026200
973.637432	0.026901
973.812070	0.027297
973.986689	0.025281
974.161290	0.026480
974.335873	0.026213
974.510437	0.026156
974.684984	0.028049
974.859512	0.028657
975.034022	0.029464
975.208513	0.029912
975.382987	0.030080
975.557442	0.027830
975.731879	0.026979
975.906298	0.024690
976.080698	0.025084
976.255080	0.024975
976.429445	0.025999
976.603790	0.025726
976.778118	0.025698
976.952427	0.025524
977.126719	0.028976
977.300992	0.030397
977.475246	0.031245
977.649483	0.030153
977.823701	0.028646
977.997901	0.027302
978.172083	0.026228
978.346247	0.025863
978.520392	0.026116
978.694519	0.022891
978.868628	0.022802
979.042719	0.023090
979.216791	0.023958
979.390845	0.026141
979.564882	0.026289
979.738899	0.027149
979.912899	0.027532
980.086880	0.026176
980.260843	0.025903
980.434788	0.026064
980.608715	0.026212
980.782623	0.025361
980.956514	0.022789
981.130386	0.023264
981.304240	0.023709
981.478075	0.024943
981.651892	0.024802
981.825692	0.025096
981.999472	0.022740
982.173235	0.022351
982.346980	0.021152
982.520706	0.020411
982.694414	0.019127
982.868104	0.016690
983.041775	0.013852
983.215428	0.015059
983.389064	0.015434
983.562680	0.015870
983.736279	0.017136
983.909860	0.019173
984.083422	0.021290
984.256966	0.021204
984.430491	0.022411
984.603999	0.024611
984.777488	0.024451
984.950959	0.024244
985.124412	0.025023
985.297847	0.023951
985.471263	0.021870
985.644661	0.020770
985.818041	0.020726
985.991403	0.021107
986.164747	0.019748
986.338072	0.021366
986.511379	0.024372
986.684668	0.023780
986.857938	0.023676
987.031191	0.028707
987.204425	0.029091
987.377641	0.028152
987.550839	0.028251
987.724018	0.028886
987.897179	0.029442
988.070322	0.025633
988.243447	0.025030
988.416554	0.025368
988.589642	0.020831
988.762712	0.021384
988.935764	0.022044
989.108798	0.021302
989.281813	0.021743
989.454811	0.018835
989.627790	0.020675
989.800751	0.021253
989.973693	0.022207
990.146617	0.023158
990.319524	0.022623
990.492412	0.023006
990.665281	0.022474
990.838133	0.022231
991.010966	0.024435
991.183781	0.022614
991.356578	0.022838
991.529356	0.021677
991.702117	0.021230
991.874859	0.021077
992.047583	0.019986
992.220288	0.021059
992.392976	0.020034
992.565645	0.020132
992.738296	0.021258
992.910929	0.021081
993.083543	0.023215
993.256139	0.022332
993.428718	0.023171
993.601277	0.023312
993.773819	0.024260
993.946342	0.024050
994.118848	0.023442
994.291335	0.022798
994.463803	0.022815
994.636254	0.021560
994.808686	0.023610
994.981100	0.022595
995.153496	0.022890
995.325874	0.022574
995.498233	0.022795
995.670574	0.022981
995.842897	0.022957
996.015202	0.023390
996.187488	0.022560
996.359757	0.020972
996.532007	0.020019
996.704239	0.021218
996.876452	0.021739
997.048648	0.021170
997.220825	0.020190
997.392984	0.021155
997.565124	0.020212
997.737247	0.020923
997.909351	0.021820
998.081437	0.022464
998.253505	0.022320
998.425554	0.021126
998.597586	0.021428
998.769599	0.023065
998.941594	0.022377
999.113571	0.021899
999.285529	0.021983
999.457469	0.022252
999.629391	0.022018
999.801295	0.021057
999.973181	0.021774
1000.145048	0.022558
1000.316897	0.023463
1000.488728	0.022628
1000.660541	0.022870
1000.832335	0.022709
1001.004111	0.021390
1001.175869	0.021027
1001.347609	0.020621
1001.519331	0.020179
1001.691034	0.020399
1001.862719	0.018049
1002.034386	0.019461
1002.206035	0.019088
1002.377665	0.018696
1002.549277	0.019717
1002.720871	0.020695
1002.892447	0.020968
1003.064004	0.020002
1003.235544	0.019433
1003.407065	0.019413
1003.578568	0.017682
1003.750052	0.019710
1003.921519	0.019450
1004.092967	0.018758
1004.264397	0.017828
1004.435809	0.019800
1004.607202	0.020122
1004.778577	0.019361
1004.949934	0.018229
1005.121273	0.018537
1005.292594	0.016511
1005.463896	0.017804
1005.635180	0.017561
1005.806446	0.017097
1005.977694	0.015183
1006.148923	0.013692
1006.320135	0.014150
1006.491328	0.013513
1006.662503	0.014741
1006.833659	0.016325
1007.004798	0.014684
1007.175918	0.015315
1007.347020	0.015963
1007.518103	0.014500
1007.689169	0.015054
1007.860216	0.014732
1008.031245	0.016905
1008.202256	0.017534
1008.373248	0.016942
1008.544223	0.018138
1008.715179	0.017832
1008.886117	0.018208
1009.057036	0.020313
1009.227938	0.020005
1009.398821	0.019364
1009.569686	0.019603
1009.740533	0.018329
1009.911361	0.017027
1010.082172	0.014126
1010.252964	0.014223
1010.423738	0.013281
1010.594493	0.013464
1010.765231	0.014806
1010.935950	0.015234
1011.106651	0.015235
1011.277334	0.013873
1011.447998	0.015106
1011.618645	0.017299
1011.789273	0.017314
1011.959882	0.018463
1012.130474	0.018350
1012.301048	0.017357
1012.471603	0.017551
1012.642140	0.015823
1012.812658	0.016190
1012.983159	0.014227
1013.153641	0.011307
1013.324105	0.011739
1013.494551	0.010986
1013.664979	0.009487
1013.835388	0.008464
1014.005779	0.007728
1014.176152	0.007958
1014.346507	0.007738
1014.516843	0.009224
1014.687162	0.012329
1014.857462	0.010963
1015.027744	0.009606
1015.198007	0.010414
1015.368252	0.011514
1015.538480	0.011242
1015.708689	0.011067
1015.878879	0.012299
1016.049052	0.012500
1016.219206	0.012234
1016.389342	0.014210
1016.559460	0.015592
1016.729559	0.015170
1016.899641	0.017074
1017.069704	0.017692
1017.239749	0.016942
1017.409775	0.016089
1017.579784	0.013656
1017.749774	0.013402
1017.919746	0.013571
1018.089700	0.011505
1018.259635	0.010784
1018.429553	0.009234
1018.599452	0.008977
1018.769333	0.010267
1018.939195	0.012091
1019.109040	0.014277
1019.278866	0.013729
1019.448674	0.011823
1019.618464	0.014300
1019.788235	0.014496
1019.957989	0.015116
1020.127724	0.015543
1020.297441	0.015095
1020.467139	0.013485
1020.636820	0.012986
1020.806482	0.011961
1020.976126	0.012839
1021.145752	0.013894
1021.315359	0.014500
1021.484948	0.014814
1021.654519	0.014059
1021.824072	0.012497
1021.993607	0.013726
1022.163123	0.014417
1022.332621	0.015682
1022.502101	0.014134
1022.671563	0.013246
1022.841007	0.012602
1023.010432	0.012209
1023.179839	0.013364
1023.349228	0.015166
1023.518598	0.013964
1023.687951	0.013189
1023.857285	0.013699
1024.026601	0.013815
1024.195899	0.011884
1024.365178	0.012311
1024.534439	0.011762
1024.703682	0.012079
1024.872907	0.012468
1025.042114	0.013761
1025.211302	0.013762
1025.380472	0.012219
1025.549624	0.012476
1025.718758	0.014874
1025.887873	0.014564
1026.056970	0.014925
1026.226049	0.015392
1026.395110	0.013501
1026.564153	0.011335
1026.733177	0.012867
1026.902183	0.013342
1027.071171	0.013072
1027.240141	0.013098
1027.409092	0.014329
1027.578026	0.014721
1027.746940	0.013078
1027.915837	0.015546
1028.084716	0.016102
1028.253576	0.015045
1028.422418	0.014876
1028.591242	0.015798
1028.760048	0.012383
1028.928835	0.010688
1029.097604	0.009121
1029.266355	0.009866
1029.435088	0.007939
1029.603803	0.008119
1029.772499	0.008426
1029.941177	0.010483
1030.109837	0.009165
1030.278478	0.010131
1030.447102	0.010982
1030.615707	0.010896
1030.784294	0.010899
1030.952863	0.012365
1031.121413	0.011143
1031.289945	0.010868
1031.458460	0.008951
1031.626955	0.008760
1031.795433	0.009055
1031.963892	0.008509
1032.132334	0.009448
1032.300756	0.009266
1032.469161	0.008525
1032.637548	0.010005
1032.805916	0.011507
1032.974266	0.011383
1033.142598	0.013370
1033.310911	0.014887
1033.479207	0.014559
1033.647484	0.014632
1033.815743	0.012974
1033.983983	0.013674
1034.152206	0.015227
1034.320410	0.013432
1034.488596	0.014795
1034.656764	0.014607
1034.824914	0.012959
1034.993045	0.013925
1035.161158	0.012632
1035.329253	0.014047
1035.497330	0.013700
1035.665388	0.013219
1035.833428	0.012054
1036.001450	0.011583
1036.169454	0.011123
1036.337440	0.010737
1036.505407	0.010157
1036.673356	0.010245
1036.841287	0.010591
1037.009200	0.010478
1037.177094	0.009927
1037.344970	0.011392
1037.512828	0.010297
1037.680668	0.009045
1037.848489	0.008852
1038.016293	0.008227
1038.184078	0.009246
1038.351845	0.008398
1038.519593	0.009144
1038.687324	0.008742
1038.855036	0.007873
1039.022730	0.008297
1039.190406	0.009588
1039.358063	0.008581
1039.525702	0.009399
1039.693323	0.008397
1039.860926	0.008941
1040.028511	0.008600
1040.196077	0.008509
1040.363625	0.009430
1040.531155	0.009268
1040.698667	0.008570
1040.866161	0.010590
1041.033636	0.009715
1041.201093	0.010983
1041.368532	0.011299
1041.535952	0.010406
1041.703355	0.011130
1041.870739	0.011324
1042.038105	0.011284
1042.205452	0.012014
1042.372782	0.012824
1042.540093	0.014996
1042.707386	0.012840
1042.874661	0.010515
1043.041918	0.010434
1043.209156	0.009620
1043.376376	0.009388
1043.543578	0.009198
1043.710762	0.006974
1043.877927	0.006264
1044.045074	0.004804
1044.212203	0.005099
1044.379314	0.007777
1044.546407	0.007337
1044.713481	0.007609
1044.880537	0.007066
1045.047575	0.007863
1045.214595	0.010063
1045.381596	0.010422
1045.548579	0.010500
1045.715544	0.010348
1045.882491	0.010952
1046.049420	0.010347
1046.216330	0.009560
1046.383222	0.009020
1046.550096	0.008807
1046.716951	0.007678
1046.883789	0.007658
1047.050608	0.007964
1047.217409	0.009472
1047.384192	0.008673
1047.550956	0.009675
1047.717703	0.010023
1047.884431	0.010211
1048.051140	0.011185
1048.217832	0.010094
1048.384505	0.009047
1048.551161	0.009359
1048.717798	0.009409
1048.884416	0.008837
1049.051017	0.009257
1049.217599	0.007480
1049.384163	0.008212
1049.550709	0.006632
1049.717237	0.009070
1049.883746	0.010162
1050.050237	0.010070
1050.216710	0.012011
1050.383165	0.012045
1050.549601	0.010719
1050.716019	0.012163
1050.882420	0.012502
1051.048801	0.011636
1051.215165	0.011818
1051.381510	0.011441
1051.547837	0.010680
1051.714146	0.008556
1051.880437	0.009746
1052.046709	0.012169
1052.212964	0.012332
1052.379200	0.012896
1052.545417	0.014041
1052.711617	0.011462
1052.877798	0.010786
1053.043961	0.011877
1053.210106	0.011712
1053.376233	0.009817
1053.542341	0.008018
1053.708432	0.006999
1053.874504	0.005355
1054.040557	0.006039
1054.206593	0.008165
1054.372610	0.009047
1054.538609	0.008161
1054.704590	0.006870
1054.870553	0.007316
1055.036497	0.008886
1055.202424	0.009129
1055.368331	0.008778
1055.534221	0.007568
1055.700093	0.006274
1055.865946	0.006058
1056.031781	0.006816
1056.197598	0.008674
1056.363397	0.008916
1056.529177	0.007922
1056.694939	0.009431
1056.860683	0.010130
1057.026409	0.010605
1057.192116	0.012930
1057.357806	0.012423
1057.523477	0.012451
1057.689130	0.011342
1057.854764	0.012953
1058.020381	0.012941
1058.185979	0.012037
1058.351559	0.012556
1058.517120	0.013362
1058.682664	0.012597
1058.848189	0.014625
1059.013696	0.013694
1059.179185	0.014864
1059.344656	0.012852
1059.510108	0.012626
1059.675542	0.012624
1059.840958	0.010998
1060.006356	0.010333
1060.171735	0.010465
1060.337096	0.008760
1060.502439	0.010283
1060.667764	0.010148
1060.833071	0.009626
1060.998359	0.011836
1061.163629	0.014539
1061.328881	0.018445
1061.494115	0.020225
1061.659330	0.020835
1061.824527	0.020507
1061.989706	0.019674
1062.154867	0.017971
1062.320010	0.018770
1062.485134	0.017785
1062.650240	0.014535
1062.815328	0.013170
1062.980398	0.011720
1063.145449	0.011503
1063.310482	0.011479
1063.475497	0.009582
1063.640494	0.010567
1063.805473	0.011192
1063.970433	0.010489
1064.135375	0.009619
1064.300299	0.010167
1064.465204	0.010573
1064.630092	0.008862
1064.794961	0.008378
1064.959812	0.010628
1065.124645	0.010038
1065.289459	0.008100
1065.454256	0.008451
1065.619034	0.010458
1065.783793	0.007631
1065.948535	0.006450
1066.113258	0.004414
1066.277964	0.004532
1066.442651	0.002759
1066.607319	0.003609
1066.771970	0.004138
1066.936602	0.000334
1067.101216	0.000823
1067.265812	0.001565
1067.430389	0.001158
1067.594949	0.003527
1067.759490	0.004100
1067.924013	0.003797
1068.088518	0.001796
1068.253004	0.001226
1068.417472	0.005117
1068.581922	0.004977
1068.746354	0.003173
1068.910768	0.003667
1069.075163	0.004335
1069.239540	0.005484
1069.403899	0.005755
1069.568240	0.007587
1069.732562	0.008949
1069.896866	0.009357
1070.061152	0.009892
1070.225420	0.011527
1070.389670	0.013192
1070.553901	0.012302
1070.718114	0.010150
1070.882309	0.011574
1071.046486	0.010068
1071.210644	0.009724
1071.374784	0.007990
1071.538906	0.006944
1071.703010	0.005098
1071.867096	0.002831
1072.031163	0.001658
1072.195212	0.000871
1072.359243	0.002624
1072.523256	0.003243
1072.687250	0.001297
1072.851226	0.002315
1073.015184	0.002222
1073.179124	0.004310
1073.343045	0.004477
1073.506949	0.006940
1073.670834	0.007064
1073.834701	0.005855
1073.998549	0.007004
1074.162380	0.007581
1074.326192	0.005754
1074.489986	0.007066
1074.653761	0.005050
1074.817519	0.004639
1074.981258	0.003395
1075.144979	0.005267
1075.308682	0.003878
1075.472367	0.005543
1075.636033	0.007343
1075.799681	0.007580
1075.963311	0.004333
1076.126923	0.007185
1076.290516	0.008138
1076.454092	0.007410
1076.617649	0.008518
1076.781187	0.009323
1076.944708	0.008230
1077.108210	0.009155
1077.271695	0.010449
1077.435160	0.012562
1077.598608	0.011078
1077.762038	0.011064
1077.925449	0.013252
1078.088842	0.012322
1078.252217	0.011010
1078.415573	0.009603
1078.578912	0.010822
1078.742232	0.011023
1078.905534	0.009759
1079.068817	0.010300
1079.232083	0.010106
1079.395330	0.010780
1079.558559	0.011551
1079.721770	0.012965
1079.884962	0.010807
1080.048136	0.008208
1080.211293	0.005592
1080.374430	0.007344
1080.537550	0.009037
1080.700651	0.009814
1080.863735	0.007211
1081.026800	0.005168
1081.189846	0.006348
1081.352875	0.008627
1081.515885	0.008380
1081.678877	0.009344
1081.841851	0.008344
1082.004807	0.006207
1082.167744	0.005412
1082.330663	0.005482
1082.493564	0.007253
1082.656447	0.004850
1082.819312	0.004452
1082.982158	0.005054
1083.144986	0.004439
1083.307796	0.003323
1083.470587	0.002786
1083.633361	0.004590
1083.796116	0.003906
1083.958853	0.003040
1084.121571	0.003873
1084.284272	0.004979
1084.446954	0.004372
1084.609618	0.007210
1084.772264	0.010074
1084.934892	0.011925
1085.097501	0.009009
1085.260092	0.008600
1085.422665	0.008655
1085.585220	0.007556
1085.747756	0.006184
1085.910274	0.005778
1086.072774	0.002812
1086.235256	0.001986
1086.397720	0.002166
1086.560165	0.004980
1086.722592	0.007921
1086.885001	0.008265
1087.047392	0.007343
1087.209764	0.008813
1087.372119	0.008395
1087.534455	0.011331
1087.696772	0.011548
1087.859072	0.010356
1088.021353	0.008975
1088.183616	0.007480
1088.345861	0.009151
1088.508088	0.008617
1088.670296	0.009147
1088.832486	0.010492
1088.994658	0.010068
1089.156812	0.006758
1089.318948	0.007381
1089.481065	0.008139
1089.643164	0.007574
1089.805245	0.005683
1089.967308	0.008937
1090.129352	0.008608
1090.291378	0.007607
1090.453386	0.008430
1090.615376	0.009724
1090.777347	0.010190
1090.939301	0.008185
1091.101236	0.010515
1091.263153	0.011517
1091.425051	0.011533
1091.586932	0.013116
1091.748794	0.012954
1091.910638	0.012716
1092.072463	0.013190
1092.234271	0.012072
1092.396060	0.014891
1092.557831	0.012406
1092.719584	0.010573
1092.881319	0.008086
1093.043035	0.003457
1093.204733	0.004465
1093.366413	0.002805
1093.528075	0.004187
1093.689718	0.005225
1093.851343	0.002902
1094.012950	0.003007
1094.174539	0.004744
1094.336110	0.008274
1094.497662	0.011208
1094.659196	0.009504
1094.820712	0.009950
1094.982210	0.010689
1095.143689	0.008367
1095.305151	0.010205
1095.466594	0.009669
1095.628018	0.008838
1095.789425	0.005987
1095.950813	0.003788
1096.112183	0.005991
1096.273535	0.004234
1096.434869	0.002362
1096.596184	0.002978
1096.757482	0.001922
1096.918761	0.003361
1097.080021	0.002578
1097.241264	0.001552
1097.402488	0.003607
1097.563694	0.004793
1097.724882	0.005468
1097.886052	0.004048
1098.047203	0.005197
1098.208336	0.003467
1098.369451	0.003302
1098.530548	0.003075
1098.691627	0.004073
1098.852687	0.005265
1099.013729	0.000785
1099.174753	0.002483
1099.335758	0.004263
1099.496746	0.006550
1099.657715	0.010678
1099.818666	0.011377
1099.979599	0.009798
1100.140513	0.009748
1100.301409	0.009483
1100.462287	0.012327
1100.623147	0.010299
1100.783989	0.010656
1100.944812	0.009964
1101.105617	0.010635
1101.266404	0.011864
1101.427173	0.015259
1101.587923	0.012303
1101.748656	0.011252
1101.909370	0.010533
1102.070066	0.011588
1102.230743	0.012296
1102.391403	0.009495
1102.552044	0.006966
1102.712667	0.004364
1102.873271	0.000640
1103.033858	0.002446
1103.194426	0.004085
1103.354976	0.005307
1103.515508	0.006008
1103.676021	0.003095
1103.836517	0.001901
1103.996994	0.000137
1104.157453	-0.000886
1104.317893	0.003489
1104.478316	0.006097
1104.638720	0.005491
1104.799106	0.006206
1104.959474	0.003391
1105.119823	0.004048
1105.280155	0.006036
1105.440468	0.009086
1105.600763	0.011183
1105.761039	0.009032
1105.921298	0.008097
1106.081538	0.007863
1106.241760	0.007004
1106.401964	0.009711
1106.562149	0.011500
1106.722316	0.012520
1106.882465	0.008967
1107.042596	0.009672
1107.202709	0.009837
1107.362803	0.009392
1107.522879	0.007163
1107.682937	0.006030
1107.842977	0.005867
1108.002999	0.003763
1108.163002	0.004970
1108.322987	0.005917
1108.482954	0.002923
1108.642902	0.005747
1108.802833	0.007461
1108.962745	0.007918
1109.122639	0.009064
1109.282515	0.009026
1109.442372	0.013251
1109.602211	0.009593
1109.762032	0.009881
1109.921835	0.010919
1110.081620	0.011380
1110.241386	0.010985
1110.401134	0.014402
1110.560864	0.015887
1110.720576	0.015669
1110.880269	0.013040
1111.039945	0.016955
1111.199602	0.019616
1111.359240	0.019877
1111.518861	0.015513
1111.678463	0.016830
1111.838047	0.016036
1111.997613	0.014035
1112.157161	0.015737
1112.316690	0.016828
1112.476202	0.018912
1112.635695	0.019632
1112.795169	0.020600
1112.954626	0.027328
1113.114064	0.026820
1113.273484	0.026660
1113.432886	0.028203
1113.592270	0.026598
1113.751635	0.024153
1113.910983	0.020447
1114.070312	0.019618
1114.229622	0.021210
1114.388915	0.015860
1114.548189	0.019796
1114.707445	0.016885
1114.866683	0.017168
1115.025903	0.021993
1115.185104	0.021960
1115.344287	0.020354
1115.503452	0.017642
1115.662599	0.018910
1115.821727	0.017861
1115.980838	0.012615
1116.139930	0.012018
1116.299004	0.010318
1116.458059	0.007812
1116.617097	0.009713
1116.776116	0.009449
1116.935117	0.011049
1117.094099	0.008365
1117.253064	0.011029
1117.412010	0.010120
1117.570938	0.012420
1117.729848	0.011629
1117.888740	0.008112
1118.047613	0.010568
1118.206468	0.012604
1118.365305	0.007715
1118.524124	0.008466
1118.682924	0.005603
1118.841707	0.005621
1119.000471	0.005316
1119.159216	0.005145
1119.317944	0.006314
1119.476653	-0.000141
1119.635344	-0.004451
1119.794017	-0.001122
1119.952672	-0.005094
1120.111308	-0.007815
1120.269927	-0.006937
1120.428527	-0.007787
1120.587108	-0.006306
1120.745672	-0.006733
1120.904217	-0.001706
1121.062744	-0.000633
1121.221253	-0.000840
1121.379744	-0.000033
1121.538216	0.003958
1121.696671	0.004285
1121.855107	0.004196
1122.013524	0.002650
1122.171924	0.003793
1122.330305	0.002633
1122.488668	0.006207
1122.647013	0.006338
1122.805340	0.011544
1122.963648	0.013901
1123.121938	0.008999
1123.280210	0.006109
1123.438464	0.008480
1123.596700	0.005391
1123.754917	0.003660
1123.913116	0.004428
1124.071297	0.005283
1124.229459	0.004116
1124.387604	0.002143
1124.545730	0.006395
1124.703838	0.008047
1124.861928	0.005811
1125.019999	0.011563
1125.178052	0.011367
1125.336088	0.009710
1125.494104	0.011279
1125.652103	0.010598
1125.810083	0.008126
1125.968045	0.006081
1126.125989	0.011407
1126.283915	0.009045
1126.441823	0.009099
1126.599712	0.011343
1126.757583	0.011882
1126.915436	0.009072
1127.073270	0.010610
1127.231087	0.012809
1127.388885	0.012274
1127.546665	0.007794
1127.704426	0.007562
1127.862170	0.002575
1128.019895	0.006359
1128.177602	0.005828
1128.335291	0.005019
1128.492961	0.004433
1128.650614	0.007763
1128.808248	0.013467
1128.965864	0.013289
1129.123461	0.016776
1129.281041	0.018046
1129.438602	0.014469
1129.596145	0.013149
1129.753670	0.013511
1129.911176	0.011091
1130.068665	0.012574
1130.226135	0.007142
1130.383587	0.009989
1130.541020	0.009836
1130.698436	0.010639
1130.855833	0.009084
1131.013212	0.009820
1131.170573	0.005794
1131.327915	0.003529
1131.485239	0.000951
1131.642545	0.004447
1131.799833	0.003974
1131.957103	0.008923
1132.114354	0.007003
1132.271588	0.006054
1132.428803	0.000815
1132.585999	0.006209
1132.743178	0.007274
1132.900338	0.006115
1133.057480	0.001058
1133.214604	0.004445
1133.371710	0.003046
1133.528797	0.001221
1133.685866	0.001812
1133.842917	0.009693
1133.999950	0.013043
1134.156964	0.010158
1134.313960	0.004090
1134.470938	0.007837
1134.627898	0.001290
1134.784840	0.001556
1134.941763	0.007844
1135.098668	0.002794
1135.255555	0.000975
1135.412424	0.001658
1135.569274	0.006303
1135.726107	0.008121
1135.882921	0.008929
1136.039716	0.012710
1136.196494	0.011488
1136.353253	0.008732
1136.509995	0.018657
1136.666717	0.017222
1136.823422	0.015014
1136.980109	0.019830
1137.136777	0.022117
1137.293427	0.021706
1137.450059	0.024250
1137.606672	0.023018
1137.763267	0.025343
1137.919844	0.017948
1138.076403	0.018172
1138.232944	0.021075
1138.389466	0.016683
1138.545971	0.016460
1138.702457	0.021579
1138.858924	0.021097
1139.015374	0.024342
1139.171805	0.019885
1139.328218	0.024653
1139.484613	0.021992
1139.640990	0.020450
1139.797348	0.020638
1139.953688	0.020331
1140.110010	0.016096
1140.266314	0.011142
1140.422600	0.003879
1140.578867	0.009412
1140.735116	0.004358
1140.891347	0.008386
1141.047559	0.006736
1141.203754	0.005536
1141.359930	0.008599
1141.516088	0.011525
1141.672228	0.012724
1141.828349	0.016586
1141.984452	0.013519
1142.140537	0.019518
1142.296604	0.014743
1142.452653	0.013676
1142.608683	0.007945
1142.764695	0.002714
1142.920689	-0.002388
1143.076665	-0.001044
1143.232622	-0.007174
1143.388562	-0.010998
1143.544483	-0.010420
1143.700385	-0.006851
1143.856270	-0.012802
1144.012136	-0.005741
1144.167985	-0.004087
1144.323814	-0.003133
1144.479626	0.000408
1144.635420	0.002739
1144.791195	0.004453
1144.946952	-0.004009
1145.102691	-0.003674
1145.258411	-0.003489
1145.414113	-0.008492
1145.569798	-0.006473
1145.725463	-0.004949
1145.881111	-0.005652
1146.036741	-0.006864
1146.192352	0.001905
1146.347945	0.008780
1146.503519	0.007983
1146.659076	0.016084
1146.814614	0.016660
1146.970134	0.012311
1147.125636	0.010593
1147.281120	0.009970
1147.436585	0.007750
1147.592032	0.001649
1147.747461	-0.002642
1147.902872	-0.000536
1148.058265	0.002432
1148.213639	0.011396
1148.368995	0.015134
1148.524333	0.010503
1148.679653	0.009015
1148.834954	0.019306
1148.990237	0.013114
1149.145502	0.014906
1149.300749	0.015094
1149.455977	0.017969
1149.611188	0.006959
1149.766380	0.004643
1149.921553	0.012576
1150.076709	0.008857
1150.231846	0.004450
1150.386966	0.013423
1150.542066	0.011000
1150.697149	0.013505
1150.852214	0.000285
1151.007260	0.000809
1151.162288	0.003835
1151.317298	0.003094
1151.472289	0.008867
1151.627263	0.012982
1151.782218	0.016166
1151.937155	0.014991
1152.092073	0.009081
1152.246974	0.016894
1152.401856	0.016348
1152.556720	0.013568
1152.711566	0.009366
1152.866393	0.004040
1153.021203	-0.001246
1153.175994	-0.006768
1153.330767	-0.003409
1153.485521	0.001681
1153.640258	-0.003125
1153.794976	0.003065
1153.949676	0.000941
1154.104358	-0.004052
1154.259021	-0.005810
1154.413667	-0.005572
1154.568294	-0.007052
1154.722903	-0.000665
1154.877493	-0.003650
1155.032066	-0.002441
1155.186620	-0.002019
1155.341156	-0.001451
1155.495674	0.003841
1155.650173	0.009360
1155.804654	0.012919
1155.959118	0.021097
1156.113562	0.015484
1156.267989	0.012581
1156.422397	0.015941
1156.576788	0.014913
1156.731160	0.015794
1156.885513	0.012968
1157.039849	0.011085
1157.194166	0.005114
1157.348465	-0.004032
1157.502746	-0.000195
1157.657009	0.003258
1157.811253	0.001350
1157.965479	-0.003292
1158.119687	0.001347
1158.273877	0.001468
1158.428048	0.005329
1158.582201	0.008684
1158.736337	0.004241
1158.890453	0.000905
1159.044552	-0.012371
1159.198632	-0.015901
1159.352694	-0.015415
1159.506738	-0.025663
1159.660764	-0.018046
1159.814771	-0.026897
1159.968761	-0.024656
1160.122732	-0.024580
1160.276685	-0.025465
1160.430619	-0.012292
1160.584535	-0.002109
1160.738434	-0.002215
1160.892313	0.005579
1161.046175	-0.000194
1161.200019	-0.002351
1161.353844	0.003042
1161.507651	0.006434
1161.661440	0.005523
1161.815210	0.008745
1161.968962	-0.001207
1162.122697	0.007997
1162.276412	0.009407
1162.430110	0.017127
1162.583789	0.022332
1162.737451	0.010711
1162.891094	0.005750
1163.044718	0.007009
1163.198325	-0.002211
1163.351913	-0.004722
1163.505483	-0.016579
1163.659035	-0.020390
1163.812569	-0.030980
1163.966084	-0.030397
1164.119581	-0.025896
1164.273060	-0.022434
1164.426521	-0.020489
1164.579964	-0.020020
1164.733388	-0.015027
1164.886794	-0.012759
1165.040182	-0.006728
1165.193551	0.001296
1165.346903	-0.000456
1165.500236	0.002372
1165.653551	0.004768
1165.806848	-0.001093
1165.960126	-0.003918
1166.113386	-0.005995
1166.266628	-0.002953
1166.419852	-0.011552
1166.573058	-0.014176
1166.726245	-0.006949
1166.879414	-0.009802
1167.032565	-0.016860
1167.185698	-0.010252
1167.338812	0.003461
1167.491909	0.009513
1167.644987	0.009195
1167.798046	0.016224
1167.951088	0.012476
1168.104111	0.010499
1168.257117	0.011941
1168.410103	0.015464
1168.563072	0.007682
1168.716023	0.004161
1168.868955	0.005626
1169.021869	0.003953
1169.174765	0.001286
1169.327642	0.003987
1169.480501	0.007062
1169.633343	0.000453
1169.786165	0.004535
1169.938970	0.021331
1170.091757	0.013272
1170.244525	0.017295
1170.397275	0.011155
1170.550007	0.024519
1170.702720	0.030124
1170.855415	0.015360
1171.008092	0.010107
1171.160751	-0.000271
1171.313392	-0.020921
1171.466014	-0.054985
1171.618619	-0.073391
1171.771205	-0.073391
1171.923772	-0.073391
