sample name	sample
index	383
start time	 03-04-2021  02:40:01 PM
880	0.110982
Peak Time (s)	92.535
Peak Height 	0.111
calc peak height	90,93
Baseline Time (s)	10.036
Baseline Value 	-0.005809
subtract baseline	10,4
Abs	0.071973
Peak Time (s)	92.037
Peak Height 	0.07197
calc peak height	90,93
Baseline Time (s)	9.036
Baseline Value 	0.002268
subtract baseline	10,3
PK_550	0.040810
Peak Time (s)	92.037
Peak Height 	0.04081
calc peak height	90,93
Baseline Time (s)	10.036
Baseline Value 	5.5355E-4
subtract baseline	10,2
PK_880	0.067824
Peak Time (s)	92.037
Peak Height 	0.06782
calc peak height	90,93
Baseline Time (s)	8.536
Baseline Value 	0.002308
subtract baseline	10,1


Time (s)	A880-A510	A880-A775	A880-A975	A880	I510	I775	I975	I880	
0.036000	-0.001002	0.000008	0.000705	0.002618	6853.611849	47136.398813	4010.497557	24957.477492
0.536500	-0.003253	-0.000202	-0.002434	0.004160	6819.108198	46958.302746	3998.171378	24879.197951
1.036500	-0.002888	-0.000906	-0.002817	0.006852	6798.100119	46615.354249	3990.147524	24743.265942
1.537000	-0.001453	-0.000666	-0.000571	0.001128	6863.106820	47219.613431	4011.063975	25033.343481
2.037500	-0.001952	0.000066	-0.001740	0.001161	6858.242755	47291.017697	4007.885195	25031.674307
2.534500	0.000130	-0.000459	-0.000395	0.000337	6884.911659	47321.579025	4013.627278	25073.747814
3.035500	-0.000485	0.000260	-0.001185	0.004151	6844.343219	47006.173652	4001.472033	24879.685316
3.535000	-0.000029	0.000276	-0.003643	0.000976	6877.569711	47331.330743	4003.354100	25041.096250
4.035500	0.000450	0.000188	0.004048	0.001054	6881.267588	47314.440827	4023.563565	25037.165375
4.535500	0.001411	-0.000948	0.000555	0.000301	6897.052798	47275.195605	4016.247902	25075.574698
5.036500	0.000490	0.000313	-0.001362	0.001358	6878.829725	47296.120627	4008.362739	25021.632730
5.536500	0.000550	-0.000203	-0.001264	0.000667	6885.746365	47314.053428	4010.450218	25056.918154
6.036500	-0.001365	0.000023	0.000728	0.000831	6866.646194	47320.410328	4015.299355	25048.545088
6.534500	0.000296	0.000243	0.001357	0.000885	6881.397532	47337.229748	4016.827628	25045.742718
7.034500	0.000290	-0.000265	0.000138	0.000153	6888.085707	47360.225653	4015.534443	25083.165542
7.535000	-0.000447	-0.000418	0.002405	0.000225	6880.628440	47337.215868	4021.382391	25079.467461
8.037500	0.000284	-0.000213	-0.003370	0.000456	6885.231233	47334.543608	4005.445419	25067.674713
8.535500	0.000000	0.000265	-0.001412	0.000511	6882.117166	47377.816062	4010.471564	25064.876522
9.036000	-0.000811	-0.000554	0.000000	-0.000261	6881.749913	47372.963842	4016.266838	25104.331688
9.536000	0.002985	0.000418	0.003656	0.000203	6912.529057	47425.044832	4024.792129	25080.620630
10.036000	-0.001178	0.000000	0.001527	0.000000	6875.981723	47403.021847	4019.641339	25090.988317
10.536500	-0.000812	-0.000099	-0.002951	-0.000241	6881.560135	47417.564700	4008.388732	25103.305817
11.037000	0.000368	-0.000366	-0.005186	-0.000321	6893.177693	47398.469683	4002.711425	25107.424456
11.537000	0.002639	0.000408	0.003430	0.000005	6911.161925	47444.312005	4024.715425	25090.739697
12.037500	-0.001270	0.000124	0.004369	-0.000097	6876.029156	47425.604864	4027.508617	25095.943041
12.538000	-0.000849	0.000747	-0.001044	0.000668	6872.869782	47411.175592	4011.031975	25056.869145
13.035000	0.001069	-0.000047	0.004977	-0.002386	6918.773544	47643.200983	4035.317523	25213.348124
13.535500	-0.001306	-0.000286	0.000739	-0.001000	6883.999431	47476.206405	4020.206260	25142.209096
14.036000	0.001737	0.000720	0.000476	0.000778	6895.660715	47397.097573	4014.771546	25051.237124
14.536500	0.001467	0.000178	-0.001763	0.001761	6884.115293	47241.147576	4006.241968	25001.111307
15.036500	-0.000558	0.000481	-0.000937	0.000772	6874.589344	47373.204939	4011.039119	25051.540971
15.559000	-0.000316	0.000066	-0.000083	-0.000652	6889.913524	47476.582708	4017.085920	25124.353534
16.037000	-0.001435	0.000682	0.003988	0.001356	6861.195256	47334.057533	4022.594206	25021.748601
16.537000	0.000028	-0.000344	-0.002398	-0.000196	6888.877725	47387.861246	4009.731578	25100.995563
17.034500	-0.000903	-0.000239	0.000724	-0.000692	6884.881124	47449.514527	4019.344642	25126.423142
17.540500	0.000338	-0.000165	0.002117	-0.000390	6893.535608	47426.095846	4022.257316	25110.947772
18.035500	0.001914	-0.000521	-0.002416	-0.001424	6917.681172	47495.556728	4012.936438	25163.928872
18.536000	0.000040	-0.000509	-0.004457	0.000512	6882.480664	47298.612069	4002.438311	25064.837295
19.036000	0.000916	-0.000370	0.002716	0.000519	6890.470357	47312.037715	4021.429798	25064.437526
19.536500	0.000534	0.000613	-0.003524	0.001648	6876.574921	47297.177849	4001.903444	25006.870242
20.036500	-0.000956	0.000131	0.001462	0.001180	6867.192701	47295.693219	4016.322128	25030.699333
20.536500	-0.000038	-0.000010	-0.003543	0.001087	6876.462764	47290.695613	4003.326008	25035.432220
21.040000	0.000636	0.000525	-0.000788	0.001509	6878.785406	47302.293687	4009.481909	25013.923366
21.537000	0.000447	-0.000632	-0.000657	0.000238	6888.744371	47313.971506	4013.195643	25078.837571
22.037500	0.000499	-0.000023	-0.001700	0.000748	6884.528101	47324.106064	4009.083032	25052.765880
22.535000	-0.001760	0.000225	-0.004597	0.000677	6864.437142	47356.724706	4001.633343	25056.382383
23.035500	-0.000425	-0.000097	-0.001174	0.000865	6874.952447	47304.602536	4010.164952	25046.786454
23.538500	-0.000292	0.000525	-0.001104	0.001167	6873.408136	47337.331629	4009.552090	25031.390317
24.036000	-0.000879	-0.000078	0.000701	0.001072	6868.892846	47285.420306	4014.587548	25036.231613
24.536000	0.000416	0.000561	-0.000949	0.001356	6878.168344	47321.599130	4009.460651	25021.733654
25.036500	-0.001673	-0.000430	0.000462	0.000187	6869.721969	47339.882910	4016.304553	25081.430225
25.536500	0.001975	0.000100	0.002594	0.001468	6891.488319	47263.103508	4018.569730	25016.014816
26.037000	-0.001287	0.000320	-0.001849	0.001321	6862.872179	47300.648967	4007.175041	25023.529979
26.537500	0.000380	-0.000008	0.003282	0.000882	6882.205212	47311.985512	4021.973374	25045.935805
27.038000	-0.000440	-0.000978	0.001492	0.000082	6882.015237	47294.580955	4019.328565	25086.780815
27.535000	-0.001564	-0.000171	0.003771	0.000605	6866.885677	47323.602337	4024.021641	25060.060857
28.035500	0.002393	0.001024	0.001245	-0.000630	6914.761528	47572.727668	4020.568851	25123.211914
28.536000	0.000712	-0.000259	0.000401	-0.000035	6893.713231	47380.117074	4016.734914	25092.801002
29.036500	-0.000079	-0.000201	-0.000309	0.000461	6881.850855	47335.274259	4013.526905	25067.423359
29.536000	0.002531	0.001033	-0.000538	0.000496	6905.612071	47458.084272	4012.827492	25065.650771
30.037000	0.001811	-0.000016	-0.001832	0.000448	6899.388928	47355.525649	4009.526924	25068.075688
30.537000	-0.000032	-0.000028	0.004425	-0.000333	6889.587428	47434.203248	4028.292325	25108.014218
31.037000	0.000744	0.000524	-0.000331	0.000512	6888.954703	47404.265636	4013.334489	25064.815160
31.572500	-0.000937	-0.000315	0.004005	-0.000509	6882.880774	47422.904131	4027.638598	25117.026677
32.035000	-0.001948	-0.000424	0.003681	0.002286	6848.000531	47126.256070	4019.288215	24974.349052
32.535500	0.001571	0.000145	-0.001145	0.000496	6896.732977	47367.049255	4011.217402	25065.615753
33.060500	0.001012	-0.000501	0.001172	-0.000060	6896.711138	47357.864161	4018.854102	25094.071186
33.535500	0.000531	0.000589	-0.000642	-0.000183	6893.397264	47482.168234	4014.353131	25100.341644
34.036000	0.002007	0.000819	0.001786	0.001058	6895.573706	47378.541550	4017.511410	25036.946839
34.539500	0.001891	0.000035	-0.002778	-0.000388	6907.867172	47446.387594	4009.236304	25110.836055
35.037000	0.001358	-0.000477	-0.002244	-0.001573	6913.917187	47515.455711	4013.792272	25171.607854
35.537000	0.000445	-0.000219	0.000475	0.001435	6877.711909	47233.860786	4013.023660	25017.691659
36.035000	-0.000184	-0.000403	-0.001131	0.001093	6875.078043	47250.039076	4009.675306	25035.150934
36.535000	-0.000770	0.000601	-0.004910	0.001842	6862.835814	47276.152393	3997.760778	24996.991675
37.035500	-0.001009	-0.000003	-0.002070	0.001415	6864.555278	47257.992539	4006.343702	25018.719936
37.538500	-0.000658	-0.000643	0.003805	0.001081	6870.831831	47226.687487	4022.839433	25035.752306
38.036000	0.001143	0.000471	0.001457	0.001911	6879.751094	47255.740216	4014.366506	24993.473171
38.536500	0.000228	0.000094	0.001143	0.001914	6871.315639	47217.004141	4013.526302	24993.303340
39.036500	0.000095	-0.000234	0.000866	0.001514	6873.768422	47224.336615	4013.852899	25013.696528
39.537000	0.000621	0.001156	0.001936	0.002170	6872.571058	47299.223152	4014.950363	24980.246571
40.037000	-0.001716	0.000740	-0.000974	0.002378	6849.281989	47235.481116	4006.694191	24969.663121
40.535000	-0.000819	-0.000378	-0.000581	0.001310	6867.255005	47230.415614	4010.554810	25024.072541
41.038000	-0.000225	0.000054	-0.000463	0.001481	6871.134655	47257.009659	4010.416256	25015.358423
41.535000	-0.001188	-0.000122	0.002059	0.001609	6861.133446	47226.016400	4016.770598	25008.832433
42.035500	0.000888	0.000702	0.002904	0.002061	6876.023770	47263.971433	4017.815767	24985.794883
42.535500	-0.001029	0.000508	0.000402	0.001614	6862.543316	47289.815784	4012.354458	25008.572356
43.035500	-0.000758	0.000372	-0.000061	0.001924	6862.185698	47244.296555	4010.306793	24992.771303
43.536500	-0.000154	0.001283	0.004457	0.002259	6864.654589	47303.171611	4021.432879	24975.762663
44.037000	-0.000085	-0.000157	-0.000572	0.001808	6869.418552	47202.133013	4009.261401	24998.703200
44.537000	-0.003004	0.000867	-0.000685	0.001881	6842.077397	47299.293153	4008.770482	24994.990172
45.037000	-0.001426	-0.000706	-0.000572	0.000813	6866.248209	47247.641293	4011.897277	25049.442242
45.534000	0.001493	0.000806	0.006267	0.000370	6897.184867	47447.767615	4031.359767	25072.086515
46.037000	-0.000757	-0.000016	0.002288	0.000493	6875.320984	47350.848333	4020.355779	25065.768261
46.551000	0.001338	0.000346	-0.000830	0.000042	6898.775572	47434.188690	4013.258369	25088.846122
47.035500	-0.001394	0.000257	0.000122	0.000076	6873.302353	47421.562507	4015.695753	25087.116214
47.536000	-0.001125	0.000009	0.001226	-0.000319	6879.407508	47436.699927	4019.689572	25107.330605
48.036000	0.000068	-0.000154	0.006458	0.000589	6882.026403	47327.020281	4031.285766	25060.887860
48.536500	-0.000229	-0.000811	-0.001284	-0.000231	6886.839972	47343.598513	4012.776780	25102.796433
49.037000	-0.001070	-0.000074	0.000809	0.001696	6861.420806	47222.131881	4013.217057	25004.423694
49.537000	0.001044	0.000204	0.001510	0.002270	6875.540802	47191.857518	4013.552966	24975.176841
50.037500	0.002023	0.000575	0.002586	0.001433	6892.257213	47315.168090	4018.642372	25017.808820
50.538000	-0.000865	-0.000369	-0.001312	0.000153	6877.451131	47349.566256	4011.685324	25083.157033
51.035500	-0.000772	0.000138	-0.002014	0.000059	6879.170348	47411.141186	4010.074873	25087.961600
51.535500	0.003171	-0.000279	0.001443	-0.002129	6935.938238	47592.953955	4025.110618	25200.143269
52.036000	-0.000723	-0.000083	0.001688	0.002492	6857.315358	47139.986076	4013.436670	24963.890712
52.536000	-0.000711	-0.001401	0.003223	0.004110	6842.653450	46841.948639	4013.215473	24881.737692
53.036500	0.016041	-0.003290	0.024098	0.212614	5430.420312	29974.066755	3608.941055	16491.629847
53.536500	-0.016351	-0.020210	-0.003730	0.035965	6432.793393	42004.734579	3914.707197	23325.456308
54.036500	-0.022455	-0.030578	-0.008177	-0.124003	7940.674624	58081.589973	4368.525323	32432.118486
54.537500	-0.064167	-0.240948	-0.057023	-0.389406	11346.124363	65535.000000	5343.234219	57332.180034
55.040000	-0.078565	-0.301885	-0.075797	-0.450343	12303.039445	65535.000000	5596.318911	65535.000000
55.535000	-0.101080	-0.301885	-0.095244	-0.450343	11827.290302	65535.000000	5476.531817	65535.000000
56.034500	0.003855	-0.147066	0.008100	-0.295524	10857.086373	65535.000000	5184.170587	46745.844884
56.535500	-0.008434	-0.097968	-0.000390	-0.246426	9806.418703	65535.000000	4895.640231	42056.357001
57.036000	-0.011667	-0.076405	-0.010025	-0.223958	9408.769106	65404.681400	4750.652471	40080.955856
57.536000	-0.003362	-0.082072	-0.007711	-0.230530	9636.080249	65535.000000	4789.721927	40648.250658
58.036500	0.001547	-0.066493	-0.007080	-0.214798	9469.938054	65512.932977	4723.800522	39304.471376
58.537000	0.004811	-0.053543	-0.003542	-0.197857	9265.826946	64940.372291	4667.184761	37910.838957
59.037000	0.005673	-0.037383	-0.001831	-0.174284	8940.785589	63890.460970	4578.503740	36059.862116
59.534500	0.008753	-0.023417	-0.002220	-0.150114	8653.788245	62474.423057	4484.063681	34263.531426
60.037500	0.010374	-0.015215	0.003819	-0.128388	8392.868336	60648.148859	4426.478009	32731.983963
60.535000	0.009461	-0.005185	-0.000899	-0.091234	7930.748417	57152.435141	4282.574406	30284.067202
61.035000	0.011751	-0.003212	0.009277	-0.076300	7786.000477	55557.572433	4267.082444	29357.624837
61.535500	0.014399	-0.002535	0.003273	-0.070863	7754.638956	54983.768250	4230.522480	29028.180562
62.035000	0.012710	-0.000414	0.007208	-0.046273	7468.780576	52358.073032	4166.902091	27588.567138
62.536000	0.013070	0.002352	0.008304	-0.020190	7205.236980	49773.276765	4093.876908	26148.079961
63.036500	0.013979	0.003375	0.015232	-0.003963	7055.560448	48161.169572	4067.756166	25294.649984
63.536500	0.015666	0.006067	0.015141	0.002039	7014.338482	47817.605159	4050.941945	24986.938123
64.037000	0.012044	0.007927	0.011341	-0.001864	7017.014049	48417.461831	4051.224906	25186.552088
64.537000	0.014486	0.009706	0.012460	0.001962	7003.874316	48203.568259	4043.828165	24990.879232
65.035000	0.015916	0.011248	0.013545	0.002931	7008.240689	48263.287585	4044.142145	24941.558521
65.563000	0.018441	0.011113	0.020977	0.002090	7040.315964	48337.005900	4066.899574	24984.332934
66.035000	0.019990	0.011511	0.018493	0.003303	7043.535271	48251.919546	4056.676747	24922.694180
66.535500	0.020347	0.011879	0.016602	0.007380	7008.072503	47866.322001	4040.355236	24716.673945
67.036000	0.025181	0.013812	0.023739	0.005029	7076.828563	48311.972602	4066.409791	24835.226209
67.536500	0.025737	0.013292	0.024897	0.004428	7088.009251	48320.471742	4071.301893	24865.654810
68.037000	0.027474	0.014457	0.028112	0.005341	7095.984665	48346.747858	4077.735126	24819.450275
68.537000	0.027139	0.015006	0.025146	0.009529	7052.371132	47967.636358	4057.851518	24608.856489
69.037500	0.032716	0.016743	0.027578	0.006990	7130.953200	48413.406620	4071.632104	24736.289102
69.535000	0.032015	0.016694	0.029990	0.007082	7123.216281	48398.741689	4078.118150	24731.681648
70.035000	0.032227	0.017556	0.031953	0.010134	7095.595870	48169.929217	4075.071226	24578.620195
70.535500	0.031489	0.017524	0.028020	0.014327	7048.075166	47731.692646	4052.562192	24370.086423
71.035500	0.036219	0.018583	0.032268	0.013254	7104.062354	47952.387939	4067.254281	24423.297820
71.536000	0.033854	0.018900	0.035987	0.015088	7063.483390	47795.274903	4072.502898	24332.499986
72.036500	0.035254	0.019500	0.032674	0.018808	7041.225870	47474.024798	4053.036345	24149.481839
72.536500	0.034933	0.020156	0.032302	0.024593	6983.215654	46950.853834	4036.254658	23868.012950
73.036500	0.036809	0.020682	0.035956	0.023969	7006.864268	47067.559707	4047.890512	23898.192511
73.534000	0.036881	0.020737	0.036828	0.026491	6983.681180	46817.445820	4043.389094	23776.458081
74.040000	0.037796	0.020724	0.035474	0.029196	6966.828599	46543.547276	4032.389013	23646.690849
74.535000	0.036387	0.021238	0.031565	0.037223	6879.125830	45795.155700	4000.627164	23266.325945
75.035000	0.036906	0.022427	0.034694	0.035598	6898.888519	46073.998859	4013.172284	23342.762595
75.535000	0.040696	0.023298	0.041271	0.038828	6904.064747	45840.218847	4022.088328	23191.120703
76.035500	0.040353	0.023408	0.040438	0.042451	6867.540783	45494.290745	4010.232413	23022.329036
76.536000	0.041189	0.024044	0.040103	0.044311	6858.164542	45374.378946	4004.437965	22936.221287
77.036500	0.042824	0.024080	0.044040	0.046884	6849.593954	45127.059524	4008.033664	22817.720547
77.536500	0.042794	0.025214	0.045844	0.050171	6819.441161	44918.313964	4004.123831	22667.376305
78.037000	0.043713	0.026042	0.044563	0.052950	6802.632357	44730.020423	3993.485291	22541.146259
78.540000	0.043412	0.025914	0.046934	0.054301	6787.753100	44587.830022	3996.148967	22480.056987
79.034500	0.044802	0.026654	0.044997	0.056885	6777.046783	44411.267382	3984.393116	22363.783808
79.535000	0.047159	0.027104	0.046466	0.058948	6779.681390	44257.353478	3982.857183	22271.412156
80.035500	0.045052	0.027783	0.043485	0.061816	6735.338934	44049.539033	3967.847567	22143.771569
80.535500	0.048625	0.029241	0.043818	0.064423	6743.907842	43940.881417	3962.063569	22028.448671
81.036000	0.046426	0.028303	0.050112	0.065193	6717.624720	43779.802177	3976.160166	21994.515613
81.536500	0.049358	0.028914	0.051052	0.066881	6728.615778	43678.632584	3974.242862	21920.379440
82.036000	0.048763	0.028473	0.049667	0.069616	6699.267207	43381.584051	3963.730378	21800.824829
82.537000	0.048780	0.029778	0.048161	0.071015	6687.154577	43372.817613	3956.377757	21739.950061
83.037000	0.051619	0.030742	0.053926	0.073366	6691.425097	43243.762541	3965.022891	21638.099190
83.537500	0.050426	0.030405	0.047938	0.074696	6669.383641	43089.272583	3946.574911	21580.755559
84.037000	0.053379	0.031863	0.056391	0.077255	6672.822371	42987.572017	3961.408637	21470.872436
84.535000	0.051885	0.031916	0.054413	0.078946	6645.150426	42836.637717	3952.149901	21398.606918
85.035500	0.052454	0.032271	0.051586	0.080074	6640.310078	42765.608655	3942.256665	21350.542559
85.535500	0.052620	0.033400	0.055370	0.082419	6621.523848	42654.158879	3945.846201	21251.057017
86.035500	0.056274	0.033942	0.058562	0.084186	6637.787480	42542.194629	3949.409658	21176.437719
86.536500	0.052273	0.033990	0.053500	0.090620	6548.725632	41963.806331	3920.974989	20907.361148
87.036500	0.057626	0.034518	0.058598	0.087623	6619.828248	42282.056506	3940.921187	21032.218224
87.537000	0.057849	0.034922	0.055760	0.088708	6612.416289	42220.278327	3931.207439	20986.887679
88.040000	0.060502	0.036904	0.058684	0.091769	6608.924445	42122.853689	3930.869877	20859.719272
88.535000	0.058085	0.035391	0.061244	0.097560	6539.222213	41468.845219	3922.939097	20621.498384
89.035000	0.061599	0.036138	0.062512	0.093950	6599.636299	41857.576106	3934.935752	20769.610284
89.535500	0.060666	0.036167	0.058867	0.095043	6582.356335	41762.340107	3923.281858	20724.651715
90.035500	0.063017	0.038166	0.063952	0.097696	6579.785070	41703.826448	3929.246033	20615.928747
90.535500	0.061628	0.037924	0.059011	0.104056	6514.463341	41118.575308	3901.803256	20358.042651
91.036000	0.062984	0.037892	0.064219	0.099648	6562.940246	41505.527184	3925.110132	20536.378029
91.536500	0.065434	0.039095	0.067562	0.102045	6563.388875	41399.596760	3927.432029	20439.195584
92.036500	0.067824	0.040810	0.071973	0.104232	6565.106115	41357.760119	3932.906713	20350.957969
92.534500	0.063897	0.040364	0.067222	0.110982	6475.770792	40726.018203	3904.889547	20081.479704
93.037000	0.067317	0.040979	0.069109	0.106649	6540.423975	41159.328890	3919.950477	20254.001728
93.534500	0.067022	0.041080	0.068025	0.107748	6528.717086	41071.512122	3914.640476	20210.088735
94.035500	0.068790	0.042400	0.067792	0.110426	6521.087730	40952.345769	3907.596878	20103.499745
94.535500	0.068593	0.043047	0.067709	0.117470	6460.984127	40396.056390	3890.559670	19826.344118
95.036000	0.071113	0.042877	0.072125	0.112835	6520.369430	40783.428735	3912.246988	20008.217491
95.536000	0.073146	0.042829	0.069234	0.113870	6528.733490	40689.218994	3902.784114	19967.453127
96.036000	0.072914	0.043778	0.071640	0.116225	6507.099159	40566.980549	3902.905075	19875.003418
96.556000	0.071560	0.044674	0.074232	0.122338	6445.373773	40117.411151	3894.493309	19637.439251
97.037000	0.074884	0.045330	0.081366	0.118779	6502.233119	40480.254529	3920.259499	19775.351742
97.534000	0.074452	0.045387	0.076546	0.120100	6487.665135	40371.031333	3905.381964	19724.005493
98.035000	0.075300	0.046353	0.077980	0.123251	6468.619462	40183.139071	3901.261849	19602.234930
98.535000	0.075368	0.047200	0.075574	0.128732	6424.241729	39787.463822	3882.536934	19392.461265
99.035000	0.079594	0.047451	0.081560	0.125337	6486.878306	40098.382914	3904.846048	19522.076103
