sample name	sample
index	668
start time	 03-22-2021  11:01:13 AM


Wavelength (nm)	Absorbance
494.344910	NaN
494.563924	NaN
494.782919	NaN
495.001897	-0.217691
495.220856	0.023916
495.439797	-0.055147
495.658719	-0.105470
495.877624	-0.252392
496.096510	-0.245803
496.315378	-0.292626
496.534227	-0.284422
496.753059	-0.257872
496.971872	-0.204232
497.190667	0.008684
497.409444	0.019207
497.628203	0.020243
497.846943	0.026557
498.065665	0.027124
498.284369	0.026586
498.503055	0.027293
498.721723	0.028117
498.940372	0.028129
499.159003	0.028203
499.377616	0.028053
499.596210	0.027629
499.814787	0.026951
500.033345	0.026790
500.251885	0.027341
500.470406	0.027008
500.688910	0.025757
500.907395	0.026481
501.125862	0.027112
501.344311	0.027825
501.562742	0.028875
501.781154	0.028027
501.999548	0.028291
502.217924	0.029446
502.436282	0.029952
502.654621	0.030502
502.872942	0.029992
503.091245	0.029290
503.309530	0.028188
503.527797	0.028006
503.746045	0.028031
503.964275	0.027516
504.182487	0.026762
504.400681	0.026216
504.618856	0.027323
504.837013	0.027536
505.055152	0.027296
505.273273	0.027943
505.491376	0.027227
505.709460	0.028024
505.927526	0.028469
506.145574	0.028591
506.363604	0.029287
506.581615	0.027689
506.799608	0.027862
507.017583	0.027558
507.235540	0.028083
507.453478	0.028369
507.671399	0.028221
507.889301	0.028593
508.107185	0.027896
508.325050	0.027487
508.542898	0.027932
508.760727	0.027513
508.978538	0.027394
509.196330	0.026572
509.414105	0.026576
509.631861	0.026096
509.849599	0.025180
510.067319	0.024836
510.285021	0.024569
510.502704	0.024169
510.720369	0.024303
510.938016	0.024866
511.155645	0.024890
511.373255	0.024469
511.590848	0.024204
511.808422	0.024657
512.025977	0.025635
512.243515	0.025748
512.461034	0.025970
512.678536	0.025728
512.896018	0.025778
513.113483	0.025038
513.330930	0.025191
513.548358	0.025156
513.765768	0.025361
513.983160	0.024758
514.200533	0.025149
514.417889	0.024915
514.635226	0.025021
514.852545	0.024626
515.069845	0.024628
515.287128	0.024512
515.504392	0.024541
515.721638	0.023990
515.938866	0.024150
516.156075	0.023214
516.373267	0.022785
516.590440	0.022559
516.807594	0.022746
517.024731	0.023243
517.241850	0.023398
517.458950	0.023005
517.676032	0.022796
517.893095	0.022832
518.110141	0.022972
518.327168	0.023723
518.544177	0.023738
518.761168	0.023947
518.978141	0.024057
519.195095	0.024090
519.412031	0.025107
519.628949	0.025253
519.845849	0.025270
520.062731	0.025777
520.279594	0.024994
520.496439	0.025086
520.713266	0.024650
520.930074	0.024346
521.146865	0.024352
521.363637	0.023650
521.580391	0.023817
521.797127	0.023797
522.013844	0.023632
522.230543	0.024008
522.447224	0.023788
522.663887	0.023958
522.880532	0.024539
523.097158	0.024054
523.313766	0.023793
523.530356	0.023741
523.746928	0.023482
523.963481	0.023316
524.180017	0.022706
524.396534	0.022842
524.613032	0.022376
524.829513	0.022033
525.045975	0.022646
525.262420	0.022724
525.478845	0.022546
525.695253	0.022642
525.911643	0.022595
526.128014	0.022809
526.344367	0.022480
526.560702	0.022762
526.777018	0.023002
526.993316	0.022873
527.209597	0.022920
527.425858	0.023129
527.642102	0.023071
527.858328	0.022897
528.074535	0.023207
528.290724	0.023327
528.506894	0.023513
528.723047	0.023084
528.939181	0.022734
529.155297	0.022651
529.371395	0.022442
529.587475	0.022747
529.803536	0.022600
530.019579	0.022289
530.235604	0.022176
530.451611	0.021603
530.667600	0.021473
530.883570	0.021561
531.099522	0.021875
531.315456	0.021453
531.531372	0.021154
531.747269	0.020995
531.963148	0.021774
532.179009	0.021802
532.394852	0.022296
532.610676	0.022266
532.826482	0.022034
533.042271	0.021570
533.258040	0.021887
533.473792	0.021659
533.689525	0.021912
533.905240	0.021594
534.120937	0.021882
534.336616	0.021584
534.552277	0.021652
534.767919	0.021927
534.983543	0.022100
535.199149	0.022537
535.414736	0.022579
535.630306	0.022745
535.845857	0.022544
536.061390	0.022432
536.276904	0.022595
536.492401	0.022677
536.707879	0.022872
536.923339	0.023253
537.138781	0.022751
537.354204	0.022851
537.569610	0.022932
537.784997	0.023009
538.000366	0.023175
538.215716	0.023382
538.431049	0.023297
538.646363	0.022836
538.861659	0.022506
539.076937	0.022586
539.292196	0.022720
539.507438	0.022476
539.722661	0.022300
539.937866	0.021865
540.153052	0.021406
540.368221	0.021222
540.583371	0.021334
540.798503	0.021447
541.013617	0.021607
541.228712	0.021260
541.443789	0.021158
541.658848	0.021425
541.873889	0.021383
542.088912	0.021440
542.303916	0.021428
542.518902	0.021470
542.733870	0.021393
542.948820	0.020996
543.163752	0.020827
543.378665	0.021125
543.593560	0.021027
543.808437	0.021300
544.023295	0.021420
544.238136	0.021622
544.452958	0.021678
544.667762	0.021480
544.882548	0.021567
545.097315	0.021749
545.312064	0.021374
545.526795	0.021302
545.741508	0.020959
545.956203	0.021056
546.170879	0.020700
546.385537	0.020525
546.600177	0.020851
546.814799	0.020643
547.029402	0.021053
547.243988	0.021042
547.458555	0.020913
547.673103	0.021245
547.887634	0.020959
548.102146	0.021230
548.316640	0.021224
548.531116	0.021016
548.745574	0.021226
548.960013	0.020772
549.174435	0.020530
549.388838	0.020536
549.603222	0.020095
549.817589	0.020004
550.031937	0.019835
550.246267	0.019429
550.460579	0.019426
550.674873	0.019656
550.889148	0.019865
551.103405	0.020136
551.317644	0.019788
551.531865	0.019724
551.746068	0.019659
551.960252	0.019800
552.174418	0.020250
552.388566	0.020330
552.602696	0.020084
552.816807	0.019961
553.030900	0.019778
553.244975	0.020294
553.459032	0.020519
553.673070	0.020944
553.887091	0.020977
554.101093	0.021048
554.315077	0.021011
554.529042	0.021128
554.742990	0.021211
554.956919	0.020901
555.170830	0.020649
555.384722	0.020552
555.598597	0.019938
555.812453	0.019661
556.026291	0.019647
556.240111	0.019256
556.453913	0.019164
556.667696	0.019137
556.881461	0.019318
557.095208	0.019227
557.308937	0.019593
557.522647	0.019690
557.736339	0.019935
557.950013	0.020022
558.163669	0.020330
558.377307	0.020286
558.590926	0.020192
558.804527	0.020217
559.018110	0.020188
559.231675	0.019926
559.445221	0.019858
559.658749	0.019804
559.872259	0.019450
560.085751	0.019308
560.299225	0.018928
560.512680	0.018860
560.726117	0.019140
560.939536	0.019199
561.152937	0.019304
561.366319	0.019504
561.579683	0.019474
561.793029	0.019277
562.006357	0.019314
562.219667	0.019806
562.432958	0.019964
562.646231	0.019988
562.859486	0.019883
563.072723	0.019830
563.285941	0.019765
563.499141	0.019987
563.712323	0.020230
563.925487	0.020206
564.138632	0.020016
564.351760	0.019776
564.564869	0.019627
564.777960	0.019601
564.991032	0.019498
565.204087	0.019280
565.417123	0.019045
565.630141	0.019046
565.843140	0.018940
566.056122	0.018949
566.269085	0.018991
566.482030	0.019206
566.694957	0.019529
566.907866	0.019461
567.120756	0.019836
567.333628	0.019818
567.546482	0.019640
567.759318	0.019745
567.972135	0.019565
568.184935	0.019708
568.397716	0.019696
568.610478	0.019457
568.823223	0.019281
569.035949	0.019505
569.248657	0.019768
569.461347	0.019909
569.674019	0.020034
569.886672	0.020300
570.099308	0.020028
570.311925	0.019928
570.524523	0.019943
570.737104	0.020124
570.949666	0.019871
571.162210	0.019408
571.374736	0.019590
571.587244	0.019301
571.799733	0.019367
572.012205	0.019726
572.224658	0.019594
572.437092	0.019642
572.649509	0.019809
572.861907	0.019991
573.074287	0.020157
573.286649	0.020221
573.498993	0.020527
573.711318	0.020506
573.923625	0.020138
574.135914	0.020031
574.348185	0.019933
574.560438	0.019742
574.772672	0.019427
574.984888	0.019372
575.197086	0.019180
575.409266	0.019208
575.621427	0.018967
575.833570	0.018932
576.045695	0.018979
576.257802	0.018959
576.469890	0.018783
576.681961	0.018890
576.894013	0.018936
577.106046	0.019180
577.318062	0.018858
577.530059	0.018903
577.742039	0.019001
577.954000	0.019232
578.165942	0.019152
578.377867	0.019377
578.589773	0.019151
578.801661	0.019294
579.013531	0.018810
579.225382	0.018932
579.437216	0.019112
579.649031	0.019274
579.860828	0.019221
580.072606	0.019155
580.284367	0.019001
580.496109	0.018995
580.707833	0.018640
580.919539	0.018716
581.131227	0.018677
581.342896	0.018380
581.554547	0.018375
581.766180	0.018058
581.977795	0.018194
582.189391	0.018324
582.400969	0.018348
582.612529	0.018340
582.824071	0.018467
583.035595	0.018484
583.247100	0.018698
583.458587	0.018631
583.670056	0.018996
583.881506	0.019002
584.092939	0.018997
584.304353	0.019077
584.515749	0.019193
584.727127	0.019471
584.938486	0.019559
585.149828	0.019376
585.361151	0.019680
585.572456	0.019539
585.783742	0.019765
585.995011	0.019668
586.206261	0.019815
586.417493	0.019721
586.628706	0.019245
586.839902	0.019320
587.051079	0.019370
587.262238	0.019004
587.473379	0.019075
587.684502	0.018784
587.895606	0.018947
588.106692	0.019065
588.317760	0.019135
588.528810	0.019136
588.739841	0.019206
588.950855	0.019316
589.161850	0.019230
589.372827	0.019158
589.583785	0.019455
589.794726	0.019326
590.005648	0.019326
590.216552	0.019367
590.427437	0.019477
590.638305	0.019386
590.849154	0.019114
591.059985	0.019236
591.270798	0.019340
591.481592	0.019066
591.692369	0.018880
591.903127	0.018870
592.113867	0.018839
592.324588	0.019067
592.535292	0.019185
592.745977	0.019432
592.956644	0.019621
593.167293	0.019399
593.377923	0.019593
593.588536	0.019811
593.799130	0.019492
594.009706	0.019480
594.220263	0.019416
594.430803	0.019192
594.641324	0.019120
594.851827	0.019095
595.062312	0.019296
595.272778	0.019280
595.483227	0.019316
595.693657	0.019487
595.904069	0.019529
596.114462	0.019637
596.324838	0.019648
596.535195	0.019651
596.745534	0.019645
596.955855	0.019582
597.166157	0.019642
597.376441	0.019472
597.586707	0.019350
597.796955	0.019245
598.007185	0.018942
598.217396	0.018804
598.427589	0.018743
598.637764	0.018584
598.847921	0.018332
599.058060	0.018259
599.268180	0.018434
599.478282	0.018363
599.688366	0.018594
599.898431	0.018529
600.108479	0.018683
600.318508	0.018873
600.528519	0.018887
600.738511	0.019115
600.948486	0.019072
601.158442	0.019148
601.368380	0.019410
601.578300	0.019481
601.788202	0.019759
601.998085	0.019487
602.207950	0.019437
602.417797	0.019355
602.627626	0.019219
602.837436	0.019275
603.047228	0.019095
603.257002	0.018823
603.466758	0.018676
603.676496	0.018510
603.886215	0.018871
604.095916	0.018919
604.305599	0.018912
604.515264	0.019285
604.724910	0.018970
604.934538	0.019098
605.144148	0.019209
605.353740	0.019241
605.563314	0.019454
605.772869	0.019580
605.982406	0.019484
606.191925	0.019556
606.401425	0.019343
606.610908	0.019460
606.820372	0.019479
607.029818	0.019634
607.239246	0.019562
607.448655	0.019222
607.658047	0.018907
607.867420	0.018737
608.076775	0.018646
608.286111	0.018504
608.495430	0.018554
608.704730	0.018472
608.914012	0.018236
609.123275	0.018082
609.332521	0.018098
609.541748	0.018177
609.750957	0.018385
609.960148	0.018452
610.169321	0.018404
610.378475	0.018397
610.587611	0.018269
610.796729	0.018254
611.005829	0.018349
611.214910	0.018456
611.423974	0.018349
611.633019	0.018343
611.842045	0.018438
612.051054	0.018516
612.260044	0.018428
612.469017	0.018493
612.677970	0.018627
612.886906	0.018583
613.095824	0.018578
613.304723	0.018609
613.513604	0.018569
613.722467	0.018460
613.931311	0.018355
614.140138	0.018589
614.348946	0.018585
614.557736	0.018540
614.766507	0.018560
614.975261	0.018461
615.183996	0.018424
615.392713	0.018513
615.601412	0.018478
615.810092	0.018300
616.018754	0.018148
616.227399	0.018062
616.436024	0.018048
616.644632	0.017972
616.853222	0.018193
617.061793	0.018210
617.270346	0.018061
617.478880	0.018195
617.687397	0.018563
617.895895	0.018667
618.104375	0.018739
618.312837	0.018905
618.521281	0.018989
618.729706	0.019201
618.938113	0.019098
619.146502	0.019202
619.354873	0.019051
619.563226	0.019143
619.771560	0.019058
619.979876	0.019098
620.188174	0.018901
620.396453	0.019043
620.604715	0.018708
620.812958	0.018755
621.021183	0.018866
621.229390	0.018901
621.437578	0.018803
621.645748	0.018843
621.853900	0.018934
622.062034	0.018802
622.270150	0.018720
622.478247	0.018873
622.686326	0.019013
622.894387	0.018925
623.102430	0.019083
623.310454	0.018806
623.518461	0.018840
623.726449	0.018717
623.934418	0.018941
624.142370	0.018924
624.350303	0.018647
624.558218	0.018473
624.766115	0.018451
624.973994	0.018447
625.181855	0.018790
625.389697	0.018671
625.597521	0.018826
625.805327	0.018976
626.013114	0.018891
626.220883	0.019034
626.428634	0.019058
626.636367	0.018872
626.844082	0.018765
627.051778	0.018553
627.259457	0.018640
627.467117	0.018469
627.674758	0.018296
627.882382	0.018434
628.089987	0.018544
628.297574	0.018591
628.505143	0.018697
628.712694	0.018781
628.920226	0.018644
629.127740	0.018687
629.335236	0.018658
629.542714	0.018564
629.750174	0.018499
629.957615	0.018206
630.165038	0.018287
630.372443	0.018049
630.579829	0.017902
630.787198	0.017918
630.994548	0.017762
631.201880	0.017817
631.409194	0.017805
631.616489	0.017826
631.823766	0.017762
632.031025	0.017506
632.238266	0.017571
632.445489	0.017486
632.652693	0.017534
632.859879	0.017495
633.067047	0.017339
633.274197	0.017385
633.481329	0.017505
633.688442	0.017627
633.895537	0.017834
634.102614	0.017905
634.309672	0.017941
634.516713	0.018111
634.723735	0.018305
634.930739	0.018403
635.137724	0.018488
635.344692	0.018329
635.551641	0.018363
635.758572	0.018240
635.965485	0.018329
636.172379	0.018370
636.379256	0.018194
636.586114	0.018115
636.792954	0.018147
636.999775	0.017989
637.206579	0.018029
637.413364	0.018029
637.620131	0.018051
637.826880	0.017914
638.033610	0.017725
638.240323	0.017688
638.447017	0.017603
638.653692	0.017556
638.860350	0.017663
639.066990	0.017619
639.273611	0.017438
639.480214	0.017612
639.686798	0.017706
639.893365	0.017799
640.099913	0.017904
640.306443	0.017829
640.512955	0.017940
640.719449	0.017831
640.925924	0.017791
641.132381	0.018256
641.338820	0.018056
641.545241	0.017979
641.751644	0.018158
641.958028	0.018008
642.164394	0.018177
642.370742	0.018131
642.577071	0.018180
642.783383	0.018276
642.989676	0.017949
643.195951	0.018101
643.402207	0.018291
643.608446	0.018168
643.814666	0.018261
644.020868	0.018076
644.227052	0.018023
644.433218	0.018042
644.639365	0.017898
644.845494	0.018093
645.051605	0.017966
645.257698	0.017931
645.463772	0.017960
645.669828	0.018011
645.875866	0.018232
646.081886	0.018246
646.287888	0.018221
646.493871	0.018298
646.699836	0.018165
646.905783	0.018206
647.111712	0.018114
647.317622	0.018052
647.523514	0.017981
647.729388	0.017829
647.935244	0.017753
648.141082	0.017851
648.346901	0.017829
648.552702	0.017854
648.758485	0.017816
648.964250	0.017746
649.169996	0.017847
649.375724	0.017851
649.581434	0.017769
649.787126	0.017711
649.992800	0.017604
650.198455	0.017492
650.404092	0.017304
650.609711	0.017371
650.815311	0.017362
651.020894	0.017150
651.226458	0.017138
651.432004	0.017272
651.637532	0.017358
651.843041	0.017204
652.048532	0.017259
652.254006	0.017264
652.459460	0.017134
652.664897	0.017107
652.870315	0.017213
653.075716	0.017262
653.281097	0.017118
653.486461	0.017170
653.691807	0.017162
653.897134	0.017128
654.102443	0.017232
654.307734	0.017262
654.513006	0.017284
654.718261	0.017297
654.923497	0.017267
655.128715	0.017425
655.333915	0.017389
655.539096	0.017575
655.744259	0.017534
655.949404	0.017466
656.154531	0.017477
656.359640	0.017490
656.564730	0.017469
656.769802	0.017564
656.974856	0.017632
657.179892	0.017612
657.384909	0.017659
657.589908	0.017577
657.794889	0.017703
657.999852	0.017819
658.204797	0.017887
658.409723	0.017904
658.614631	0.017731
658.819521	0.017530
659.024393	0.017666
659.229246	0.017562
659.434081	0.017764
659.638898	0.017589
659.843697	0.017616
660.048478	0.017738
660.253240	0.017798
660.457984	0.017915
660.662710	0.018148
660.867417	0.018081
661.072107	0.018277
661.276778	0.018258
661.481431	0.018446
661.686066	0.018306
661.890682	0.018171
662.095281	0.018085
662.299861	0.018191
662.504422	0.017933
662.708966	0.017839
662.913491	0.017401
663.117999	0.017362
663.322488	0.017173
663.526958	0.017098
663.731411	0.016933
663.935845	0.016950
664.140261	0.016927
664.344659	0.016928
664.549038	0.016771
664.753400	0.016927
664.957743	0.017028
665.162068	0.017110
665.366375	0.017061
665.570663	0.017165
665.774933	0.017082
665.979185	0.016938
666.183419	0.016833
666.387635	0.016844
666.591832	0.016813
666.796011	0.016553
667.000172	0.016494
667.204315	0.016671
667.408439	0.016622
667.612545	0.016623
667.816634	0.016677
668.020703	0.016960
668.224755	0.017158
668.428788	0.017268
668.632803	0.017492
668.836800	0.017513
669.040779	0.017436
669.244739	0.017449
669.448681	0.017358
669.652605	0.017308
669.856511	0.017279
670.060399	0.017314
670.264268	0.017291
670.468119	0.017140
670.671952	0.017095
670.875767	0.017009
671.079563	0.016857
671.283341	0.016987
671.487101	0.016978
671.690843	0.017039
671.894567	0.017035
672.098272	0.016947
672.301959	0.017157
672.505628	0.017296
672.709278	0.017462
672.912911	0.017588
673.116525	0.017417
673.320121	0.017392
673.523699	0.017186
673.727258	0.017039
673.930799	0.017056
674.134322	0.016915
674.337827	0.016767
674.541314	0.016601
674.744782	0.016536
674.948232	0.016617
675.151664	0.016647
675.355078	0.016485
675.558474	0.016499
675.761851	0.016493
675.965210	0.016388
676.168551	0.016435
676.371873	0.016439
676.575178	0.016303
676.778464	0.016375
676.981732	0.016307
677.184981	0.016451
677.388213	0.016501
677.591426	0.016481
677.794621	0.016460
677.997798	0.016268
678.200956	0.016145
678.404097	0.016419
678.607219	0.016364
678.810323	0.016290
679.013408	0.016217
679.216476	0.016276
679.419525	0.016280
679.622556	0.016303
679.825569	0.016624
680.028563	0.016742
680.231540	0.016531
680.434498	0.016555
680.637438	0.016489
680.840359	0.016562
681.043263	0.016406
681.246148	0.016410
681.449015	0.016429
681.651864	0.016244
681.854694	0.016147
682.057506	0.016192
682.260301	0.016029
682.463076	0.015942
682.665834	0.015940
682.868573	0.015700
683.071295	0.015533
683.273998	0.015448
683.476682	0.015284
683.679349	0.015331
683.881997	0.015391
684.084627	0.015408
684.287239	0.015548
684.489833	0.015550
684.692408	0.015814
684.894965	0.015988
685.097504	0.016085
685.300025	0.016224
685.502527	0.016257
685.705012	0.016330
685.907478	0.016469
686.109925	0.016441
686.312355	0.016367
686.514766	0.016375
686.717159	0.016378
686.919534	0.016374
687.121891	0.016483
687.324230	0.016582
687.526550	0.016388
687.728852	0.016381
687.931136	0.016622
688.133401	0.016680
688.335649	0.016673
688.537878	0.016695
688.740089	0.016768
688.942281	0.016778
689.144456	0.016725
689.346612	0.016665
689.548750	0.016579
689.750870	0.016443
689.952971	0.016449
690.155055	0.016370
690.357120	0.016218
690.559167	0.016053
690.761195	0.015853
690.963206	0.015923
691.165198	0.015985
691.367172	0.016114
691.569128	0.016088
691.771065	0.016039
691.972984	0.015983
692.174885	0.016103
692.376768	0.016208
692.578633	0.016478
692.780479	0.016315
692.982308	0.016369
693.184118	0.016380
693.385909	0.016407
693.587683	0.016340
693.789438	0.016270
693.991175	0.016222
694.192894	0.016124
694.394595	0.015940
694.596277	0.016149
694.797941	0.016214
694.999587	0.016126
695.201215	0.016048
695.402824	0.016185
695.604416	0.016400
695.805989	0.016326
696.007543	0.016426
696.209080	0.016414
696.410598	0.016365
696.612099	0.016447
696.813580	0.016420
697.015044	0.016463
697.216490	0.016436
697.417917	0.016447
697.619326	0.016554
697.820717	0.016624
698.022089	0.016691
698.223444	0.016556
698.424780	0.016420
698.626098	0.016408
698.827397	0.016405
699.028679	0.016306
699.229942	0.016052
699.431187	0.016031
699.632414	0.015792
699.833622	0.015733
700.034813	0.015605
700.235985	0.015436
700.437139	0.015384
700.638274	0.015331
700.839392	0.015400
701.040491	0.015622
701.241572	0.015467
701.442635	0.015524
701.643679	0.015580
701.844706	0.015680
702.045714	0.015880
702.246704	0.015985
702.447675	0.015944
702.648629	0.015856
702.849564	0.015716
703.050481	0.015639
703.251380	0.015545
703.452260	0.015467
703.653122	0.015477
703.853966	0.015422
704.054792	0.015273
704.255600	0.015083
704.456389	0.015101
704.657160	0.015063
704.857913	0.015101
705.058648	0.015233
705.259365	0.015171
705.460063	0.015183
705.660743	0.015218
705.861405	0.015373
706.062048	0.015673
706.262674	0.015657
706.463281	0.015684
706.663870	0.015767
706.864441	0.015727
707.064993	0.015859
707.265527	0.015801
707.466043	0.015835
707.666541	0.015756
707.867021	0.015783
708.067482	0.015901
708.267925	0.016012
708.468350	0.016074
708.668757	0.016096
708.869145	0.015863
709.069516	0.015748
709.269868	0.015708
709.470201	0.015662
709.670517	0.015554
709.870814	0.015504
710.071093	0.015425
710.271354	0.015517
710.471597	0.015398
710.671821	0.015504
710.872028	0.015506
711.072216	0.015385
711.272385	0.015319
711.472537	0.015229
711.672670	0.015063
711.872785	0.015112
712.072882	0.014807
712.272961	0.014883
712.473021	0.014976
712.673063	0.015111
712.873087	0.015100
713.073093	0.015048
713.273081	0.015148
713.473050	0.015196
713.673001	0.015083
713.872934	0.015214
714.072849	0.015219
714.272745	0.015146
714.472623	0.015087
714.672483	0.015039
714.872325	0.015078
715.072148	0.015103
715.271954	0.015086
715.471741	0.015091
715.671509	0.015073
715.871260	0.014983
716.070992	0.014775
716.270707	0.014710
716.470403	0.014863
716.670080	0.014913
716.869740	0.014912
717.069381	0.014990
717.269004	0.014931
717.468609	0.014878
717.668195	0.014994
717.867764	0.015098
718.067314	0.015137
718.266846	0.015088
718.466360	0.015003
718.665855	0.014900
718.865332	0.014934
719.064791	0.015156
719.264232	0.015270
719.463655	0.015243
719.663059	0.015456
719.862445	0.015477
720.061813	0.015426
720.261163	0.015589
720.460494	0.015613
720.659807	0.015682
720.859102	0.015407
721.058379	0.015344
721.257638	0.015334
721.456878	0.015257
721.656100	0.015223
721.855304	0.015116
722.054490	0.014966
722.253657	0.015016
722.452806	0.015013
722.651937	0.015155
722.851050	0.015337
723.050145	0.015292
723.249221	0.015253
723.448279	0.015450
723.647319	0.015571
723.846340	0.015716
724.045344	0.015667
724.244329	0.015578
724.443296	0.015573
724.642245	0.015480
724.841175	0.015518
725.040088	0.015534
725.238982	0.015402
725.437857	0.015461
725.636715	0.015288
725.835554	0.015268
726.034376	0.015073
726.233179	0.015054
726.431963	0.014840
726.630730	0.014766
726.829478	0.014569
727.028208	0.014490
727.226920	0.014514
727.425614	0.014512
727.624289	0.014440
727.822946	0.014654
728.021585	0.014547
728.220206	0.014554
728.418808	0.014655
728.617392	0.014793
728.815958	0.014786
729.014506	0.014483
729.213036	0.014479
729.411547	0.014393
729.610040	0.014230
729.808515	0.014374
730.006972	0.014459
730.205410	0.014299
730.403831	0.014221
730.602233	0.014116
730.800616	0.014200
730.998982	0.014133
731.197329	0.014220
731.395658	0.014134
731.593969	0.014135
731.792262	0.014132
731.990536	0.014196
732.188793	0.014204
732.387031	0.014274
732.585250	0.014428
732.783452	0.014511
732.981635	0.014469
733.179800	0.014479
733.377947	0.014206
733.576076	0.013980
733.774186	0.013949
733.972278	0.013963
734.170352	0.013909
734.368408	0.013795
734.566446	0.013771
734.764465	0.013811
734.962466	0.013898
735.160449	0.014028
735.358413	0.014218
735.556360	0.014130
735.754288	0.013954
735.952198	0.014067
736.150090	0.014128
736.347963	0.014103
736.545818	0.014165
736.743655	0.014106
736.941474	0.014021
737.139275	0.014035
737.337057	0.014067
737.534821	0.014296
737.732567	0.014289
737.930295	0.014188
738.128005	0.014391
738.325696	0.014292
738.523369	0.014400
738.721024	0.014572
738.918660	0.014691
739.116279	0.014860
739.313879	0.014596
739.511461	0.014634
739.709024	0.014613
739.906570	0.014331
740.104097	0.014364
740.301606	0.014367
740.499097	0.014331
740.696569	0.014179
740.894024	0.013966
741.091460	0.014123
741.288878	0.014008
741.486277	0.014102
741.683659	0.014158
741.881022	0.014072
742.078367	0.013831
742.275694	0.013734
742.473002	0.013805
742.670293	0.013927
742.867565	0.013921
743.064819	0.013892
743.262054	0.013871
743.459272	0.013902
743.656471	0.014074
743.853652	0.014201
744.050815	0.014272
744.247959	0.014292
744.445085	0.014175
744.642194	0.014413
744.839283	0.014403
745.036355	0.014481
745.233408	0.014482
745.430444	0.014331
745.627461	0.014343
745.824459	0.014382
746.021440	0.014490
746.218402	0.014667
746.415346	0.014509
746.612272	0.014597
746.809180	0.014682
747.006069	0.014880
747.202940	0.015152
747.399793	0.015279
747.596628	0.015677
747.793444	0.015685
747.990243	0.015715
748.187023	0.015843
748.383784	0.015912
748.580528	0.015835
748.777253	0.015775
748.973960	0.015854
749.170649	0.015863
749.367320	0.015683
749.563973	0.015632
749.760607	0.015659
749.957223	0.015688
750.153821	0.015866
750.350400	0.016053
750.546962	0.016063
750.743505	0.015923
750.940030	0.016102
751.136536	0.016051
751.333025	0.016083
751.529495	0.016048
751.725947	0.016060
751.922381	0.015985
752.118796	0.016033
752.315194	0.016291
752.511573	0.016499
752.707934	0.016443
752.904276	0.016336
753.100601	0.016176
753.296907	0.016166
753.493195	0.016142
753.689465	0.016056
753.885716	0.015897
754.081949	0.015575
754.278164	0.015286
754.474361	0.015252
754.670540	0.015187
754.866700	0.015260
755.062843	0.015280
755.258967	0.015309
755.455072	0.015133
755.651160	0.015079
755.847229	0.014992
756.043280	0.014961
756.239313	0.014865
756.435328	0.015118
756.631324	0.015145
756.827302	0.015073
757.023262	0.014926
757.219204	0.015079
757.415127	0.014994
757.611033	0.015149
757.806920	0.015334
758.002788	0.015407
758.198639	0.015247
758.394471	0.015183
758.590286	0.015062
758.786081	0.015105
758.981859	0.014973
759.177619	0.014995
759.373360	0.014902
759.569083	0.014697
759.764788	0.014721
759.960474	0.014763
760.156143	0.014804
760.351793	0.014972
760.547425	0.014945
760.743038	0.015156
760.938634	0.015237
761.134211	0.015404
761.329770	0.015411
761.525311	0.015340
761.720833	0.015377
761.916338	0.015549
762.111824	0.015714
762.307292	0.015733
762.502741	0.015661
762.698173	0.015688
762.893586	0.015761
763.088981	0.015952
763.284358	0.016037
763.479716	0.016069
763.675057	0.016073
763.870379	0.015899
764.065683	0.016056
764.260968	0.016266
764.456236	0.016370
764.651485	0.016269
764.846716	0.016295
765.041929	0.016466
765.237123	0.016526
765.432299	0.016716
765.627457	0.017086
765.822597	0.017079
766.017719	0.017112
766.212822	0.017160
766.407907	0.017237
766.602974	0.017292
766.798023	0.016961
766.993054	0.016906
767.188066	0.016771
767.383060	0.016528
767.578036	0.016733
767.772993	0.016717
767.967933	0.016747
768.162854	0.016698
768.357757	0.016873
768.552642	0.017139
768.747508	0.017232
768.942356	0.017253
769.137186	0.017438
769.331998	0.017201
769.526792	0.017182
769.721567	0.017122
769.916324	0.017434
770.111063	0.017296
770.305784	0.017233
770.500486	0.017142
770.695171	0.017156
770.889837	0.017048
771.084484	0.017207
771.279114	0.017332
771.473725	0.017391
771.668318	0.017114
771.862893	0.017128
772.057450	0.017250
772.251988	0.017367
772.446509	0.017371
772.641011	0.017686
772.835494	0.017647
773.029960	0.017564
773.224407	0.017626
773.418836	0.017764
773.613247	0.017895
773.807640	0.017836
774.002014	0.017776
774.196370	0.017717
774.390708	0.017521
774.585028	0.017539
774.779330	0.017686
774.973613	0.017767
775.167878	0.017899
775.362125	0.017935
775.556354	0.018051
775.750564	0.018279
775.944756	0.018399
776.138930	0.018306
776.333086	0.018461
776.527223	0.018389
776.721343	0.018258
776.915444	0.018215
777.109526	0.018128
777.303591	0.018066
777.497637	0.017890
777.691666	0.017958
777.885676	0.017926
778.079667	0.017930
778.273641	0.017778
778.467596	0.017831
778.661533	0.017644
778.855452	0.017431
779.049352	0.017296
779.243235	0.017301
779.437099	0.017284
779.630945	0.017285
779.824773	0.017132
780.018582	0.017160
780.212373	0.017118
780.406146	0.017171
780.599901	0.017201
780.793638	0.017380
780.987356	0.017399
781.181056	0.017324
781.374738	0.017405
781.568402	0.017451
781.762047	0.017534
781.955674	0.017516
782.149283	0.017713
782.342874	0.017922
782.536447	0.017952
782.730001	0.018013
782.923537	0.018030
783.117055	0.018086
783.310555	0.017977
783.504036	0.018034
783.697499	0.018008
783.890944	0.017884
784.084371	0.017806
784.277780	0.017675
784.471170	0.017673
784.664542	0.017651
784.857896	0.017416
785.051231	0.017255
785.244549	0.017215
785.437848	0.017230
785.631129	0.017049
785.824392	0.017052
786.017636	0.017155
786.210863	0.017103
786.404071	0.017208
786.597260	0.017333
786.790432	0.017512
786.983585	0.017593
787.176721	0.017749
787.369838	0.017881
787.562936	0.017806
787.756017	0.017664
787.949079	0.017640
788.142123	0.017531
788.335149	0.017697
788.528156	0.017789
788.721146	0.017536
788.914117	0.017292
789.107070	0.017211
789.300005	0.017279
789.492921	0.017433
789.685819	0.017439
789.878699	0.017593
790.071561	0.017448
790.264405	0.017527
790.457230	0.017674
790.650037	0.017936
790.842826	0.018192
791.035597	0.018326
791.228349	0.018182
791.421084	0.018400
791.613800	0.018503
791.806497	0.018622
791.999177	0.018552
792.191838	0.018598
792.384481	0.018628
792.577106	0.018549
792.769713	0.018635
792.962301	0.018722
793.154871	0.018436
793.347423	0.018286
793.539957	0.018157
793.732473	0.018243
793.924970	0.018188
794.117449	0.018144
794.309910	0.018204
794.502353	0.017971
794.694777	0.018036
794.887183	0.018191
795.079571	0.018232
795.271941	0.018367
795.464293	0.018327
795.656626	0.018449
795.848941	0.018460
796.041238	0.018548
796.233516	0.018782
796.425777	0.019088
796.618019	0.019120
796.810243	0.019055
797.002449	0.019056
797.194636	0.019151
797.386805	0.019053
797.578956	0.019039
797.771089	0.018825
797.963204	0.018705
798.155300	0.018146
798.347378	0.018031
798.539438	0.017926
798.731480	0.017900
798.923503	0.017724
799.115509	0.017807
799.307496	0.017824
799.499465	0.017909
799.691415	0.017829
799.883348	0.018095
800.075262	0.018356
800.267158	0.018458
800.459035	0.018279
800.650895	0.018278
800.842736	0.018339
801.034559	0.018241
801.226364	0.018170
801.418150	0.018197
801.609919	0.018169
801.801669	0.018039
801.993401	0.018059
802.185114	0.018219
802.376810	0.018418
802.568487	0.018354
802.760146	0.018466
802.951787	0.018446
803.143409	0.018363
803.335014	0.018597
803.526600	0.018541
803.718168	0.018677
803.909717	0.018582
804.101249	0.018427
804.292762	0.018462
804.484257	0.018414
804.675734	0.018303
804.867192	0.018457
805.058632	0.018135
805.250054	0.018073
805.441458	0.017770
805.632844	0.017889
805.824211	0.018034
806.015561	0.017814
806.206891	0.017668
806.398204	0.017826
806.589499	0.017602
806.780775	0.017616
806.972033	0.017738
807.163273	0.017812
807.354495	0.017605
807.545698	0.017374
807.736883	0.017346
807.928050	0.017360
808.119199	0.017305
808.310329	0.017507
808.501441	0.017527
808.692535	0.017257
808.883611	0.017224
809.074669	0.017416
809.265708	0.017478
809.456729	0.017690
809.647732	0.017826
809.838717	0.017680
810.029683	0.017627
810.220632	0.017626
810.411562	0.017813
810.602474	0.017915
810.793367	0.017949
810.984242	0.017943
811.175100	0.017712
811.365938	0.017583
811.556759	0.017814
811.747562	0.017707
811.938346	0.017804
812.129112	0.017873
812.319860	0.017876
812.510589	0.017832
812.701300	0.017778
812.891994	0.017938
813.082668	0.018047
813.273325	0.017963
813.463964	0.018034
813.654584	0.017926
813.845186	0.017875
814.035769	0.017655
814.226335	0.017612
814.416882	0.017664
814.607411	0.017628
814.797922	0.017499
814.988415	0.017531
815.178889	0.017395
815.369345	0.017318
815.559783	0.017096
815.750203	0.017084
815.940605	0.017123
816.130988	0.016925
816.321353	0.016839
816.511700	0.016758
816.702028	0.016544
816.892339	0.016519
817.082631	0.016648
817.272905	0.016630
817.463161	0.016727
817.653398	0.016693
817.843617	0.016821
818.033819	0.016843
818.224001	0.017206
818.414166	0.017286
818.604312	0.017267
818.794440	0.017290
818.984550	0.017472
819.174642	0.017501
819.364716	0.017516
819.554771	0.017413
819.744808	0.017310
819.934827	0.016898
820.124827	0.017205
820.314810	0.017381
820.504774	0.017239
820.694720	0.016960
820.884647	0.017063
821.074557	0.016913
821.264448	0.016891
821.454321	0.017012
821.644176	0.017207
821.834012	0.016902
822.023831	0.016784
822.213631	0.016490
822.403413	0.016550
822.593176	0.016206
822.782922	0.016134
822.972649	0.015986
823.162358	0.015871
823.352049	0.015419
823.541721	0.015224
823.731376	0.015292
823.921012	0.015582
824.110629	0.015472
824.300229	0.015577
824.489811	0.015512
824.679374	0.015665
824.868919	0.015606
825.058445	0.015892
825.247954	0.016152
825.437444	0.016121
825.626916	0.016135
825.816370	0.016202
826.005806	0.016244
826.195223	0.016134
826.384622	0.016062
826.574003	0.016103
826.763366	0.016237
826.952711	0.016058
827.142037	0.015987
827.331345	0.015882
827.520635	0.015846
827.709906	0.015890
827.899160	0.016030
828.088395	0.016143
828.277612	0.016121
828.466810	0.015797
828.655991	0.015956
828.845153	0.016069
829.034297	0.016271
829.223423	0.016485
829.412531	0.016335
829.601620	0.016192
829.790691	0.016079
829.979744	0.016193
830.168779	0.016292
830.357795	0.016222
830.546793	0.015976
830.735773	0.015621
830.924735	0.015452
831.113679	0.015366
831.302604	0.015633
831.491511	0.015646
831.680400	0.015524
831.869271	0.015402
832.058123	0.015352
832.246957	0.015536
832.435773	0.015626
832.624571	0.015746
832.813351	0.015788
833.002112	0.015610
833.190855	0.015772
833.379580	0.015505
833.568287	0.015584
833.756975	0.015542
833.945645	0.015278
834.134297	0.015130
834.322931	0.014980
834.511547	0.015087
834.700144	0.015059
834.888723	0.014533
835.077284	0.014685
835.265826	0.014470
835.454351	0.014465
835.642857	0.014516
835.831345	0.014487
836.019815	0.014331
836.208266	0.014189
836.396699	0.014156
836.585114	0.014464
836.773511	0.014405
836.961890	0.014539
837.150250	0.014416
837.338592	0.014319
837.526916	0.014358
837.715222	0.014376
837.903510	0.014418
838.091779	0.014479
838.280030	0.014386
838.468263	0.014532
838.656477	0.014499
838.844674	0.014472
839.032852	0.014609
839.221012	0.014759
839.409153	0.014817
839.597277	0.014755
839.785382	0.014597
839.973469	0.014590
840.161538	0.014596
840.349589	0.014817
840.537621	0.014860
840.725635	0.014825
840.913631	0.014818
841.101609	0.014953
841.289568	0.014961
841.477509	0.015024
841.665432	0.015327
841.853337	0.015330
842.041224	0.015308
842.229092	0.015446
842.416942	0.015536
842.604774	0.015586
842.792588	0.015576
842.980383	0.015426
843.168160	0.015641
843.355919	0.015434
843.543660	0.015428
843.731382	0.015623
843.919087	0.015537
844.106773	0.015575
844.294441	0.015508
844.482090	0.015467
844.669722	0.015952
844.857335	0.015828
845.044930	0.015803
845.232507	0.015755
845.420065	0.015451
845.607605	0.015237
845.795127	0.015111
845.982631	0.015064
846.170117	0.015148
846.357584	0.014881
846.545033	0.014986
846.732464	0.014993
846.919877	0.015171
847.107272	0.015515
847.294648	0.015675
847.482006	0.015723
847.669346	0.015762
847.856667	0.015812
848.043971	0.016010
848.231256	0.016062
848.418523	0.015916
848.605771	0.015778
848.793002	0.015751
848.980214	0.015940
849.167408	0.016184
849.354584	0.016281
849.541742	0.016367
849.728881	0.016193
849.916002	0.016120
850.103105	0.016486
850.290190	0.016385
850.477256	0.016092
850.664304	0.015979
850.851334	0.015822
851.038346	0.015880
851.225340	0.015574
851.412315	0.015638
851.599272	0.015619
851.786211	0.015552
851.973132	0.015777
852.160034	0.015847
852.346918	0.015961
852.533784	0.015792
852.720632	0.015669
852.907462	0.015810
853.094273	0.015629
853.281066	0.015651
853.467841	0.015752
853.654598	0.015786
853.841336	0.016057
854.028056	0.016205
854.214758	0.016492
854.401442	0.016576
854.588107	0.016805
854.774755	0.017286
854.961384	0.017412
855.147995	0.017491
855.334587	0.017492
855.521162	0.017538
855.707718	0.017503
855.894256	0.017445
856.080775	0.017607
856.267277	0.017349
856.453760	0.017062
856.640225	0.017050
856.826672	0.017032
857.013101	0.017141
857.199511	0.016929
857.385903	0.017007
857.572277	0.016995
857.758633	0.016829
857.944970	0.017153
858.131290	0.017154
858.317591	0.017298
858.503873	0.017146
858.690138	0.016957
858.876384	0.017023
859.062612	0.017113
859.248822	0.017086
859.435014	0.017117
859.621188	0.016822
859.807343	0.016838
859.993480	0.016853
860.179599	0.017007
860.365699	0.017181
860.551781	0.017092
860.737846	0.016763
860.923891	0.016925
861.109919	0.017134
861.295929	0.017331
861.481920	0.017266
861.667893	0.016918
861.853848	0.016796
862.039784	0.016609
862.225702	0.016724
862.411603	0.016950
862.597484	0.016670
862.783348	0.016438
862.969193	0.016300
863.155021	0.016602
863.340830	0.016763
863.526620	0.016625
863.712393	0.016896
863.898147	0.016705
864.083883	0.016666
864.269601	0.017042
864.455301	0.017115
864.640982	0.017404
864.826645	0.017230
865.012290	0.017170
865.197917	0.017556
865.383526	0.017420
865.569116	0.017633
865.754688	0.017812
865.940242	0.018115
866.125777	0.018250
866.311295	0.018319
866.496794	0.018531
866.682275	0.018754
866.867737	0.018685
867.053182	0.019161
867.238608	0.019094
867.424016	0.019009
867.609406	0.018648
867.794778	0.018671
867.980131	0.018810
868.165466	0.018761
868.350783	0.018740
868.536082	0.018568
868.721362	0.018107
868.906625	0.018135
869.091869	0.017971
869.277094	0.018037
869.462302	0.018141
869.647491	0.017869
869.832662	0.017768
870.017815	0.018047
870.202950	0.018215
870.388066	0.018280
870.573165	0.018172
870.758245	0.018493
870.943306	0.018453
871.128350	0.018306
871.313375	0.018344
871.498382	0.018269
871.683371	0.017879
871.868342	0.017910
872.053294	0.017842
872.238229	0.017940
872.423144	0.017847
872.608042	0.017744
872.792922	0.017771
872.977783	0.017716
873.162626	0.018002
873.347451	0.018217
873.532258	0.018175
873.717046	0.018214
873.901816	0.018170
874.086568	0.017956
874.271302	0.018139
874.456017	0.018058
874.640715	0.017992
874.825394	0.017673
875.010055	0.017606
875.194697	0.017742
875.379322	0.017794
875.563928	0.018149
875.748516	0.018248
875.933085	0.018098
876.117637	0.018485
876.302170	0.018611
876.486685	0.018989
876.671182	0.018854
876.855661	0.018746
877.040121	0.019004
877.224563	0.018586
877.408987	0.018757
877.593393	0.018903
877.777780	0.018636
877.962150	0.018461
878.146501	0.018203
878.330833	0.018306
878.515148	0.018186
878.699444	0.018203
878.883722	0.018270
879.067982	0.018024
879.252224	0.017885
879.436447	0.017924
879.620653	0.018079
879.804840	0.018118
879.989008	0.018240
880.173159	0.018500
880.357291	0.018263
880.541405	0.018421
880.725501	0.018581
880.909579	0.018679
881.093638	0.018415
881.277680	0.018490
881.461703	0.018535
881.645707	0.018483
881.829694	0.018423
882.013662	0.018565
882.197612	0.018460
882.381544	0.018466
882.565458	0.018609
882.749353	0.018481
882.933230	0.018287
883.117089	0.018288
883.300930	0.018294
883.484753	0.018122
883.668557	0.018205
883.852343	0.018221
884.036111	0.018293
884.219861	0.018067
884.403592	0.018252
884.587305	0.018420
884.771000	0.018372
884.954677	0.018206
885.138335	0.018242
885.321976	0.018124
885.505598	0.018354
885.689201	0.018418
885.872787	0.018287
886.056354	0.018699
886.239904	0.018951
886.423434	0.019091
886.606947	0.019617
886.790442	0.019963
886.973918	0.019883
887.157376	0.020149
887.340816	0.020098
887.524237	0.020551
887.707641	0.020392
887.891026	0.020066
888.074393	0.019871
888.257741	0.019706
888.441072	0.019612
888.624384	0.019838
888.807678	0.019345
888.990954	0.019246
889.174211	0.019227
889.357451	0.019038
889.540672	0.018804
889.723875	0.019162
889.907059	0.018947
890.090226	0.018742
890.273374	0.018590
890.456504	0.018752
890.639616	0.018735
890.822709	0.018521
891.005785	0.018491
891.188842	0.018614
891.371881	0.018327
891.554901	0.018154
891.737904	0.018283
891.920888	0.018017
892.103854	0.018185
892.286802	0.018081
892.469731	0.017899
892.652643	0.017867
892.835536	0.017862
893.018410	0.018113
893.201267	0.017933
893.384106	0.017644
893.566926	0.017833
893.749728	0.017602
893.932511	0.017698
894.115277	0.017846
894.298024	0.018143
894.480753	0.018601
894.663464	0.018333
894.846157	0.018593
895.028831	0.018410
895.211487	0.018363
895.394125	0.018365
895.576745	0.018323
895.759346	0.018460
895.941930	0.018431
896.124495	0.018089
896.307041	0.018152
896.489570	0.018317
896.672080	0.018503
896.854573	0.018503
897.037046	0.018396
897.219502	0.018297
897.401940	0.018137
897.584359	0.017845
897.766760	0.017605
897.949143	0.017183
898.131507	0.016759
898.313854	0.016892
898.496182	0.016698
898.678492	0.016767
898.860783	0.016976
899.043057	0.017165
899.225312	0.017313
899.407549	0.017639
899.589768	0.017963
899.771968	0.018143
899.954151	0.018300
900.136315	0.018629
900.318461	0.018751
900.500588	0.018566
900.682698	0.018580
900.864789	0.018590
901.046862	0.018489
901.228917	0.018509
901.410953	0.018764
901.592971	0.018653
901.774972	0.018289
901.956953	0.018498
902.138917	0.018449
902.320862	0.018218
902.502790	0.018237
902.684699	0.018287
902.866589	0.018671
903.048462	0.018784
903.230316	0.018881
903.412152	0.019340
903.593970	0.019048
903.775770	0.019346
903.957551	0.019735
904.139314	0.019977
904.321059	0.019840
904.502786	0.019395
904.684494	0.019317
904.866185	0.019446
905.047857	0.019401
905.229510	0.019531
905.411146	0.019692
905.592763	0.019462
905.774363	0.019048
905.955943	0.019099
906.137506	0.019112
906.319051	0.019066
906.500577	0.018899
906.682085	0.018896
906.863575	0.018746
907.045046	0.018450
907.226500	0.018251
907.407935	0.018410
907.589352	0.018467
907.770750	0.018705
907.952131	0.018385
908.133493	0.018391
908.314837	0.018129
908.496163	0.017869
908.677470	0.017841
908.858760	0.017940
909.040031	0.018096
909.221284	0.018356
909.402518	0.018162
909.583735	0.018628
909.764933	0.018661
909.946113	0.018865
910.127275	0.019035
910.308418	0.018870
910.489544	0.018922
910.670651	0.018869
910.851740	0.018530
911.032810	0.018658
911.213863	0.018197
911.394897	0.018247
911.575913	0.017683
911.756911	0.017776
911.937890	0.017883
912.118851	0.017975
912.299794	0.017522
912.480719	0.017253
912.661626	0.017217
912.842514	0.017393
913.023384	0.017157
913.204236	0.017094
913.385070	0.017184
913.565886	0.017219
913.746683	0.016724
913.927462	0.016665
914.108223	0.016532
914.288965	0.016526
914.469690	0.016639
914.650396	0.016557
914.831084	0.016732
915.011754	0.016115
915.192405	0.015876
915.373038	0.015625
915.553653	0.015825
915.734250	0.016096
915.914829	0.015885
916.095389	0.015360
916.275931	0.015128
916.456455	0.015396
916.636961	0.015381
916.817448	0.015123
916.997917	0.015421
917.178368	0.015217
917.358801	0.014986
917.539216	0.014718
917.719612	0.014799
917.899990	0.014611
918.080350	0.014302
918.260692	0.014690
918.441015	0.014791
918.621320	0.014841
918.801607	0.014771
918.981876	0.014651
919.162127	0.014620
919.342359	0.014750
919.522573	0.014714
919.702769	0.014853
919.882947	0.014538
920.063106	0.014277
920.243247	0.014157
920.423370	0.014196
920.603475	0.014089
920.783562	0.013882
920.963630	0.013863
921.143680	0.013809
921.323712	0.013511
921.503725	0.013195
921.683721	0.013835
921.863698	0.013409
922.043657	0.012787
922.223598	0.013175
922.403520	0.013341
922.583424	0.012805
922.763311	0.012945
922.943178	0.012837
923.123028	0.013372
923.302859	0.012972
923.482673	0.013115
923.662467	0.013268
923.842244	0.012525
924.022003	0.012136
924.201743	0.011930
924.381465	0.011842
924.561169	0.011688
924.740854	0.011271
924.920522	0.010978
925.100171	0.010559
925.279802	0.010826
925.459414	0.011255
925.639009	0.011638
925.818585	0.011766
925.998143	0.011380
926.177683	0.010957
926.357205	0.010747
926.536708	0.010759
926.716193	0.010840
926.895660	0.010597
927.075109	0.010292
927.254539	0.009783
927.433951	0.009527
927.613345	0.009443
927.792721	0.009820
927.972079	0.009378
928.151418	0.009167
928.330739	0.008771
928.510042	0.008394
928.689327	0.007866
928.868593	0.007719
929.047841	0.007461
929.227071	0.007124
929.406283	0.006829
929.585476	0.007022
929.764652	0.006479
929.943809	0.006134
930.122948	0.006090
930.302068	0.006293
930.481171	0.006588
930.660255	0.007068
930.839321	0.007415
931.018369	0.007241
931.197398	0.007075
931.376409	0.007286
931.555402	0.007524
931.734377	0.007886
931.913334	0.007972
932.092272	0.007165
932.271192	0.006410
932.450094	0.005437
932.628978	0.005100
932.807844	0.005353
932.986691	0.005074
933.165520	0.005171
933.344331	0.004745
933.523123	0.004295
933.701898	0.004144
933.880654	0.003540
934.059392	0.003703
934.238111	0.003926
934.416813	0.003653
934.595496	0.003125
934.774161	0.002814
934.952808	0.002391
935.131437	0.002311
935.310047	0.002672
935.488639	0.002647
935.667213	0.003015
935.845769	0.002907
936.024306	0.002373
936.202825	0.002192
936.381326	0.002164
936.559809	0.001759
936.738274	0.001961
936.916720	0.001860
937.095148	0.002224
937.273558	0.002006
937.451950	0.001276
937.630323	0.001127
937.808678	0.001654
937.987015	0.001601
938.165334	0.002475
938.343635	0.001925
938.521917	0.001839
938.700181	0.001333
938.878427	0.001547
939.056655	0.001557
939.234864	0.001376
939.413055	0.001003
939.591228	0.000484
939.769383	-0.000182
939.947519	-0.000342
940.125638	-0.000668
940.303738	-0.000517
940.481820	-0.001259
940.659883	-0.000437
940.837929	-0.000055
941.015956	0.000439
941.193965	0.000818
941.371955	0.000935
941.549928	0.001694
941.727882	0.001851
941.905818	0.002457
942.083736	0.002516
942.261636	0.001337
942.439517	0.001153
942.617380	0.000142
942.795225	-0.000119
942.973052	-0.000582
943.150860	-0.002008
943.328651	-0.002798
943.506423	-0.003460
943.684176	-0.003087
943.861912	-0.002498
944.039629	-0.001940
944.217328	-0.001040
944.395009	-0.000776
944.572672	-0.000237
944.750317	-0.000041
944.927943	-0.000359
945.105551	-0.000882
945.283141	-0.001700
945.460712	-0.002335
945.638265	-0.003505
945.815801	-0.002536
945.993317	-0.002510
946.170816	-0.002339
946.348297	-0.001873
946.525759	-0.000042
946.703203	0.000916
946.880629	0.001000
947.058036	0.001563
947.235425	0.001620
947.412797	0.000429
947.590149	0.000248
947.767484	-0.000965
947.944800	-0.001570
948.122099	-0.003797
948.299379	-0.003906
948.476640	-0.003456
948.653884	-0.003810
948.831109	-0.003836
949.008316	-0.003349
949.185505	-0.003513
949.362676	-0.004390
949.539828	-0.004204
949.716962	-0.002786
949.894078	-0.003122
950.071176	-0.003529
950.248256	-0.002333
950.425317	-0.002619
950.602360	-0.004187
950.779385	-0.004391
950.956391	-0.002677
951.133380	-0.002194
951.310350	-0.002794
951.487302	-0.002346
951.664235	-0.000712
951.841151	-0.002010
952.018048	-0.000449
952.194927	0.001404
952.371788	0.001871
952.548631	0.002771
952.725455	0.003105
952.902261	0.003877
953.079049	0.004673
953.255819	0.003749
953.432570	0.003935
953.609303	0.002882
953.786018	0.001871
953.962715	0.001472
954.139394	0.001150
954.316054	0.000813
954.492696	0.000478
954.669320	-0.000442
954.845926	-0.000646
955.022513	-0.000008
955.199083	0.001380
955.375634	0.000583
955.552166	0.001412
955.728681	0.002505
955.905177	0.002761
956.081655	0.002890
956.258115	0.005021
956.434557	0.006028
956.610980	0.006937
956.787385	0.005044
956.963772	0.006903
957.140141	0.006169
957.316492	0.004677
957.492824	0.005804
957.669138	0.006962
957.845434	0.006538
958.021712	0.005622
958.197971	0.005276
958.374212	0.006736
958.550435	0.006697
958.726640	0.007758
958.902826	0.008230
959.078995	0.007933
959.255145	0.008070
959.431277	0.007945
959.607390	0.008993
959.783486	0.009334
959.959563	0.009565
960.135622	0.009046
960.311662	0.008784
960.487685	0.008388
960.663689	0.009618
960.839675	0.009729
961.015643	0.010990
961.191593	0.011859
961.367524	0.012924
961.543437	0.014405
961.719332	0.015766
961.895209	0.016660
962.071067	0.016889
962.246907	0.016388
962.422730	0.016926
962.598533	0.017485
962.774319	0.017393
962.950086	0.016560
963.125835	0.016606
963.301566	0.017064
963.477279	0.017811
963.652973	0.018660
963.828650	0.018981
964.004308	0.018350
964.179947	0.016142
964.355569	0.016976
964.531172	0.019232
964.706757	0.018090
964.882324	0.018819
965.057873	0.019757
965.233403	0.020889
965.408916	0.020321
965.584410	0.021250
965.759885	0.023378
965.935343	0.023511
966.110782	0.021715
966.286203	0.023019
966.461606	0.021095
966.636991	0.020518
966.812357	0.020807
966.987705	0.022099
967.163035	0.022811
967.338347	0.023006
967.513641	0.022259
967.688916	0.023101
967.864173	0.023707
968.039412	0.025018
968.214632	0.026096
968.389835	0.026008
968.565019	0.025635
968.740185	0.025878
968.915333	0.026933
969.090462	0.028613
969.265573	0.028009
969.440667	0.028357
969.615741	0.029576
969.790798	0.028841
969.965836	0.028730
970.140856	0.029525
970.315858	0.027903
970.490842	0.025723
970.665808	0.024914
970.840755	0.024959
971.015684	0.025020
971.190595	0.024008
971.365487	0.023678
971.540362	0.024273
971.715218	0.024801
971.890056	0.027021
972.064875	0.028011
972.239677	0.028090
972.414460	0.028524
972.589225	0.027996
972.763972	0.028927
972.938700	0.029849
973.113411	0.027576
973.288103	0.025845
973.462777	0.023290
973.637432	0.022367
973.812070	0.023587
973.986689	0.023739
974.161290	0.022985
974.335873	0.021614
974.510437	0.021318
974.684984	0.023433
974.859512	0.024239
975.034022	0.024761
975.208513	0.025560
975.382987	0.023125
975.557442	0.023453
975.731879	0.025715
975.906298	0.027239
976.080698	0.026654
976.255080	0.026839
976.429445	0.026076
976.603790	0.025882
976.778118	0.028142
976.952427	0.029255
977.126719	0.030122
977.300992	0.028719
977.475246	0.030478
977.649483	0.031853
977.823701	0.030991
977.997901	0.033320
978.172083	0.035089
978.346247	0.032236
978.520392	0.031933
978.694519	0.031151
978.868628	0.029839
979.042719	0.028354
979.216791	0.027839
979.390845	0.027827
979.564882	0.025479
979.738899	0.027956
979.912899	0.027971
980.086880	0.028006
980.260843	0.030515
980.434788	0.031051
980.608715	0.029777
980.782623	0.029978
980.956514	0.030588
981.130386	0.031897
981.304240	0.029704
981.478075	0.029387
981.651892	0.029446
981.825692	0.026415
981.999472	0.027211
982.173235	0.029822
982.346980	0.029186
982.520706	0.030073
982.694414	0.030322
982.868104	0.029837
983.041775	0.031675
983.215428	0.033670
983.389064	0.034570
983.562680	0.034107
983.736279	0.032518
983.909860	0.032817
984.083422	0.030988
984.256966	0.031694
984.430491	0.031495
984.603999	0.031880
984.777488	0.030180
984.950959	0.029233
985.124412	0.029087
985.297847	0.029561
985.471263	0.029964
985.644661	0.032496
985.818041	0.031126
985.991403	0.030959
986.164747	0.029334
986.338072	0.029123
986.511379	0.028075
986.684668	0.028285
986.857938	0.027993
987.031191	0.028471
987.204425	0.026214
987.377641	0.027645
987.550839	0.029387
987.724018	0.030743
987.897179	0.031718
988.070322	0.032019
988.243447	0.032014
988.416554	0.031757
988.589642	0.030520
988.762712	0.030946
988.935764	0.030920
989.108798	0.029313
989.281813	0.027755
989.454811	0.028940
989.627790	0.030313
989.800751	0.030011
989.973693	0.030541
990.146617	0.030908
990.319524	0.031244
990.492412	0.030372
990.665281	0.031384
990.838133	0.031484
991.010966	0.030892
991.183781	0.029911
991.356578	0.030874
991.529356	0.031722
991.702117	0.032143
991.874859	0.031723
992.047583	0.031359
992.220288	0.029571
992.392976	0.030595
992.565645	0.030043
992.738296	0.031546
992.910929	0.031642
993.083543	0.031160
993.256139	0.032004
993.428718	0.031154
993.601277	0.031839
993.773819	0.032726
993.946342	0.032263
994.118848	0.031552
994.291335	0.030998
994.463803	0.030263
994.636254	0.030642
994.808686	0.029532
994.981100	0.031517
995.153496	0.032104
995.325874	0.031746
995.498233	0.031751
995.670574	0.031043
995.842897	0.030613
996.015202	0.030408
996.187488	0.028347
996.359757	0.028392
996.532007	0.026834
996.704239	0.026563
996.876452	0.026220
997.048648	0.026980
997.220825	0.028388
997.392984	0.029542
997.565124	0.030425
997.737247	0.031831
997.909351	0.031960
998.081437	0.032296
998.253505	0.032656
998.425554	0.032262
998.597586	0.031897
998.769599	0.032959
998.941594	0.031432
999.113571	0.031364
999.285529	0.031586
999.457469	0.031227
999.629391	0.031468
999.801295	0.029560
999.973181	0.029441
1000.145048	0.028668
1000.316897	0.025856
1000.488728	0.026805
1000.660541	0.025403
1000.832335	0.024199
1001.004111	0.024890
1001.175869	0.024294
1001.347609	0.023885
1001.519331	0.024406
1001.691034	0.024867
1001.862719	0.025329
1002.034386	0.024349
1002.206035	0.025984
1002.377665	0.027258
1002.549277	0.026225
1002.720871	0.026606
1002.892447	0.026683
1003.064004	0.026919
1003.235544	0.027960
1003.407065	0.027555
1003.578568	0.029005
1003.750052	0.030142
1003.921519	0.030173
1004.092967	0.031536
1004.264397	0.032195
1004.435809	0.033073
1004.607202	0.032794
1004.778577	0.031064
1004.949934	0.032458
1005.121273	0.030479
1005.292594	0.028816
1005.463896	0.027656
1005.635180	0.026921
1005.806446	0.026664
1005.977694	0.027316
1006.148923	0.029151
1006.320135	0.029889
1006.491328	0.029637
1006.662503	0.031732
1006.833659	0.030595
1007.004798	0.031249
1007.175918	0.031656
1007.347020	0.031649
1007.518103	0.031502
1007.689169	0.030401
1007.860216	0.029860
1008.031245	0.028633
1008.202256	0.028168
1008.373248	0.028689
1008.544223	0.027655
1008.715179	0.025878
1008.886117	0.026604
1009.057036	0.026039
1009.227938	0.026014
1009.398821	0.025185
1009.569686	0.026470
1009.740533	0.025472
1009.911361	0.025886
1010.082172	0.026255
1010.252964	0.026869
1010.423738	0.026566
1010.594493	0.026253
1010.765231	0.025497
1010.935950	0.026859
1011.106651	0.027509
1011.277334	0.028874
1011.447998	0.028015
1011.618645	0.028709
1011.789273	0.030024
1011.959882	0.028265
1012.130474	0.029502
1012.301048	0.029860
1012.471603	0.028553
1012.642140	0.027642
1012.812658	0.026943
1012.983159	0.027464
1013.153641	0.027628
1013.324105	0.027396
1013.494551	0.027156
1013.664979	0.026338
1013.835388	0.025455
1014.005779	0.026461
1014.176152	0.024966
1014.346507	0.024244
1014.516843	0.024377
1014.687162	0.024719
1014.857462	0.023568
1015.027744	0.025053
1015.198007	0.025534
1015.368252	0.024948
1015.538480	0.025128
1015.708689	0.025065
1015.878879	0.024952
1016.049052	0.026311
1016.219206	0.025541
1016.389342	0.026135
1016.559460	0.026256
1016.729559	0.025560
1016.899641	0.026723
1017.069704	0.027034
1017.239749	0.029338
1017.409775	0.029836
1017.579784	0.028751
1017.749774	0.029402
1017.919746	0.029486
1018.089700	0.029680
1018.259635	0.029056
1018.429553	0.028714
1018.599452	0.027492
1018.769333	0.026812
1018.939195	0.027007
1019.109040	0.025577
1019.278866	0.024014
1019.448674	0.023791
1019.618464	0.024180
1019.788235	0.023886
1019.957989	0.024642
1020.127724	0.025884
1020.297441	0.024215
1020.467139	0.024030
1020.636820	0.025212
1020.806482	0.026138
1020.976126	0.026489
1021.145752	0.026485
1021.315359	0.027083
1021.484948	0.027304
1021.654519	0.027053
1021.824072	0.028206
1021.993607	0.028547
1022.163123	0.029263
1022.332621	0.028802
1022.502101	0.028408
1022.671563	0.028040
1022.841007	0.029596
1023.010432	0.028878
1023.179839	0.028348
1023.349228	0.027921
1023.518598	0.027677
1023.687951	0.026820
1023.857285	0.026755
1024.026601	0.026777
1024.195899	0.025886
1024.365178	0.024696
1024.534439	0.023991
1024.703682	0.024079
1024.872907	0.023888
1025.042114	0.024918
1025.211302	0.024714
1025.380472	0.025447
1025.549624	0.024066
1025.718758	0.025633
1025.887873	0.024637
1026.056970	0.024527
1026.226049	0.023842
1026.395110	0.024507
1026.564153	0.024404
1026.733177	0.025710
1026.902183	0.025445
1027.071171	0.028339
1027.240141	0.027404
1027.409092	0.027920
1027.578026	0.028953
1027.746940	0.029439
1027.915837	0.030403
1028.084716	0.028017
1028.253576	0.026880
1028.422418	0.026376
1028.591242	0.024584
1028.760048	0.023588
1028.928835	0.022394
1029.097604	0.022908
1029.266355	0.022875
1029.435088	0.022290
1029.603803	0.022942
1029.772499	0.021967
1029.941177	0.022152
1030.109837	0.022031
1030.278478	0.022401
1030.447102	0.023899
1030.615707	0.022563
1030.784294	0.022910
1030.952863	0.022702
1031.121413	0.023765
1031.289945	0.024237
1031.458460	0.024209
1031.626955	0.024822
1031.795433	0.025028
1031.963892	0.025422
1032.132334	0.027113
1032.300756	0.026996
1032.469161	0.027233
1032.637548	0.026457
1032.805916	0.027533
1032.974266	0.026439
1033.142598	0.027969
1033.310911	0.028542
1033.479207	0.027559
1033.647484	0.027658
1033.815743	0.028023
1033.983983	0.028669
1034.152206	0.029292
1034.320410	0.028501
1034.488596	0.029811
1034.656764	0.028687
1034.824914	0.027604
1034.993045	0.027946
1035.161158	0.026318
1035.329253	0.025942
1035.497330	0.025739
1035.665388	0.026089
1035.833428	0.027076
1036.001450	0.028059
1036.169454	0.026493
1036.337440	0.027619
1036.505407	0.028028
1036.673356	0.028026
1036.841287	0.027762
1037.009200	0.027359
1037.177094	0.025857
1037.344970	0.024631
1037.512828	0.022980
1037.680668	0.022821
1037.848489	0.021669
1038.016293	0.020263
1038.184078	0.020034
1038.351845	0.020298
1038.519593	0.018770
1038.687324	0.018600
1038.855036	0.018610
1039.022730	0.020120
1039.190406	0.022395
1039.358063	0.022284
1039.525702	0.023171
1039.693323	0.024519
1039.860926	0.024364
1040.028511	0.026098
1040.196077	0.027079
1040.363625	0.026735
1040.531155	0.024417
1040.698667	0.023287
1040.866161	0.023020
1041.033636	0.023683
1041.201093	0.022929
1041.368532	0.023496
1041.535952	0.023376
1041.703355	0.024309
1041.870739	0.026569
1042.038105	0.027974
1042.205452	0.028344
1042.372782	0.027769
1042.540093	0.026867
1042.707386	0.025349
1042.874661	0.024679
1043.041918	0.024033
1043.209156	0.022247
1043.376376	0.019967
1043.543578	0.019321
1043.710762	0.018781
1043.877927	0.018341
1044.045074	0.018696
1044.212203	0.021007
1044.379314	0.021163
1044.546407	0.020694
1044.713481	0.021504
1044.880537	0.022767
1045.047575	0.021841
1045.214595	0.022987
1045.381596	0.024557
1045.548579	0.023945
1045.715544	0.022038
1045.882491	0.022771
1046.049420	0.023940
1046.216330	0.023006
1046.383222	0.022272
1046.550096	0.022600
1046.716951	0.020332
1046.883789	0.020378
1047.050608	0.020372
1047.217409	0.020806
1047.384192	0.021311
1047.550956	0.021227
1047.717703	0.022007
1047.884431	0.022712
1048.051140	0.024153
1048.217832	0.025338
1048.384505	0.025525
1048.551161	0.026319
1048.717798	0.026966
1048.884416	0.025910
1049.051017	0.026589
1049.217599	0.025837
1049.384163	0.025904
1049.550709	0.025644
1049.717237	0.025453
1049.883746	0.025304
1050.050237	0.025044
1050.216710	0.026352
1050.383165	0.024865
1050.549601	0.023258
1050.716019	0.023092
1050.882420	0.023672
1051.048801	0.023575
1051.215165	0.023143
1051.381510	0.023599
1051.547837	0.024012
1051.714146	0.022027
1051.880437	0.023453
1052.046709	0.022074
1052.212964	0.023533
1052.379200	0.020877
1052.545417	0.021718
1052.711617	0.024280
1052.877798	0.023247
1053.043961	0.021970
1053.210106	0.023794
1053.376233	0.022132
1053.542341	0.023059
1053.708432	0.023964
1053.874504	0.024365
1054.040557	0.022983
1054.206593	0.020856
1054.372610	0.020447
1054.538609	0.021350
1054.704590	0.019693
1054.870553	0.020898
1055.036497	0.021313
1055.202424	0.019934
1055.368331	0.020915
1055.534221	0.021713
1055.700093	0.020724
1055.865946	0.022526
1056.031781	0.022519
1056.197598	0.024263
1056.363397	0.022623
1056.529177	0.024586
1056.694939	0.024618
1056.860683	0.024424
1057.026409	0.023515
1057.192116	0.023685
1057.357806	0.023572
1057.523477	0.023978
1057.689130	0.024103
1057.854764	0.026172
1058.020381	0.024985
1058.185979	0.024880
1058.351559	0.025776
1058.517120	0.024666
1058.682664	0.026292
1058.848189	0.025264
1059.013696	0.025475
1059.179185	0.023597
1059.344656	0.024191
1059.510108	0.023376
1059.675542	0.022788
1059.840958	0.022815
1060.006356	0.025632
1060.171735	0.023371
1060.337096	0.024128
1060.502439	0.023242
1060.667764	0.024227
1060.833071	0.023206
1060.998359	0.022988
1061.163629	0.022551
1061.328881	0.022292
1061.494115	0.020414
1061.659330	0.020772
1061.824527	0.020228
1061.989706	0.019672
1062.154867	0.019127
1062.320010	0.018866
1062.485134	0.018772
1062.650240	0.019713
1062.815328	0.018822
1062.980398	0.019745
1063.145449	0.020283
1063.310482	0.021304
1063.475497	0.023307
1063.640494	0.024019
1063.805473	0.024536
1063.970433	0.024133
1064.135375	0.023225
1064.300299	0.022653
1064.465204	0.022879
1064.630092	0.024442
1064.794961	0.024781
1064.959812	0.024114
1065.124645	0.024046
1065.289459	0.022961
1065.454256	0.022866
1065.619034	0.023113
1065.783793	0.023332
1065.948535	0.023733
1066.113258	0.023018
1066.277964	0.023180
1066.442651	0.022004
1066.607319	0.020407
1066.771970	0.020668
1066.936602	0.022337
1067.101216	0.023576
1067.265812	0.023342
1067.430389	0.022007
1067.594949	0.022004
1067.759490	0.017084
1067.924013	0.016350
1068.088518	0.017999
1068.253004	0.021455
1068.417472	0.022791
1068.581922	0.022696
1068.746354	0.021483
1068.910768	0.020877
1069.075163	0.020389
1069.239540	0.023916
1069.403899	0.024347
1069.568240	0.024838
1069.732562	0.023658
1069.896866	0.021574
1070.061152	0.019232
1070.225420	0.020287
1070.389670	0.021038
1070.553901	0.020110
1070.718114	0.020118
1070.882309	0.020211
1071.046486	0.017776
1071.210644	0.016176
1071.374784	0.017760
1071.538906	0.020538
1071.703010	0.022130
1071.867096	0.023352
1072.031163	0.024992
1072.195212	0.026181
1072.359243	0.026643
1072.523256	0.028587
1072.687250	0.029278
1072.851226	0.027484
1073.015184	0.024907
1073.179124	0.024572
1073.343045	0.023269
1073.506949	0.023937
1073.670834	0.021786
1073.834701	0.023350
1073.998549	0.022507
1074.162380	0.020815
1074.326192	0.021191
1074.489986	0.022150
1074.653761	0.024361
1074.817519	0.023123
1074.981258	0.022454
1075.144979	0.019809
1075.308682	0.019467
1075.472367	0.020842
1075.636033	0.021907
1075.799681	0.021432
1075.963311	0.022223
1076.126923	0.018960
1076.290516	0.019103
1076.454092	0.017283
1076.617649	0.021298
1076.781187	0.023389
1076.944708	0.022253
1077.108210	0.024126
1077.271695	0.025681
1077.435160	0.026973
1077.598608	0.027955
1077.762038	0.029984
1077.925449	0.030645
1078.088842	0.029636
1078.252217	0.024395
1078.415573	0.025211
1078.578912	0.020828
1078.742232	0.019056
1078.905534	0.017439
1079.068817	0.018200
1079.232083	0.017394
1079.395330	0.015964
1079.558559	0.016610
1079.721770	0.018729
1079.884962	0.016525
1080.048136	0.017340
1080.211293	0.016367
1080.374430	0.018326
1080.537550	0.017079
1080.700651	0.016291
1080.863735	0.017491
1081.026800	0.015225
1081.189846	0.016170
1081.352875	0.016312
1081.515885	0.018535
1081.678877	0.020710
1081.841851	0.017679
1082.004807	0.016339
1082.167744	0.017546
1082.330663	0.016377
1082.493564	0.017494
1082.656447	0.017882
1082.819312	0.019060
1082.982158	0.016813
1083.144986	0.016163
1083.307796	0.017001
1083.470587	0.017676
1083.633361	0.019087
1083.796116	0.021585
1083.958853	0.021874
1084.121571	0.021510
1084.284272	0.021678
1084.446954	0.022632
1084.609618	0.021982
1084.772264	0.022321
1084.934892	0.022429
1085.097501	0.020120
1085.260092	0.020000
1085.422665	0.022562
1085.585220	0.020754
1085.747756	0.020852
1085.910274	0.019960
1086.072774	0.017602
1086.235256	0.018641
1086.397720	0.019353
1086.560165	0.019668
1086.722592	0.020408
1086.885001	0.017593
1087.047392	0.017864
1087.209764	0.018672
1087.372119	0.020252
1087.534455	0.024467
1087.696772	0.021465
1087.859072	0.020535
1088.021353	0.019636
1088.183616	0.015123
1088.345861	0.016431
1088.508088	0.017424
1088.670296	0.016694
1088.832486	0.018348
1088.994658	0.016020
1089.156812	0.017029
1089.318948	0.019013
1089.481065	0.019777
1089.643164	0.022976
1089.805245	0.022507
1089.967308	0.022064
1090.129352	0.021889
1090.291378	0.020638
1090.453386	0.022404
1090.615376	0.022666
1090.777347	0.021433
1090.939301	0.020680
1091.101236	0.021169
1091.263153	0.020860
1091.425051	0.019238
1091.586932	0.019015
1091.748794	0.016540
1091.910638	0.016825
1092.072463	0.017783
1092.234271	0.020369
1092.396060	0.018590
1092.557831	0.016664
1092.719584	0.015743
1092.881319	0.015422
1093.043035	0.014355
1093.204733	0.016117
1093.366413	0.014710
1093.528075	0.014631
1093.689718	0.011970
1093.851343	0.014460
1094.012950	0.014583
1094.174539	0.012819
1094.336110	0.016689
1094.497662	0.018160
1094.659196	0.017826
1094.820712	0.014768
1094.982210	0.014587
1095.143689	0.013173
1095.305151	0.012082
1095.466594	0.012499
1095.628018	0.015398
1095.789425	0.013375
1095.950813	0.010187
1096.112183	0.011942
1096.273535	0.016889
1096.434869	0.015090
1096.596184	0.016676
1096.757482	0.016479
1096.918761	0.015712
1097.080021	0.015320
1097.241264	0.014834
1097.402488	0.014613
1097.563694	0.014494
1097.724882	0.014928
1097.886052	0.016459
1098.047203	0.014259
1098.208336	0.019951
1098.369451	0.022000
1098.530548	0.018907
1098.691627	0.019281
1098.852687	0.021716
1099.013729	0.020771
1099.174753	0.019471
1099.335758	0.018501
1099.496746	0.022659
1099.657715	0.020017
1099.818666	0.020899
1099.979599	0.020997
1100.140513	0.023003
1100.301409	0.024465
1100.462287	0.023021
1100.623147	0.021182
1100.783989	0.021604
1100.944812	0.019190
1101.105617	0.014643
1101.266404	0.013080
1101.427173	0.014522
1101.587923	0.013386
1101.748656	0.012722
1101.909370	0.013952
1102.070066	0.014656
1102.230743	0.018986
1102.391403	0.019536
1102.552044	0.021289
1102.712667	0.022012
1102.873271	0.023390
1103.033858	0.020990
1103.194426	0.020936
1103.354976	0.019441
1103.515508	0.018824
1103.676021	0.014978
1103.836517	0.012499
1103.996994	0.014188
1104.157453	0.012317
1104.317893	0.014546
1104.478316	0.016978
1104.638720	0.014788
1104.799106	0.013478
1104.959474	0.014484
1105.119823	0.014409
1105.280155	0.015813
1105.440468	0.014891
1105.600763	0.018612
1105.761039	0.018000
1105.921298	0.016435
1106.081538	0.017556
1106.241760	0.021202
1106.401964	0.020351
1106.562149	0.018449
1106.722316	0.016953
1106.882465	0.015807
1107.042596	0.012971
1107.202709	0.012207
1107.362803	0.014396
1107.522879	0.016040
1107.682937	0.013837
1107.842977	0.012976
1108.002999	0.014070
1108.163002	0.016112
1108.322987	0.017628
1108.482954	0.017503
1108.642902	0.019007
1108.802833	0.018432
1108.962745	0.017141
1109.122639	0.018113
1109.282515	0.019979
1109.442372	0.020414
1109.602211	0.023557
1109.762032	0.022849
1109.921835	0.023530
1110.081620	0.020383
1110.241386	0.018450
1110.401134	0.017562
1110.560864	0.018619
1110.720576	0.015081
1110.880269	0.013947
1111.039945	0.009479
1111.199602	0.005833
1111.359240	0.003046
1111.518861	0.003747
1111.678463	0.001405
1111.838047	0.003329
1111.997613	0.004766
1112.157161	0.007770
1112.316690	0.010171
1112.476202	0.009613
1112.635695	0.015936
1112.795169	0.018000
1112.954626	0.019397
1113.114064	0.020013
1113.273484	0.022494
1113.432886	0.017594
1113.592270	0.016747
1113.751635	0.018761
1113.910983	0.020019
1114.070312	0.015388
1114.229622	0.018157
1114.388915	0.016637
1114.548189	0.018723
1114.707445	0.016835
1114.866683	0.017953
1115.025903	0.015189
1115.185104	0.011656
1115.344287	0.008953
1115.503452	0.011360
1115.662599	0.008880
1115.821727	0.008804
1115.980838	0.010181
1116.139930	0.006653
1116.299004	0.005211
1116.458059	0.007177
1116.617097	0.007385
1116.776116	0.010519
1116.935117	0.011081
1117.094099	0.010620
1117.253064	0.011333
1117.412010	0.008054
1117.570938	0.010319
1117.729848	0.015823
1117.888740	0.018009
1118.047613	0.017030
1118.206468	0.018925
1118.365305	0.015929
1118.524124	0.015560
1118.682924	0.015353
1118.841707	0.016344
1119.000471	0.016432
1119.159216	0.011378
1119.317944	0.010834
1119.476653	0.013745
1119.635344	0.010681
1119.794017	0.013226
1119.952672	0.012091
1120.111308	0.012216
1120.269927	0.012126
1120.428527	0.009366
1120.587108	0.010970
1120.745672	0.011196
1120.904217	0.012089
1121.062744	0.014333
1121.221253	0.016647
1121.379744	0.018294
1121.538216	0.016661
1121.696671	0.016181
1121.855107	0.018640
1122.013524	0.014254
1122.171924	0.014993
1122.330305	0.016903
1122.488668	0.013939
1122.647013	0.012353
1122.805340	0.014626
1122.963648	0.013460
1123.121938	0.019621
1123.280210	0.020061
1123.438464	0.020548
1123.596700	0.018497
1123.754917	0.014402
1123.913116	0.014246
1124.071297	0.009117
1124.229459	0.007184
1124.387604	0.013827
1124.545730	0.010187
1124.703838	0.009246
1124.861928	0.015130
1125.019999	0.019033
1125.178052	0.017511
1125.336088	0.023348
1125.494104	0.027187
1125.652103	0.025095
1125.810083	0.020545
1125.968045	0.022333
1126.125989	0.024557
1126.283915	0.017990
1126.441823	0.015723
1126.599712	0.016364
1126.757583	0.011699
1126.915436	0.009887
1127.073270	0.008842
1127.231087	0.003472
1127.388885	-0.001060
1127.546665	-0.001673
1127.704426	0.001753
1127.862170	0.004276
1128.019895	0.004693
1128.177602	0.002587
1128.335291	0.006263
1128.492961	0.006271
1128.650614	0.007824
1128.808248	0.005639
1128.965864	0.006393
1129.123461	0.008816
1129.281041	0.002377
1129.438602	0.004358
1129.596145	0.002883
1129.753670	0.000347
1129.911176	0.002377
1130.068665	0.005667
1130.226135	0.007180
1130.383587	0.003571
1130.541020	0.003289
1130.698436	0.004251
1130.855833	0.002514
1131.013212	0.010155
1131.170573	0.009762
1131.327915	0.008789
1131.485239	0.009815
1131.642545	0.012125
1131.799833	0.012188
1131.957103	0.008361
1132.114354	0.010918
1132.271588	0.014716
1132.428803	0.014521
1132.585999	0.018779
1132.743178	0.017310
1132.900338	0.010683
1133.057480	0.012859
1133.214604	0.014174
1133.371710	0.014538
1133.528797	0.012085
1133.685866	0.005673
1133.842917	0.003466
1133.999950	-0.001446
1134.156964	0.003498
1134.313960	0.013182
1134.470938	0.014362
1134.627898	0.009849
1134.784840	0.010756
1134.941763	0.011218
1135.098668	0.010681
1135.255555	0.007024
1135.412424	0.009488
1135.569274	0.009045
1135.726107	0.002428
1135.882921	-0.000807
1136.039716	0.001969
1136.196494	0.002718
1136.353253	0.001277
1136.509995	0.003788
1136.666717	0.008497
1136.823422	0.009701
1136.980109	0.006435
1137.136777	0.007269
1137.293427	0.005666
1137.450059	0.010506
1137.606672	0.009073
1137.763267	0.015836
1137.919844	0.018749
1138.076403	0.019418
1138.232944	0.016474
1138.389466	0.017690
1138.545971	0.020920
1138.702457	0.023039
1138.858924	0.027100
1139.015374	0.031088
1139.171805	0.023671
1139.328218	0.019873
1139.484613	0.009981
1139.640990	0.010047
1139.797348	0.011176
1139.953688	0.008549
1140.110010	0.006777
1140.266314	0.001637
1140.422600	-0.001896
1140.578867	0.002097
1140.735116	0.001967
1140.891347	0.006155
1141.047559	0.008123
1141.203754	0.003746
1141.359930	0.004106
1141.516088	0.004165
1141.672228	0.003897
1141.828349	0.007061
1141.984452	0.010210
1142.140537	0.010273
1142.296604	0.007945
1142.452653	0.007737
1142.608683	0.012990
1142.764695	0.012837
1142.920689	0.008386
1143.076665	0.008723
1143.232622	0.007670
1143.388562	0.001123
1143.544483	0.003665
1143.700385	0.005696
1143.856270	0.004965
1144.012136	0.002451
1144.167985	0.001603
1144.323814	0.007257
1144.479626	0.007485
1144.635420	0.008918
1144.791195	0.009908
1144.946952	0.008480
1145.102691	0.014505
1145.258411	0.007364
1145.414113	0.009687
1145.569798	0.008378
1145.725463	0.007565
1145.881111	0.005909
1146.036741	0.001247
1146.192352	0.004664
1146.347945	0.000524
1146.503519	-0.006397
1146.659076	-0.001998
1146.814614	-0.009457
1146.970134	-0.008237
1147.125636	-0.006013
1147.281120	-0.008329
1147.436585	-0.006901
1147.592032	-0.010880
1147.747461	-0.007694
1147.902872	-0.007793
1148.058265	-0.007881
1148.213639	-0.005971
1148.368995	-0.004095
1148.524333	-0.009994
1148.679653	-0.016098
1148.834954	-0.011556
1148.990237	-0.012040
1149.145502	-0.012537
1149.300749	-0.006335
1149.455977	-0.002030
1149.611188	0.000146
1149.766380	0.000614
1149.921553	0.010151
1150.076709	0.023538
1150.231846	0.020059
1150.386966	0.023665
1150.542066	0.029834
1150.697149	0.028190
1150.852214	0.023333
1151.007260	0.022391
1151.162288	0.018585
1151.317298	0.014996
1151.472289	0.008101
1151.627263	0.004381
1151.782218	0.001359
1151.937155	-0.009153
1152.092073	-0.013579
1152.246974	-0.016079
1152.401856	-0.015286
1152.556720	-0.013781
1152.711566	-0.015368
1152.866393	-0.010452
1153.021203	-0.010495
1153.175994	-0.017418
1153.330767	-0.014062
1153.485521	-0.014098
1153.640258	-0.009036
1153.794976	-0.007718
1153.949676	-0.010565
1154.104358	-0.006870
1154.259021	-0.012544
1154.413667	-0.008187
1154.568294	0.003985
1154.722903	0.010093
1154.877493	0.020039
1155.032066	0.018852
1155.186620	0.014270
1155.341156	0.022321
1155.495674	0.023908
1155.650173	0.021507
1155.804654	0.013963
1155.959118	0.014884
1156.113562	0.016549
1156.267989	0.005260
1156.422397	-0.002791
1156.576788	0.005967
1156.731160	-0.005638
1156.885513	-0.014422
1157.039849	-0.010951
1157.194166	-0.002543
1157.348465	-0.009702
1157.502746	-0.013236
1157.657009	-0.002672
1157.811253	0.001053
1157.965479	-0.004060
1158.119687	0.004077
1158.273877	0.007167
1158.428048	0.008457
1158.582201	0.010924
1158.736337	0.017215
1158.890453	0.015779
1159.044552	0.005904
1159.198632	0.011364
1159.352694	0.012107
1159.506738	0.014023
1159.660764	0.006736
1159.814771	0.004981
1159.968761	-0.002281
1160.122732	0.001057
1160.276685	-0.002083
1160.430619	0.006132
1160.584535	0.013574
1160.738434	0.009165
1160.892313	0.008625
1161.046175	0.025819
1161.200019	0.027152
1161.353844	0.030102
1161.507651	0.026620
1161.661440	0.037498
1161.815210	0.030546
1161.968962	0.017466
1162.122697	0.013794
1162.276412	0.004117
1162.430110	-0.000169
1162.583789	-0.008607
1162.737451	-0.009477
1162.891094	-0.008683
1163.044718	-0.018026
1163.198325	-0.013281
1163.351913	-0.006712
1163.505483	-0.000006
1163.659035	0.009321
1163.812569	-0.002321
1163.966084	0.010874
1164.119581	0.010335
1164.273060	0.005842
1164.426521	0.002108
1164.579964	-0.000818
1164.733388	0.003242
1164.886794	0.014889
1165.040182	0.006576
1165.193551	0.012635
1165.346903	0.003302
1165.500236	0.007710
1165.653551	0.007385
1165.806848	0.023106
1165.960126	0.020110
1166.113386	0.015972
1166.266628	0.013041
1166.419852	0.028033
1166.573058	0.034517
1166.726245	0.039148
1166.879414	0.039542
1167.032565	0.039979
1167.185698	0.027260
1167.338812	0.033958
1167.491909	0.023440
1167.644987	0.014851
1167.798046	-0.005648
1167.951088	-0.009219
1168.104111	-0.010139
1168.257117	-0.010956
1168.410103	-0.009994
1168.563072	-0.008959
1168.716023	-0.011051
1168.868955	-0.004474
1169.021869	-0.002755
1169.174765	0.016124
1169.327642	0.012701
1169.480501	-0.001314
1169.633343	-0.008864
1169.786165	-0.007066
1169.938970	-0.009738
1170.091757	-0.008434
1170.244525	-0.002810
1170.397275	-0.010952
1170.550007	-0.018263
1170.702720	-0.014688
1170.855415	0.000054
1171.008092	0.002793
1171.160751	-0.002947
1171.313392	-0.001043
1171.466014	0.013000
1171.618619	-0.013868
1171.771205	-0.013868
1171.923772	-0.013868
