sample name	sample
index	538
start time	 03-15-2021  10:30:15 AM
880	0.000582
Peak Time (s)	92.036
Peak Height 	5.8221E-4
calc peak height	90,93
Baseline Time (s)	10.036
Baseline Value 	-0.001469
subtract baseline	10,4
Abs	0.000226
Peak Time (s)	90.541
Peak Height 	2.2587E-4
calc peak height	90,93
Baseline Time (s)	11.536
Baseline Value 	7.8331E-4
subtract baseline	10,3
PK_550	0.001501
Peak Time (s)	92.536
Peak Height 	0.001501
calc peak height	90,93
Baseline Time (s)	10.535
Baseline Value 	9.2097E-4
subtract baseline	10,2
PK_880	-0.003786
Peak Time (s)	92.536
Peak Height 	-0.003786
calc peak height	90,93
Baseline Time (s)	10.036
Baseline Value 	2.9533E-4
subtract baseline	10,1


Time (s)	A880-A510	A880-A775	A880-A975	A880	I510	I775	I975	I880	
0.035000	-0.002217	-0.000568	-0.009036	0.006660	6044.936699	40378.644345	3640.314837	21216.514650
0.535500	-0.002517	-0.000470	-0.001575	0.004466	6059.569061	40577.955055	3661.891265	21310.308995
1.038000	-0.002712	-0.001291	-0.002475	0.003285	6067.216996	40609.334375	3662.526883	21361.004779
1.536000	-0.000822	0.000688	0.000418	0.004988	6068.672074	40633.503720	3665.222491	21287.972443
2.036000	-0.000696	-0.000579	0.001233	0.000205	6107.024990	40941.768386	3677.997276	21493.870522
2.536000	-0.000960	-0.000162	-0.003604	-0.000333	6109.174159	41025.893172	3668.171519	21517.176810
3.036500	0.000225	0.000174	0.001734	-0.000887	6122.878285	41104.531695	3681.663000	21541.213399
3.540000	-0.000987	-0.000201	0.000072	0.004986	6067.402722	40556.043270	3664.441640	21288.031191
4.037500	-0.000397	-0.000240	0.005275	0.000385	6107.961033	40955.787847	3686.909051	21486.087882
4.540500	-0.000540	-0.000667	0.000886	0.000397	6106.738421	40917.137813	3676.760003	21485.566857
5.035500	-0.000576	-0.000505	0.000750	0.000195	6108.043743	40949.122247	3676.912293	21494.303896
5.538000	-0.001426	-0.000623	0.003325	0.000642	6097.867035	40899.502891	3681.806804	21474.989753
6.035500	0.000187	-0.000012	0.002822	0.000618	6110.718964	40955.293751	3680.702730	21476.020467
6.536000	-0.000763	0.000111	0.000265	0.001081	6099.625136	40925.352203	3673.771606	21456.003883
7.036000	0.000901	-0.000608	-0.001596	0.000049	6120.823190	40952.948611	3671.878711	21500.639717
7.536500	-0.001771	0.000179	0.002368	0.000727	6094.500738	40962.522093	3679.405948	21471.281896
8.037000	-0.001106	0.000054	-0.000276	0.000748	6099.549343	40949.721794	3673.296919	21470.410519
8.537000	-0.000761	-0.000265	0.001569	-0.000079	6108.739661	40994.412941	3679.423076	21506.172326
9.037000	-0.000574	-0.000666	0.001906	-0.000186	6111.050988	40968.532665	3680.444575	21510.803029
9.535000	0.000986	0.000450	0.001820	0.000628	6116.928025	40995.134895	3678.374000	21475.567303
10.035500	0.000000	0.000083	-0.002145	0.000000	6114.109717	41018.160902	3670.735872	21502.758595
10.535000	-0.000008	0.000000	-0.000039	0.000032	6113.793800	41008.018947	3675.476665	21501.377924
11.036000	0.000726	-0.000477	-0.004629	-0.000195	6121.362384	40985.976314	3665.529636	21511.190288
11.536000	0.000716	0.000714	0.000000	0.000194	6118.213979	41056.714274	3675.194238	21494.336891
12.036000	-0.000956	-0.000701	0.001732	-0.000333	6109.213290	40978.402432	3680.382141	21517.191642
12.536500	0.000020	-0.000118	0.000883	0.000410	6111.045455	40964.333825	3676.724164	21485.018575
13.037000	0.003324	0.000567	0.007680	-0.001588	6152.995207	41201.316118	3697.104096	21571.650150
13.537000	0.000387	0.000329	0.008290	-0.001250	6127.020245	41150.335435	3697.742951	21556.985636
14.043000	-0.003987	-0.000900	0.000501	0.004149	6050.650589	40568.130972	3667.315909	21323.915185
14.540000	-0.003985	-0.000128	0.003407	0.002495	6063.471983	40780.181281	3677.732443	21395.009663
15.038500	0.003144	-0.000117	0.001007	-0.000514	6143.028682	41045.852892	3679.130735	21525.043318
15.536000	0.000700	0.000024	0.002027	-0.001270	6129.651887	41125.055622	3683.223360	21557.831894
16.038500	-0.002818	-0.000664	0.000589	0.003737	6062.891681	40624.684638	3668.452740	21341.616313
16.537000	0.001757	-0.000406	0.004505	-0.001946	6143.380421	41146.834947	3690.531276	21587.214377
17.036000	0.000803	0.000161	-0.001304	-0.001240	6130.234363	41134.575307	3675.493637	21556.547359
17.537500	-0.001872	-0.000130	-0.003137	0.003863	6069.261172	40660.284168	3659.727821	21336.202912
18.037000	-0.002185	-0.000876	-0.000337	0.000882	6090.045331	40856.113083	3672.850412	21464.589888
18.537500	-0.001711	-0.000145	0.003174	0.000612	6095.868858	40944.050024	3681.527012	21476.253323
19.037500	-0.000863	-0.001028	-0.001774	0.000307	6104.913026	40893.299800	3670.883962	21489.470298
19.535500	0.000088	0.000097	0.000665	0.001555	6102.580799	40882.428549	3673.603083	21435.524512
20.035500	-0.001717	-0.000268	-0.000931	0.002124	6084.008359	40800.533088	3668.664694	21411.011028
20.536000	0.000157	-0.000596	0.003084	0.000672	6110.051900	40899.122688	3681.181325	21473.663799
21.036000	-0.000704	0.000489	0.009055	0.001286	6098.479947	40940.666742	3693.602471	21447.153082
21.536000	-0.001283	0.000164	0.007225	0.001025	6095.982843	40934.951705	3689.949072	21458.405582
22.037000	0.000410	-0.000126	0.002111	0.002136	6100.546307	40811.885086	3675.583648	21410.474148
22.537000	0.000005	-0.000255	-0.000424	0.001146	6105.138230	40887.521939	3672.050247	21453.199016
23.037000	-0.003310	0.000352	0.004911	0.001228	6078.569082	40933.637401	3684.115773	21449.645081
23.540500	-0.000593	0.000373	0.008139	0.001356	6098.799372	40924.245195	3691.305294	21444.125165
24.035000	-0.002636	-0.000566	0.000162	0.001761	6079.670347	40806.184734	3671.982768	21426.635294
24.543000	-0.001097	-0.000475	0.003883	0.000918	6098.281720	40888.190132	3682.455953	21463.036462
25.035500	0.000718	0.000394	0.006393	0.001741	6106.063452	40892.240729	3686.358108	21427.509108
25.535500	-0.001922	-0.000755	0.002586	0.000552	6094.694568	40895.754933	3680.311892	21478.885526
26.036500	-0.001295	0.000379	0.001807	0.002897	6081.263769	40789.403509	3673.143716	21377.695288
26.536500	-0.003126	0.000160	0.001761	0.001185	6080.341165	40920.555666	3676.960904	21451.518622
27.036500	0.000489	-0.000363	-0.000031	0.001141	6108.980181	40878.457055	3672.957395	21453.406241
27.537500	-0.002113	-0.000286	0.004784	0.000430	6094.147171	40947.707876	3685.667112	21484.150779
28.037500	-0.000586	0.000931	0.004887	0.004695	6072.787552	40680.302738	3676.078475	21300.502169
28.538000	0.000963	0.000605	0.008253	-0.000939	6129.122130	41147.237470	3696.928068	21543.490323
29.037500	0.002589	0.000597	0.005090	-0.001291	6144.789550	41177.691535	3690.369587	21558.734433
29.535500	-0.002251	0.000305	0.000822	0.003872	6066.237621	40697.546380	3668.673851	21335.793811
30.035500	0.001589	0.001687	0.007140	0.000048	6126.261380	41155.651429	3692.024537	21500.689079
30.536000	0.002764	-0.000380	0.000149	-0.001719	6149.588642	41129.129986	3679.928421	21577.355277
31.036500	0.001628	-0.000825	-0.000412	-0.001955	6142.439042	41110.621771	3679.183546	21587.642037
31.561500	-0.000039	0.000658	0.005193	0.001854	6099.239453	40905.554002	3683.321031	21422.648588
32.037000	0.000962	0.000369	0.000751	0.003614	6093.291516	40725.659698	3669.100305	21346.871065
32.538500	0.001522	-0.000036	0.001609	-0.001200	6135.603185	41113.617966	3682.097114	21554.806146
33.037500	0.001504	0.000168	0.004531	-0.001216	6135.590092	41133.074417	3688.895486	21555.485033
33.535000	-0.000912	-0.000517	-0.000412	0.001365	6096.230232	40845.217790	3671.576678	21443.738236
34.035500	0.000435	0.000763	0.006248	-0.000938	6124.928736	41161.136722	3692.242945	21543.409104
34.535500	0.000432	0.000927	0.004287	-0.001011	6125.489867	41182.184370	3687.854002	21546.604178
35.036000	0.001691	0.000272	0.008749	-0.001670	6140.665328	41182.434897	3699.802337	21575.206705
35.536000	-0.000548	0.000406	0.001558	0.003062	6085.803764	40777.264921	3672.198629	21370.594123
36.036500	0.000193	0.000294	0.006726	0.001525	6103.634484	40902.450727	3687.628828	21436.818433
36.537000	-0.001037	0.000063	0.002786	0.001736	6092.349593	40863.595998	3678.049348	21427.718951
37.037000	-0.000230	-0.000154	-0.001014	0.001201	6102.860500	40891.511927	3670.576369	21450.821444
37.537500	-0.001482	0.000579	0.006709	0.002050	6086.418405	40881.315132	3686.372241	21414.175628
38.038000	-0.002485	-0.000359	-0.001862	0.002755	6073.106681	40737.133078	3665.115576	21383.806555
38.537500	-0.001893	-0.000570	0.004422	0.001375	6088.479627	40839.670497	3682.645735	21443.305739
39.035500	-0.000250	0.000173	0.002749	0.001965	6096.713446	40853.092627	3677.437020	21417.846426
39.536000	-0.001184	0.000784	0.002895	0.002291	6086.860314	40878.108456	3677.023873	21403.787554
40.036000	0.000448	-0.000453	0.000448	0.003074	6093.491126	40701.043335	3669.638631	21370.072587
40.536000	-0.000113	0.000276	0.001873	0.001857	6098.634891	40871.727917	3675.678169	21422.518190
41.036500	-0.000876	-0.000639	0.004896	0.001343	6096.684839	40836.453347	3683.814566	21444.672875
41.537000	0.001720	0.000677	0.008235	0.002554	6107.547633	40845.668836	3688.743867	21392.459701
42.037000	-0.000266	0.000594	0.001205	0.003274	6086.349085	40775.205904	3670.910178	21361.486972
42.537000	-0.001573	-0.000151	0.003533	0.002104	6085.277959	40812.449696	3678.918179	21411.841193
43.035000	-0.001205	0.000456	0.006891	0.002073	6088.399437	40868.470063	3686.741131	21413.188143
43.535500	-0.000580	0.000096	0.001740	0.001889	6094.728808	40853.061938	3675.298295	21421.117517
44.035500	-0.001618	-0.000202	0.002142	0.002805	6079.466290	40746.598618	3674.121269	21381.667284
44.536000	0.001344	0.001856	-0.001231	0.003220	6099.369052	40890.701661	3665.490716	21363.801045
45.035500	0.000055	0.000198	0.004511	0.000391	6111.467353	40993.813468	3685.124586	21485.831173
45.536000	0.002211	0.000726	0.003585	-0.000895	6138.642397	41154.002827	3685.957509	21541.540977
46.036500	-0.001561	-0.000721	-0.001498	0.003434	6075.009894	40646.180770	3664.402719	21354.611866
46.542000	0.000041	0.000118	0.006570	-0.000568	6118.905994	41071.351226	3692.132054	21527.374507
47.040000	0.003644	0.001017	0.006400	-0.000617	6147.818189	41155.176669	3691.849180	21529.483761
47.537500	0.000364	0.000612	0.003468	0.001301	6106.735210	40950.080427	3680.617608	21446.485713
48.037500	-0.001314	0.001231	0.004605	0.004464	6068.918870	40726.788057	3675.961645	21310.402968
48.544000	0.000985	0.000700	0.003222	-0.001104	6130.595737	41170.286147	3685.601976	21550.633601
49.040000	-0.002226	-0.000249	-0.000320	0.002004	6080.966577	40812.624727	3670.328800	21416.155867
49.535500	-0.001773	0.000855	0.002768	0.004031	6068.722471	40731.784785	3672.750399	21329.000435
50.054000	-0.001016	-0.000154	0.009184	0.003779	6076.565915	40665.556050	3688.102242	21339.799321
50.537000	0.001100	0.000677	0.004209	-0.000822	6129.276185	41143.190371	3687.235064	21538.382060
51.036500	0.001487	0.000630	0.004596	-0.000600	6130.580272	41119.424008	3687.616435	21528.749037
51.537500	0.001648	0.000571	0.007382	-0.000283	6129.350743	41086.246047	3693.360084	21515.040426
52.035000	-0.001232	0.000238	0.000702	0.004289	6070.917491	40655.258582	3667.453550	21317.922103
52.535500	0.000139	0.000571	-0.000033	-0.001998	6130.974650	41238.034961	3680.152389	21589.490130
53.034500	-0.000788	-0.010706	0.004038	0.208185	4808.211079	25847.686305	3302.411035	14339.674123
53.536000	-0.008460	-0.021876	0.013001	-0.029440	6283.333172	41683.734580	3777.801973	22822.008902
54.036000	-0.007365	-0.075343	0.002333	-0.284775	9171.215245	64745.300412	4608.022962	38930.285003
54.535500	0.000422	-0.023741	0.016168	-0.131040	7322.795547	51745.041662	4077.177796	28127.420437
55.036500	-0.010471	-0.021474	0.002580	-0.126818	7164.506085	51524.815764	4021.059392	27881.368691
55.536500	-0.018749	-0.019170	-0.003488	-0.131330	7125.904694	52296.851443	4016.263377	28144.380945
56.037000	-0.011722	-0.018293	-0.007025	-0.190378	7854.022525	59633.506359	4198.396921	31851.108482
56.537000	-0.002612	-0.024345	-0.003749	-0.215866	8281.833414	62238.965036	4302.337724	33613.573914
57.037000	0.000793	-0.030163	0.000486	-0.228072	8486.298731	63120.941343	4364.912050	34494.891193
57.537500	0.000258	-0.023237	-0.003529	-0.212121	8270.574166	61878.436622	4289.224533	33348.027073
58.035500	0.000564	-0.013513	-0.002048	-0.179237	7867.645473	58805.851115	4177.003286	31112.612737
58.535500	0.001469	-0.010009	-0.002723	-0.147117	7508.907403	55228.906119	4068.159554	29086.609416
59.036000	0.000465	-0.009402	0.000872	-0.122141	7229.380321	52363.176548	4001.494721	27611.579391
59.536000	0.005400	-0.005981	-0.000093	-0.104273	7096.337985	50738.535476	3945.431470	26607.153925
60.036500	0.004842	-0.005992	-0.000840	-0.086177	6911.301603	48777.356769	3891.723992	25631.217766
60.536500	-0.000335	-0.002408	0.004748	-0.068248	6692.842033	47280.548073	3857.788112	24703.540289
61.034500	0.000992	-0.004144	-0.003518	-0.050114	6541.077401	45287.204352	3788.352017	23803.389655
61.537500	-0.002627	-0.002535	-0.001142	-0.049505	6503.823527	45385.449454	3792.869737	23773.831828
62.037500	-0.004888	-0.004704	-0.003402	-0.024999	6276.165586	42843.140407	3726.379881	22617.265167
62.534500	-0.003894	-0.004948	-0.000702	-0.001383	6094.402761	40697.721339	3677.202000	21562.766859
63.035500	-0.003963	-0.004495	-0.005838	-0.000346	6085.756331	40646.687152	3663.134564	21517.768619
63.538500	-0.006838	-0.004137	-0.005055	-0.004751	6097.712584	41064.948696	3674.942469	21709.642837
64.036000	-0.009915	-0.003492	-0.006519	-0.005739	6081.391836	41209.566635	3673.855076	21752.982794
64.536500	-0.004885	-0.003064	-0.003744	-0.012363	6173.499270	41839.824727	3695.587925	22045.923077
65.036500	-0.008831	-0.003494	-0.007397	-0.012389	6142.232169	41803.307906	3687.143469	22047.038889
65.567000	-0.006392	-0.002089	-0.002863	-0.014275	6176.735425	42100.740487	3702.136628	22131.290425
66.037000	-0.008636	-0.002874	-0.009764	-0.010419	6128.178626	41682.098943	3677.141976	21959.479266
66.537500	-0.005809	-0.003087	-0.004320	-0.016533	6199.584314	42215.125684	3704.021932	22232.598916
67.038000	-0.003672	-0.001281	-0.002528	-0.014802	6202.869679	42222.010609	3704.166785	22154.913133
67.535500	-0.007400	-0.001755	-0.000102	-0.015151	6175.675910	42210.595494	3710.728261	22170.529883
68.035500	-0.008087	-0.001946	-0.000284	-0.008965	6121.024035	41634.824451	3695.730679	21895.054533
68.535500	-0.006616	-0.002068	-0.002965	-0.014304	6175.170906	42105.264251	3701.965024	22132.571592
69.036500	-0.005436	-0.002418	-0.004106	-0.014924	6189.629499	42129.814494	3700.741641	22160.361971
69.537000	-0.004650	-0.001527	-0.005657	-0.012624	6177.465978	42002.038991	3691.733624	22057.526558
70.036500	-0.009220	-0.001024	-0.007766	-0.007598	6101.366784	41595.015059	3675.254262	21834.722450
70.537000	-0.006246	-0.001073	-0.003408	-0.012797	6166.078664	42058.878523	3697.389604	22065.262967
71.037000	-0.003894	0.000295	-0.003486	-0.011740	6176.442927	42087.010371	3694.734948	22018.157367
71.540500	-0.002990	-0.000038	-0.000165	-0.010994	6177.707832	41989.362692	3700.765758	21984.991157
72.035500	-0.006342	-0.000244	-0.005824	-0.005735	6109.337701	41498.162300	3675.436918	21752.810008
72.535500	-0.003065	-0.000429	-0.002789	-0.011576	6181.771183	42006.600913	3695.981018	22010.860648
73.035500	-0.006551	-0.000036	0.001391	-0.011629	6154.319848	42046.988374	3705.926842	22013.215720
73.536000	-0.004050	0.000083	-0.000014	-0.010858	6168.129559	41987.996861	3700.800547	21978.946245
74.036500	-0.007500	-0.000562	-0.004939	-0.005759	6100.431432	41471.895504	3677.519284	21753.836062
74.536500	-0.005480	0.000272	0.001534	-0.011292	6160.176626	42044.433412	3705.470040	21998.254668
75.037000	-0.006008	-0.000935	-0.000778	-0.011742	6159.555414	41975.831576	3701.083421	22018.250164
75.536500	-0.004584	0.001093	0.000006	-0.010070	6157.569738	42008.041946	3698.997439	21943.983351
76.035000	-0.008373	-0.000479	-0.009044	-0.005126	6088.640105	41422.802524	3666.701102	21726.069115
76.535000	-0.004215	-0.000272	-0.003712	-0.010364	6162.869535	41911.304782	3691.000627	21957.041166
77.035000	-0.005264	0.000407	-0.006863	-0.009981	6151.447833	41938.058459	3682.810195	21940.056264
77.535500	-0.008085	-0.000274	-0.008301	-0.009306	6123.731124	41815.698083	3677.945067	21910.133770
78.036000	-0.009345	-0.000399	-0.011828	-0.003577	6068.999010	41292.155211	3656.912681	21658.325106
78.536000	-0.006435	-0.000105	-0.004890	-0.009678	6139.737338	41864.456435	3686.672845	21926.617713
79.036500	-0.005591	-0.000420	-0.003765	-0.009937	6148.499433	41859.419845	3689.885054	21938.113180
79.536500	-0.002799	0.000522	-0.001880	-0.008897	6162.454752	41850.511206	3691.847975	21892.049599
80.037000	-0.004479	0.000412	-0.006308	-0.008925	6149.292241	41843.174227	3681.654962	21893.324053
80.537500	-0.001774	0.000618	-0.000257	-0.009025	6171.673974	41870.774626	3695.935712	21897.719525
81.039500	-0.003195	0.001433	-0.001311	-0.008247	6154.112184	41874.135789	3691.661791	21863.356680
81.535000	-0.003874	0.000381	-0.001100	-0.008511	6150.807302	41803.068109	3692.767070	21874.999838
82.035500	-0.003612	0.000236	0.001428	-0.008328	6151.443979	41773.636752	3698.249190	21866.940304
82.535500	-0.004247	0.000511	-0.002460	-0.008263	6145.877079	41792.546794	3689.026673	21864.079216
83.035500	-0.002493	0.000864	-0.003778	-0.006477	6145.623861	41663.794783	3681.844898	21785.395934
83.536000	-0.002772	0.000884	-0.001929	-0.007273	6149.728073	41736.991134	3687.960314	21820.411559
84.037000	-0.004733	0.000829	-0.000216	-0.007497	6135.943708	41752.221297	3692.466087	21830.295090
84.537000	-0.003918	0.001314	-0.000188	-0.006842	6137.202684	41736.870796	3691.004603	21801.427163
85.037000	-0.005303	0.000630	0.000144	-0.005707	6117.293697	41573.784853	3689.137340	21751.571656
85.538000	-0.004285	0.001165	-0.000908	-0.006592	6132.314459	41701.036743	3688.749135	21790.425384
86.035000	-0.006780	0.001044	0.001307	0.000499	6057.275225	41058.897163	3677.492621	21481.141423
86.538000	-0.005919	0.000530	0.000455	-0.006316	6117.233221	41619.391241	3691.277046	21778.300276
87.035500	-0.005939	0.001120	-0.008155	-0.004337	6101.519851	41495.092276	3666.928307	21691.532675
87.536000	-0.006435	0.000792	-0.005524	-0.006123	6111.654216	41625.557014	3677.012374	21769.824307
88.036000	-0.009853	0.001057	-0.006786	-0.000094	6038.133254	41112.420136	3660.422345	21506.816926
88.536500	-0.004914	0.001349	-0.000868	-0.005409	6118.007698	41611.437119	3686.100555	21738.488111
89.037000	-0.005509	0.001483	-0.004501	-0.002875	6093.435492	41397.063643	3671.920110	21627.671562
89.537000	-0.003996	0.001404	0.001814	-0.005110	6122.891625	41589.647466	3691.632338	21725.372357
90.037500	-0.008722	0.000825	-0.005199	-0.000064	6046.620144	41089.299115	3663.942457	21505.528664
90.540500	-0.005285	0.001169	0.000226	-0.005025	6112.063022	41560.989314	3687.745056	21721.657160
91.035500	-0.007173	0.000197	-0.006194	-0.003178	6082.803188	41309.660439	3668.752673	21640.914047
91.535500	-0.004908	0.000883	-0.000740	-0.005111	6115.702943	41543.057428	3685.706412	21725.407582
92.036000	-0.009080	0.000477	-0.005818	0.000582	6038.881891	41001.573900	3661.082235	21477.559572
92.536000	-0.003786	0.001501	-0.000544	-0.004669	6121.066971	41558.810160	3685.137135	21706.051600
93.036000	-0.007739	0.000735	-0.003601	-0.001711	6066.981416	41227.159425	3671.316939	21576.993674
93.536000	-0.004869	0.001140	-0.000191	-0.005047	6115.510398	41560.417306	3686.830695	21722.628224
94.036500	-0.007718	0.000415	-0.004430	0.000843	6047.372140	40973.043556	3663.629907	21466.271396
94.537000	-0.003558	0.001023	-0.001977	-0.004593	6122.271203	41509.390243	3681.652483	21702.756328
95.034000	-0.006665	0.001492	0.000023	-0.000621	6066.857648	41197.595004	3677.117171	21529.664032
95.540000	-0.005148	0.001169	0.000984	-0.004210	6106.738273	41488.169009	3687.612751	21685.990137
96.035000	-0.007798	0.001165	-0.005194	0.002010	6037.765359	40936.404840	3659.268007	21415.919612
96.534500	-0.004897	0.001319	-0.000733	-0.004222	6108.800681	41502.623568	3683.667768	21686.525390
97.035500	-0.006454	0.000161	-0.003003	-0.000700	6069.113292	41086.863447	3670.376586	21533.104296
97.536500	-0.004433	0.001403	-0.002619	-0.003432	6106.239742	41439.667721	3677.505772	21652.007479
98.037000	-0.009452	0.000662	-0.003475	0.001631	6027.956546	40925.486439	3664.007749	21432.249542
98.566500	-0.006457	0.001112	-0.002637	-0.003823	6093.438506	41448.572185	3678.360401	21669.069727
99.037000	-0.004530	0.000925	-0.002454	-0.003996	6109.906639	41447.314443	3679.180396	21676.630402
