sample name	sample
index	1284
start time	 04-29-2021  02:48:07 PM
880	0.008998
Peak Time (s)	92.037
Peak Height 	0.008998
calc peak height	90,93
Baseline Time (s)	9.536
Baseline Value 	-0.005084
subtract baseline	10,4
Abs	0.017454
Peak Time (s)	91.037
Peak Height 	0.01745
calc peak height	90,93
Baseline Time (s)	10.036
Baseline Value 	0.001941
subtract baseline	10,3
PK_550	-0.002122
Peak Time (s)	92.534
Peak Height 	-0.002122
calc peak height	90,93
Baseline Time (s)	9.039
Baseline Value 	1.5908E-4
subtract baseline	10,2
PK_880	0.010404
Peak Time (s)	90.035
Peak Height 	0.0104
calc peak height	90,93
Baseline Time (s)	9.536
Baseline Value 	8.3978E-4
subtract baseline	10,1


Time (s)	A880-A510	A880-A775	A880-A975	A880	I510	I775	I975	I880	
0.036000	-0.001452	0.000525	-0.005716	0.006217	6262.676980	40979.377164	3837.411708	20760.383413
0.536500	-0.001471	-0.000348	-0.002836	0.004611	6274.740202	41043.539594	3846.698623	20826.307122
1.037000	-0.003232	-0.000144	0.002332	0.004422	6262.793782	41077.961014	3857.917646	20834.100891
1.537000	-0.001496	-0.000304	-0.001780	0.005912	6264.663743	40933.570970	3846.189973	20772.896924
2.037500	-0.001669	-0.000926	-0.001392	0.003721	6280.019297	41070.856563	3851.568863	20862.948516
2.538000	0.001238	0.000040	-0.000031	0.001564	6318.884233	41345.653849	3858.961609	20952.099555
3.038000	0.000088	0.000612	-0.003571	0.000144	6320.966651	41521.956880	3854.499559	21011.008733
3.535500	-0.001391	-0.000155	-0.000456	0.005947	6265.187275	40943.501253	3848.874237	20771.447425
4.038500	-0.001012	0.000729	-0.002608	0.003160	6289.319203	41265.614743	3850.198974	20886.076908
4.536000	0.003025	-0.000229	0.000226	0.000758	6338.960468	41393.101340	3861.207025	20985.522261
5.038500	-0.002113	-0.000499	0.001525	0.000529	6301.053612	41389.534420	3864.443214	20995.022505
5.536000	-0.001316	0.000348	0.003810	0.001233	6301.761833	41402.060627	3867.802532	20965.784679
6.039500	-0.000352	0.000220	-0.001751	0.003009	6295.536862	41234.154562	3852.308246	20892.336207
6.537000	0.002171	0.000495	-0.003047	0.000674	6332.984021	41464.623656	3854.488147	20989.002256
7.037500	-0.000298	0.000378	0.000418	0.000341	6316.461390	41483.740425	3862.492239	21002.798439
7.535000	0.000219	0.001178	-0.001143	0.000750	6317.301482	41518.479975	3858.332825	20985.849808
8.035500	-0.000293	0.000621	0.003719	0.002315	6301.313550	41330.646033	3865.309858	20921.023376
8.535000	0.002267	-0.000076	0.001433	0.000233	6337.152464	41453.049805	3864.874763	21007.300663
9.038500	-0.000485	0.000000	-0.000019	-0.000516	6321.640582	41526.252620	3863.384136	21038.464165
9.536000	0.000000	-0.000392	0.000268	0.000000	6321.399815	41445.788468	3862.899156	21016.989786
10.036000	0.001715	0.000238	0.000000	-0.000099	6335.443031	41510.408408	3862.541677	21021.123226
10.536500	0.001549	0.000019	0.005302	0.000538	6329.219246	41434.535823	3872.472542	20994.641533
11.037000	-0.000075	0.000585	-0.000536	0.000308	6318.436740	41504.971711	3860.546085	21004.174894
11.537000	-0.000292	-0.000255	-0.001056	-0.000169	6320.451667	41472.906491	3860.456901	21024.031300
12.035000	0.002411	0.001573	0.003386	0.000973	6332.527833	41533.756446	3867.454969	20976.602752
12.534500	0.000483	-0.000117	0.000616	0.000126	6324.165156	41458.951960	3863.369711	21011.771007
13.038500	0.001025	0.000514	-0.000165	-0.000118	6330.241012	41536.491384	3862.232053	21021.885409
13.539000	0.001748	0.000443	-0.002018	0.000418	6331.686457	41482.686572	3857.187283	20999.607635
14.035500	0.001008	0.000804	0.003571	0.002897	6306.835982	41295.418723	3863.757624	20896.933879
14.536000	-0.000392	0.000421	-0.004198	0.002359	6300.211148	41309.108958	3848.551238	20919.167285
15.037500	-0.000044	0.000988	0.001193	0.000675	6315.844822	41508.163244	3863.428393	20988.938666
15.536500	0.000581	0.000468	-0.001570	-0.000254	6327.860316	41544.538158	3859.549442	21027.564270
16.037500	-0.000027	0.000109	0.001906	0.002435	6302.439568	41274.952932	3861.212809	20916.062481
16.537000	0.000088	0.000101	0.001940	-0.000033	6322.334129	41492.331008	3866.519039	21018.364712
17.040000	0.002014	0.000491	-0.000120	-0.003732	6366.087783	41856.583759	3870.010457	21172.821155
17.535000	0.000743	0.000244	0.005516	0.000503	6323.258907	41457.532809	3873.007426	20996.094997
18.038500	0.000797	0.000146	0.000726	0.001307	6317.459441	41377.673550	3861.101315	20962.723189
18.535500	0.001785	0.000388	-0.005190	0.001063	6326.978227	41420.658838	3849.185806	20972.842493
19.036500	-0.000860	0.000239	0.000431	0.000775	6308.788752	41432.960519	3861.602064	20984.786367
19.536500	0.000520	0.000738	-0.000325	0.001199	6316.160542	41439.621395	3859.110818	20967.204813
20.037000	-0.000670	0.000391	0.002610	0.001613	6303.810653	41372.385682	3864.445382	20950.064149
20.540000	0.000996	-0.000294	0.008015	0.000734	6323.422893	41389.447664	3877.876529	20986.492210
21.038000	0.001042	-0.000061	-0.004646	0.000820	6323.113843	41402.530369	3850.831511	20982.934906
21.576000	0.000843	-0.000054	0.003832	0.000550	6323.666180	41426.971700	3869.305260	20994.138166
22.037000	-0.001621	0.000060	-0.006608	0.000966	6301.475609	41400.262188	3846.433858	20976.867823
22.535500	0.000642	0.000278	0.001353	0.001086	6317.966520	41408.923835	3862.896608	20971.889057
23.104000	-0.000055	0.000247	0.006362	0.000949	6313.659338	41418.362752	3873.863329	20977.600013
23.555500	0.002061	0.000029	-0.000388	0.001136	6328.546895	41382.484827	3859.109699	20969.807475
24.036000	0.001876	-0.000085	0.002361	0.000646	6330.913659	41415.703400	3865.969077	20990.141470
24.555500	0.000841	-0.000283	-0.001223	0.000235	6326.090950	41434.651968	3859.250043	21007.242640
25.036500	-0.001864	-0.000382	0.000837	0.000472	6303.399476	41404.813985	3863.103741	20997.368586
25.540000	0.000704	0.000988	0.001727	0.001273	6317.009972	41455.190195	3863.293454	20964.143116
26.037500	-0.000028	0.000736	0.001456	0.000546	6316.964023	41497.288221	3864.258527	20994.298763
26.538000	-0.001396	-0.000169	0.000341	0.000661	6305.544593	41406.925975	3861.653378	20989.516818
27.035000	0.001286	0.000862	0.002467	-0.000841	6337.868294	41631.653115	3869.361308	21051.980023
27.541500	0.002040	0.000682	0.003082	-0.002260	6354.778979	41742.033089	3873.710505	21111.182548
28.082500	0.000197	0.000379	0.004526	0.001176	6313.844669	41409.887691	3869.449288	20968.146786
28.535500	0.001217	0.000398	-0.002014	-0.000374	6333.712895	41548.992688	3858.865591	21032.557984
29.036500	0.001812	-0.000064	0.003356	-0.000663	6340.572073	41533.645208	3870.880940	21044.580701
29.536500	-0.001117	0.000173	0.000991	0.004601	6277.515820	41090.013030	3854.718278	20826.706234
30.037000	-0.001614	-0.000166	0.000934	0.000919	6301.885057	41384.463057	3862.361811	20978.815244
30.537000	-0.000274	0.000681	0.000213	0.001444	6308.154348	41412.931164	3859.727966	20957.054316
31.034500	-0.000885	0.000646	0.000156	0.002121	6298.257093	41350.010180	3858.181653	20929.044408
31.535000	-0.002716	-0.000445	-0.003826	0.003503	6273.700648	41132.165493	3846.944005	20871.948488
32.035000	-0.000154	0.000363	-0.002191	0.001582	6308.011804	41372.594570	3854.377995	20951.337403
32.535500	0.000301	0.000486	0.001076	-0.000300	6326.047223	41550.151608	3865.249231	21029.456883
33.038500	0.000811	-0.000284	-0.004363	-0.001423	6338.708485	41581.553707	3856.129032	21076.264898
33.536000	-0.000440	0.000895	0.000196	0.002427	6299.324168	41344.946050	3857.620192	20916.374929
34.036500	0.000733	0.001768	-0.000135	0.002817	6305.340190	41387.650123	3856.101765	20900.255622
34.536500	-0.000618	0.000335	-0.002209	0.000952	6309.289853	41425.764606	3855.661334	20977.437522
35.037000	0.001057	0.000417	0.001699	0.001576	6317.393975	41377.958409	3862.593594	20951.609029
35.534500	0.000381	0.000205	-0.000406	0.001502	6312.751013	41365.673555	3858.300291	20954.659445
36.037500	0.000230	0.000908	0.001684	0.001910	6308.445462	41391.811646	3861.851956	20937.758703
36.535000	0.000526	0.000647	-0.001310	0.001563	6313.394657	41399.359783	3856.269238	20952.128616
37.038500	0.000735	0.000092	0.004737	0.001131	6318.339603	41388.503290	3869.996634	20970.025200
37.535500	-0.000071	0.000786	0.002546	0.001582	6308.657326	41410.019729	3864.375133	20951.345553
38.036000	0.001891	0.000664	-0.001068	0.001680	6323.033456	41390.579685	3856.531972	20947.291620
38.536000	-0.000614	0.000603	-0.007209	0.001418	6305.739114	41408.347909	3844.247348	20958.153493
39.036500	-0.000351	0.000150	0.002013	0.000902	6311.741055	41413.961267	3864.688286	20979.548036
39.536500	0.000113	0.000297	0.004207	0.001135	6313.511360	41406.279425	3868.859131	20969.870018
40.037000	-0.000232	0.000158	0.001579	0.000925	6312.469978	41412.496560	3863.715846	20978.555557
40.537000	-0.000709	0.000606	0.002923	0.001332	6305.668361	41416.181108	3865.705430	20961.700991
41.034500	0.000417	0.000715	0.003017	0.001264	6314.863818	41431.818335	3866.050670	20964.516657
41.535500	-0.000712	0.000231	0.000021	0.001446	6304.771252	41372.972558	3859.320516	20956.985280
42.035500	0.001102	0.000730	0.003512	0.001975	6314.657883	41370.291673	3865.591303	20935.062641
42.536000	-0.000341	0.000628	0.004535	0.001730	6305.441379	41382.993663	3868.290594	20945.229772
43.036500	-0.000983	0.000285	0.004783	0.001486	6302.386256	41374.200783	3869.339223	20955.331328
43.536500	-0.000744	0.000341	-0.002035	0.001195	6306.448274	41404.825960	3855.517461	20967.362408
44.037000	0.001858	0.000939	0.000686	0.000954	6328.390814	41479.161492	3861.764131	20977.389122
44.537000	-0.000536	0.000248	0.005268	-0.001002	6325.002630	41591.493750	3875.703326	21058.712848
45.037500	-0.000896	0.000066	-0.000921	-0.000212	6316.118496	41505.131875	3860.831506	21025.810960
45.537500	0.000376	0.000612	0.001705	0.001179	6315.205922	41430.319899	3863.445452	20968.057418
46.035000	-0.000559	0.000617	-0.000362	0.002381	6298.763135	41324.464842	3856.541594	20918.281984
46.538500	0.001374	0.001308	0.007955	0.000533	6327.904635	41549.202492	3878.178562	20994.836368
47.038500	0.001573	0.000541	0.006730	-0.000381	6336.528831	41562.300321	3877.509739	21032.837375
47.535500	-0.000202	0.000661	0.001385	0.002690	6299.128658	41301.092213	3859.571459	20905.497413
48.036000	-0.000842	-0.000762	0.006780	0.000457	6311.384425	41372.623648	3875.816695	20998.010476
48.536500	0.001346	0.000614	-0.002734	0.000166	6330.520961	41520.146723	3856.210780	21010.073138
49.037000	-0.000578	-0.000047	0.007376	-0.000600	6321.565975	41529.476160	3879.373318	21041.939531
49.537000	0.000046	-0.000183	0.004398	-0.000698	6327.153429	41526.127723	3873.184796	21046.037503
50.037500	0.004225	-0.000185	0.001521	0.000489	6350.383208	41420.777473	3864.518111	20996.670774
50.535000	0.002632	0.000376	0.008275	0.018607	6200.235913	39898.302241	3840.715289	20259.801845
51.037500	-0.020877	-0.045706	0.014570	0.570854	3825.322962	12299.255557	3198.267659	7812.139200
51.535500	-0.025707	-0.041040	-0.013254	-0.046349	6484.711548	41953.798245	3935.138152	23050.417634
52.036000	-0.026507	-0.097670	-0.015279	-0.303117	9309.530896	64761.155574	4726.799522	39245.774984
52.536500	-0.054163	-0.111324	-0.010460	-0.315152	9085.442271	64531.310563	4797.392744	40265.339635
53.036500	-0.014746	-0.066428	-0.009107	-0.261412	8886.919556	63290.837357	4586.648865	35923.522054
53.536500	-0.021801	-0.074502	-0.004418	-0.270986	8921.358630	63499.543147	4641.536209	36658.264491
54.036500	-0.016029	-0.038495	-0.006764	-0.197693	8063.904788	58521.551136	4370.013694	31425.552817
54.534000	-0.020703	-0.031390	-0.010172	-0.174998	7752.574473	56563.479604	4286.759814	29976.309439
55.034500	-0.020536	-0.031723	-0.013311	-0.192099	7946.709718	58672.364383	4330.667217	31061.251327
55.535000	-0.023184	-0.037270	-0.009899	-0.212781	8157.871659	60646.960899	4409.836821	32431.802036
56.038000	-0.022593	-0.032085	-0.012759	-0.192936	7932.739972	58733.348610	4335.113861	31115.484983
56.535500	-0.017242	-0.025078	-0.006930	-0.155259	7576.502069	54932.725091	4236.667572	28775.999440
57.035500	-0.012425	-0.015944	-0.005946	-0.112768	7193.439773	51092.734584	4118.737000	26370.020276
57.536000	-0.012747	-0.013324	-0.009801	-0.100530	7072.941254	50039.185627	4075.960042	25719.591431
58.036000	-0.007932	-0.010527	-0.006425	-0.080098	6927.886340	48167.111002	4032.321914	24673.720911
58.536500	-0.008407	-0.008575	-0.005388	-0.062027	6762.289417	46521.274295	3990.419278	23788.874610
59.037000	-0.006823	-0.008414	-0.010634	-0.041657	6601.580818	44542.051312	3930.414039	22834.542356
59.534500	-0.005573	-0.005107	-0.005142	-0.026783	6489.319627	43450.201433	3909.310130	22165.494896
60.035000	-0.001915	-0.003237	-0.003608	-0.025113	6505.483058	43468.754087	3909.008028	22091.767758
60.538000	-0.004636	-0.005715	-0.000540	-0.039089	6598.400050	44554.719554	3947.677712	22717.401443
61.035500	-0.003858	-0.003291	-0.005356	-0.026112	6497.800242	43556.940164	3907.344059	22135.843431
61.535500	-0.004792	-0.004394	-0.013117	-0.014230	6395.104280	42362.047858	3864.690920	21618.361548
62.036000	-0.007064	0.001830	-0.008042	-0.002130	6283.504273	41833.060122	3849.900470	21105.777060
62.536000	-0.003651	0.004928	-0.008446	0.003761	6264.628021	41584.043740	3836.846632	20861.306021
63.036500	-0.001786	0.007078	-0.008034	0.001744	6294.237469	41956.094844	3841.859557	20944.629600
63.542500	0.000334	0.008359	-0.011260	0.000796	6317.830598	42156.560078	3837.157908	20983.927806
64.037500	0.001535	0.009244	-0.001209	0.000818	6326.942109	42234.433892	3858.048143	20983.000842
64.535000	0.003739	0.008961	-0.006430	0.001235	6340.796782	42171.273642	3846.243319	20965.700574
65.035000	0.003555	0.010431	0.002296	0.003765	6319.775067	42075.757489	3859.226150	20861.127583
65.537500	0.004191	0.009448	-0.005725	0.004068	6322.346579	41960.195630	3841.828830	20848.649296
66.035500	0.003488	0.009785	-0.007129	0.005977	6302.223159	41819.396456	3834.996875	20770.209067
66.535500	0.004235	0.009800	-0.000747	0.007632	6295.261311	41673.120685	3844.760576	20702.480639
67.036000	-0.000032	0.009212	-0.001276	0.009074	6251.787555	41492.714836	3840.677195	20643.682397
67.536000	0.000713	0.009038	-0.008665	0.012106	6234.527651	41209.528293	3819.390561	20520.657261
68.036500	0.000930	0.007971	-0.002603	0.013550	6225.308726	40989.180921	3828.760790	20462.368587
68.537000	0.003540	0.008779	-0.003776	0.013210	6247.528052	41089.868906	3827.063771	20476.098888
69.037000	0.000043	0.008748	-0.001217	0.013298	6220.552816	41079.412721	3832.109367	20472.551415
69.535000	0.004247	0.008766	-0.002624	0.013590	6249.993929	41055.347986	3828.635543	20460.773438
70.037500	0.002173	0.008450	0.000252	0.012923	6239.375855	41086.105403	3835.892524	20487.662363
70.535500	0.003293	0.008721	-0.002664	0.012586	6250.371311	41139.458398	3830.603714	20501.252971
71.036000	0.006341	0.008274	-0.002518	0.012935	6270.844839	41069.637658	3830.191169	20487.194337
71.536500	0.001388	0.008142	-0.000984	0.013209	6231.314669	41034.104907	3832.768518	20476.133212
72.036500	0.002661	0.008267	-0.003057	0.013023	6242.293424	41061.320691	3828.908502	20483.617030
72.536500	0.003783	0.007876	-0.001177	0.012102	6257.739198	41107.747636	3834.642546	20520.806310
73.036500	0.003833	0.008750	-0.002080	0.011917	6259.526598	41200.798164	3833.168669	20528.299033
73.537000	0.006468	0.009034	0.004332	0.011604	6281.961642	41253.424610	3847.063985	20540.977357
74.037500	0.005317	0.009596	-0.001906	0.013034	6262.316496	41177.066261	3831.238369	20483.191781
74.535000	0.006176	0.009312	0.003991	0.010745	6286.287599	41353.711500	3848.141240	20575.768611
75.035000	0.006351	0.010142	0.005078	0.011379	6282.785825	41371.059861	3849.088135	20550.081078
75.535500	0.007990	0.009084	0.001725	0.010713	6300.432251	41336.401409	3843.498273	20577.072516
76.035500	0.009369	0.009199	0.005823	0.010657	6311.463923	41351.451614	3852.154149	20579.339303
76.536000	0.011086	0.008801	0.000423	0.010508	6325.871576	41329.531627	3841.225436	20585.391432
77.036000	0.007259	0.009441	0.003485	0.011243	6290.765537	41321.114263	3846.051730	20555.590011
77.536500	0.009541	0.008053	0.008361	0.010724	6312.269775	41244.489091	3857.341225	20576.611019
78.036500	0.007314	0.007047	0.002864	0.011587	6288.557374	41080.300900	3844.046894	20541.668792
78.537500	0.009265	0.007947	0.008301	0.011216	6306.363143	41191.881267	3856.180122	20556.688440
79.037000	0.009539	0.007133	0.007070	0.010445	6314.403084	41188.031190	3855.213844	20587.933908
79.538000	0.008253	0.006137	0.006371	0.009921	6308.542303	41146.568636	3854.845470	20609.225488
80.038000	0.009022	0.005257	0.007291	0.009713	6316.070965	41087.666352	3857.218388	20617.683318
80.536000	0.010267	0.004412	0.012489	0.009139	6330.124458	41063.880963	3869.450940	20641.035782
81.036000	0.011211	0.004068	0.013426	0.008142	6345.188156	41121.082552	3873.585189	20681.639305
81.536500	0.009558	0.004083	0.011210	0.009001	6325.706255	41047.063906	3867.019203	20646.628041
82.036000	0.011274	0.002871	0.011175	0.007909	6347.493209	41036.518987	3869.271831	20691.150440
82.536500	0.010988	0.002996	0.007871	0.007627	6347.464502	41072.293054	3862.848599	20702.686779
83.037000	0.008989	0.001745	0.018326	0.006440	6341.150893	41066.609456	3887.842269	20751.225572
83.537000	0.008660	0.000340	0.009634	0.005294	6347.504672	41043.902384	3871.565772	20798.233563
84.037500	0.009003	0.000408	0.011402	0.005209	6350.845078	41057.357858	3875.537058	20801.750348
84.535500	0.010637	0.000792	0.013114	0.006027	6357.198708	41019.315244	3877.459251	20768.154139
85.035000	0.008501	-0.000859	0.014067	0.004770	6350.344175	40984.839679	3882.225881	20819.758631
85.535500	0.009280	-0.000951	0.015571	0.005125	6353.655974	40945.749347	3884.715784	20805.187153
86.036000	0.008309	-0.001672	0.013450	0.005736	6341.340078	40829.628133	3878.809533	20780.113868
86.536000	0.006983	-0.000914	0.008434	0.004724	6338.892383	40983.998029	3870.219552	20821.646158
87.036500	0.006608	-0.001884	0.013408	0.005054	6333.423905	40870.455123	3880.188890	20808.089453
87.536500	0.009788	-0.002341	0.020061	0.005260	6356.563859	40812.703939	3894.207869	20799.622206
88.037000	0.008230	-0.001739	0.016441	0.005319	6343.967175	40860.106422	3886.182897	20797.220117
88.535000	0.008821	-0.001362	0.014664	0.005946	6343.686979	40838.308896	3880.976574	20771.502622
89.040500	0.006266	-0.002949	0.016971	0.006550	6319.211564	40647.816884	3884.662955	20746.750989
89.535000	0.007279	-0.002796	0.012188	0.006260	6329.282044	40686.255759	3874.968005	20758.606579
90.035000	0.010404	-0.002125	0.015751	0.006701	6350.124555	40706.140130	3881.691325	20740.532963
90.535500	0.007024	-0.002907	0.010363	0.006272	6327.215684	40675.583014	3871.034590	20758.123423
91.036500	0.007615	-0.002280	0.017454	0.006828	6327.480958	40681.696748	3885.105418	20735.340778
91.536500	0.008161	-0.002437	0.012529	0.007131	6329.365890	40641.835408	3873.832894	20722.970779
92.036500	0.007543	-0.002410	0.008746	0.008998	6310.182861	40482.661248	3861.798610	20646.780702
92.534000	0.009862	-0.002122	0.015961	0.008261	6333.792294	40571.272041	3878.777825	20676.796504
93.037000	0.008172	-0.002052	0.017209	0.009627	6310.179896	40459.264834	3878.525609	20621.170446
93.562000	0.007400	-0.002200	0.018237	0.009023	6308.885098	40498.648466	3882.047667	20645.742167
94.035500	0.007755	-0.002498	0.017288	0.010227	6302.355277	40369.184151	3877.404029	20596.800565
94.535500	0.007788	-0.002248	0.020892	0.009344	6309.402800	40466.817751	3887.108825	20632.702698
95.035500	0.008878	-0.002002	0.015245	0.010546	6308.536423	40384.355867	3872.333782	20583.831752
95.536000	0.007510	-0.001844	0.015369	0.011339	6291.951043	40329.788489	3870.903559	20551.701975
96.036000	0.007145	-0.002239	0.014377	0.012220	6282.419017	40220.152880	3866.909138	20516.035676
