sample name	sample
index	62
start time	 02-11-2021  03:12:42 PM
880	-0.005521
Peak Time (s)	91.537
Peak Height 	-0.005521
calc peak height	90,93
Baseline Time (s)	10.537
Baseline Value 	3.2862E-4
subtract baseline	10,4
Abs	0.005425
Peak Time (s)	90.535
Peak Height 	0.005425
calc peak height	90,93
Baseline Time (s)	8.536
Baseline Value 	0.003434
subtract baseline	10,3
PK_550	0.000628
Peak Time (s)	90.035
Peak Height 	6.2761E-4
calc peak height	90,93
Baseline Time (s)	10.037
Baseline Value 	0.001153
subtract baseline	10,2
PK_880	0.001339
Peak Time (s)	91.036
Peak Height 	0.001339
calc peak height	90,93
Baseline Time (s)	9.036
Baseline Value 	0.002343
subtract baseline	10,1


Time (s)	A880-A510	A880-A775	A880-A975	A880	I510	I775	I975	I880	
0.036000	-0.006271	-0.001603	-0.016103	0.002590	4499.627726	19321.671967	3281.876849	10647.542941
0.536000	-0.001526	0.000953	-0.002185	0.000675	4523.728032	19491.091665	3295.160664	10681.633167
1.037000	-0.001521	-0.001390	0.005613	-0.001153	4530.422877	19471.452309	3303.477238	10714.308370
1.539500	0.002631	0.000686	-0.003025	-0.002169	4549.466575	19589.528151	3296.877600	10732.549411
2.037500	-0.005841	-0.001583	-0.007118	0.002438	4501.714541	19328.122874	3289.483493	10650.229172
2.537000	-0.002016	0.001740	0.008509	-0.002326	4532.912273	19635.990344	3307.048665	10735.364748
3.037500	-0.004009	-0.000823	-0.008617	0.001078	4513.240150	19408.298797	3289.366664	10674.446843
3.535000	-0.000086	-0.000248	-0.006479	-0.002421	4540.355557	19563.391727	3294.138785	10737.065413
4.035500	-0.003516	-0.000752	0.002835	-0.003739	4532.591167	19594.575325	3303.309920	10760.800026
4.538000	-0.002661	-0.001007	-0.007209	-0.004029	4536.793356	19595.893602	3294.887257	10766.014772
5.036000	0.001419	-0.000607	-0.010465	-0.002042	4544.510413	19535.199453	3290.438514	10730.268126
5.535500	-0.002235	-0.000087	-0.013893	-0.003017	4534.644237	19592.407084	3288.374772	10747.793941
6.036500	0.000228	-0.000048	-0.016734	-0.002307	4541.091793	19566.711380	3285.408013	10735.021346
6.536500	-0.001360	-0.000850	-0.006001	-0.003217	4538.592960	19570.830275	3295.225353	10751.386683
7.037000	-0.000529	0.001597	-0.003721	-0.001206	4534.254206	19587.502239	3295.455105	10715.260210
7.534500	0.000511	0.000470	-0.018020	-0.002179	4541.662065	19581.596789	3284.233603	10732.715216
8.038000	-0.001104	-0.000536	0.002057	-0.001971	4534.957042	19535.196541	3301.093578	10728.991053
8.536000	-0.001199	-0.000526	0.000000	-0.002296	4535.801827	19548.004092	3299.592658	10734.827418
9.035500	0.000000	-0.000034	0.003544	-0.001003	4535.454437	19517.423629	3301.543478	10711.629807
9.536000	-0.000420	0.001947	-0.003263	0.000875	4527.033161	19521.321808	3294.070120	10678.057480
10.036500	0.001374	0.000000	-0.013888	-0.000587	4538.976716	19502.854243	3286.346112	10704.185965
10.536500	0.001106	0.000209	-0.009204	0.000000	4535.833153	19488.460659	3289.779674	10693.684128
11.037000	-0.005527	-0.001592	0.002798	0.003090	4500.502650	19303.221175	3297.361444	10638.659771
11.537000	0.001786	0.001604	0.003076	0.001205	4533.904296	19495.665251	3299.225489	10672.178313
12.034500	0.002155	0.000041	-0.007924	-0.000036	4539.826541	19483.429379	3290.890134	10694.330410
12.535000	0.004022	0.001540	0.003808	0.001101	4542.518511	19497.218052	3299.948192	10674.038138
13.035500	-0.002866	-0.000314	-0.002687	0.004773	4504.021619	19287.966109	3291.251589	10608.854050
13.535500	-0.001335	-0.000907	-0.007373	-0.000328	4528.088921	19458.460352	3291.602767	10699.553909
14.035500	0.001580	0.000862	0.002304	0.001303	4532.790283	19463.729433	3298.474917	10670.440706
14.536000	-0.003492	0.000679	0.001610	0.003614	4505.944201	19369.156445	3295.893437	10629.373579
15.036000	-0.003318	-0.000998	0.008535	0.005508	4499.750160	19234.652042	3300.225127	10595.866860
15.591500	0.001082	0.001672	0.001207	0.002134	4527.924045	19462.891463	3296.816060	10655.637968
16.037000	0.000238	-0.000107	0.001150	-0.000827	4535.681814	19507.889515	3299.316929	10708.472035
16.537500	0.000910	0.000478	0.010015	0.000935	4531.684720	19463.113260	3305.504470	10677.000027
17.038000	-0.001932	0.000406	-0.008386	0.006937	4499.597290	19233.729166	3284.663362	10570.691507
17.537500	0.001719	0.000749	-0.003626	0.001307	4533.287481	19459.267340	3293.394445	10670.370287
18.035500	0.000744	-0.000145	0.002724	0.000975	4530.925510	19437.891289	3299.119848	10676.277370
18.536000	0.003832	-0.000111	-0.001884	0.002098	4538.141466	19396.624440	3294.203922	10656.283347
19.036000	-0.002975	0.000212	-0.006137	0.004565	4504.376767	19315.611169	3288.520676	10612.528186
19.536000	-0.005174	0.000764	0.001018	0.003155	4501.536770	19389.706171	3295.779533	10637.504404
20.036500	0.000412	-0.000195	-0.005181	0.002269	4524.984440	19386.964641	3291.259782	10653.243280
20.536500	-0.003361	-0.000134	-0.000198	0.002657	4509.869110	19374.604750	3295.165553	10646.351508
21.037000	0.002404	0.001015	-0.004575	0.005226	4521.467250	19320.991285	3289.278237	10600.856723
21.537500	-0.001486	0.000786	0.003833	0.003523	4513.517084	19376.622844	3297.878959	10630.970501
22.040000	0.000862	-0.000113	0.008244	0.003614	4521.721110	19339.241429	3301.615982	10629.369096
22.535500	0.000594	0.000289	-0.005200	0.004014	4519.286064	19339.290996	3289.770809	10622.271154
23.035000	-0.002716	-0.000897	0.004291	0.002502	4512.764247	19351.615602	3299.154792	10649.107433
23.535500	-0.004680	0.001180	0.008213	0.004022	4500.196022	19372.681159	3301.234525	10622.140391
24.036500	-0.000851	0.000175	0.009987	0.002886	4518.136577	19377.621691	3303.770406	10642.286440
24.536000	0.002378	0.000061	-0.002715	0.003445	4527.868461	19352.157214	3292.352134	10632.358901
25.037000	-0.000399	-0.000621	-0.009004	0.002521	4521.106766	19361.326323	3287.830886	10648.761807
25.537000	-0.000067	0.000373	-0.015813	0.003577	4518.472999	19358.966149	3281.302839	10630.018898
26.034500	-0.001498	-0.000576	0.001618	0.002711	4516.420621	19355.845644	3296.673306	10645.381559
26.540000	-0.000987	0.000801	-0.005325	0.004063	4513.375035	19356.790639	3289.624974	10621.419780
27.035000	0.000338	-0.000282	0.000492	0.003046	4521.880453	19354.315310	3295.423105	10639.446890
27.535000	-0.002090	0.000919	0.005008	0.004262	4508.660233	19353.698826	3298.254322	10617.882960
28.036000	0.001332	0.000404	-0.001694	0.000839	4533.582548	19463.935354	3295.440904	10678.708336
28.536500	0.001726	0.001245	-0.000364	0.003276	4526.104480	19403.348524	3294.495214	10635.356434
29.035500	0.002690	0.000745	-0.004825	0.002978	4530.717698	19395.691786	3290.961055	10640.645632
29.536000	0.002188	0.000649	-0.001759	0.002493	4530.656580	19410.440176	3293.973791	10649.257505
30.037000	0.002012	0.001557	0.005087	0.003874	4524.964627	19392.523562	3298.656884	10624.754820
30.537000	0.000974	0.000068	0.008433	0.001099	4531.317022	19441.279918	3303.974165	10674.065511
31.035000	0.000257	-0.000426	-0.001172	0.007976	4503.734754	19163.736927	3289.827528	10552.447487
31.564500	-0.002447	0.001133	0.001278	0.002888	4512.339928	19413.844681	3296.230551	10642.251605
32.035000	0.002657	0.000420	-0.005315	0.005315	4522.060596	19295.206719	3288.581303	10599.279147
32.564000	-0.000982	0.000294	0.006064	0.003217	4516.457282	19369.600698	3300.069153	10636.406402
33.041500	-0.003689	-0.000686	0.006935	0.007950	4489.681409	19155.007714	3296.741301	10552.907540
33.537500	0.001886	0.001764	-0.003035	0.003446	4526.066534	19416.590349	3292.080225	10632.342838
34.036500	-0.001622	-0.000569	-0.001768	0.002540	4516.594391	19362.567054	3293.926092	10648.430319
34.536500	0.000571	0.001081	0.006271	0.003628	4520.608086	19383.820039	3299.892368	10629.118314
35.037000	-0.003502	-0.000009	-0.005200	0.006707	4494.794245	19226.829848	3287.511570	10574.750648
35.536500	-0.001657	-0.000408	-0.004109	0.004575	4509.097794	19291.892340	3290.218366	10612.356187
36.043000	0.000184	0.000239	-0.007425	0.004623	4515.585075	19314.423813	3287.392554	10611.496602
36.537500	0.003635	0.000186	0.002717	0.004440	4528.824020	19319.324391	3296.133104	10614.737218
37.037000	-0.000684	0.001550	0.000966	0.007033	4503.738460	19273.081249	3292.430801	10569.000466
37.535500	0.003309	0.000445	-0.004191	0.005256	4524.654984	19298.342130	3289.575312	10600.316926
38.038500	-0.001360	0.000411	0.012563	0.004674	4509.811351	19319.020580	3304.460283	10610.605794
38.536000	0.001475	0.002082	-0.010023	0.005583	4516.789900	19347.754484	3284.428653	10594.550858
39.037500	0.000534	0.000891	-0.010179	0.006300	4510.778275	19275.865662	3283.705055	10581.905597
39.536500	0.001273	0.000075	-0.004526	0.004771	4519.005918	19302.693296	3289.701833	10608.892582
40.037500	0.003383	-0.000319	-0.004607	0.004062	4529.288410	19314.559696	3290.230915	10621.428021
40.537000	0.004731	0.000361	0.002796	0.005374	4529.421171	19290.761564	3295.401691	10598.238596
41.037500	-0.000646	0.001776	0.007233	0.007349	4502.737098	19269.676671	3297.512460	10563.448243
41.537500	-0.001365	-0.000212	-0.005319	0.004243	4511.353488	19311.800295	3289.479138	10618.234391
42.035500	0.000808	0.001459	-0.001329	0.005487	4514.714695	19327.863649	3291.795699	10596.236758
42.536000	0.001066	0.000464	0.003813	0.005013	4517.371042	19308.221638	3296.581419	10604.602844
43.036000	-0.003438	0.000463	0.004662	0.005617	4498.928201	19285.455953	3296.791720	10593.941879
43.536000	0.002605	0.000536	0.000991	0.004776	4523.837719	19319.878106	3294.371550	10608.805680
44.036000	0.002709	-0.000937	0.013260	0.003871	4527.521119	19298.484440	3305.776000	10624.816456
44.537000	0.000470	-0.001997	0.003270	0.003026	4522.430220	19290.359645	3297.822153	10639.787192
45.037000	-0.001349	0.000792	-0.007448	0.007015	4501.412903	19245.305470	3285.378182	10569.325668
45.540000	0.002169	-0.000439	0.002277	0.001974	4532.488151	19388.893909	3297.873554	10658.486453
46.035000	0.000471	0.000479	0.013049	0.002857	4523.051285	19390.216032	3306.482091	10642.795045
46.538000	-0.002251	-0.000410	0.010898	0.002150	4515.725889	19383.320377	3305.212954	10655.355390
47.035500	-0.002346	-0.001019	-0.008535	0.008063	4494.078317	19138.390755	3283.606850	10550.921106
47.535500	0.002370	-0.000202	-0.000245	0.002859	4529.981956	19364.379482	3294.952773	10642.755910
48.036000	-0.001292	-0.000114	0.009485	0.002176	4519.114815	19393.550425	3303.951701	10654.892359
48.564000	0.002516	0.000231	-0.015155	0.003043	4529.845293	19373.798916	3282.284971	10639.499139
49.037000	0.000856	0.000859	-0.004146	0.007096	4509.063752	19244.748971	3288.067472	10567.893529
49.536500	0.000772	-0.000184	0.001215	0.004263	4519.029832	19312.062962	3295.000558	10617.868853
50.056500	0.000394	-0.000073	-0.013824	0.003611	4520.026153	19340.837680	3282.914581	10629.417709
50.543500	0.000595	0.000103	-0.001350	0.002116	4526.208732	19404.047406	3294.643149	10655.959924
51.034500	-0.000022	0.000775	-0.009906	0.009139	4498.548596	19165.158421	3281.586384	10532.060341
51.537500	-0.000233	0.002397	-0.004638	0.002670	4521.166402	19470.064433	3291.379694	10646.105776
52.035500	0.000596	-0.000374	0.013167	-0.002530	4543.275646	19562.762663	3311.360301	10739.036418
52.535500	0.000592	-0.003762	0.012010	0.016370	4474.982296	18731.638498	3293.881078	10406.569648
53.036500	-0.068011	-0.037078	-0.019985	0.180820	3837.536682	12958.554312	3159.330732	8050.537052
53.541500	-0.042390	-0.013205	-0.010062	-0.000775	4386.326487	19014.039898	3289.709424	10707.538151
54.037000	-0.009310	-0.002767	0.003137	-0.105449	4926.185468	23889.831463	3403.716117	12826.655663
54.539500	-0.029683	-0.011205	-0.008130	-0.095052	4790.330259	23001.023863	3380.376862	12592.595321
55.040000	-0.036322	-0.010147	-0.020053	-0.152442	5019.701339	25889.688695	3430.737174	13957.343056
55.534500	-0.028263	-0.005021	-0.002823	-0.181060	5202.963711	27743.244778	3487.148367	14708.312758
56.035000	-0.016639	-0.000921	-0.002294	-0.129640	5004.822132	25183.702104	3424.888710	13393.437798
56.538000	-0.013002	0.000802	0.007616	-0.096184	4867.806022	23617.002299	3398.459841	12617.827582
57.035500	-0.017298	-0.001834	-0.000010	-0.056858	4683.579839	21713.459913	3349.849894	11779.325509
57.536500	-0.009509	0.000005	-0.006919	-0.040591	4649.871812	21100.303647	3327.724778	11454.078630
58.036500	-0.011871	-0.003036	-0.012510	-0.023427	4574.698285	20275.178609	3307.121169	11123.856506
58.536500	-0.010406	-0.001523	-0.009103	-0.018164	4560.463118	20126.226495	3305.487789	11025.177911
59.037000	-0.012655	-0.002312	-0.005490	-0.006862	4510.681582	19654.562444	3298.794301	10817.282056
59.537000	-0.007332	-0.001672	0.006689	-0.006129	4527.369435	19650.999131	3308.801061	10803.989216
60.037500	-0.005558	-0.001740	-0.001434	0.002332	4503.115814	19326.180862	3294.387025	10652.115316
60.535000	-0.012725	-0.004440	0.000403	-0.000176	4486.438189	19318.973101	3298.111121	10696.831192
61.035000	-0.009479	-0.003275	-0.007292	0.002492	4488.497632	19262.383034	3289.291233	10649.269748
61.538000	-0.008038	-0.001810	0.011780	0.005464	4483.048226	19205.881645	3303.084145	10596.644653
62.036000	-0.009326	-0.002541	-0.010945	0.004282	4482.670399	19222.809849	3284.743011	10617.536762
62.535500	-0.006804	-0.002345	-0.005050	0.001639	4501.126828	19329.549953	3291.904197	10664.450932
63.036500	-0.006820	-0.002102	0.000586	-0.000024	4507.057522	19401.571015	3298.137492	10694.112294
63.537000	-0.009695	-0.000812	-0.006241	-0.006394	4519.722934	19694.369090	3297.744623	10808.805728
64.066000	-0.007087	-0.001378	0.004091	-0.020844	4583.004785	20238.347870	3319.686791	11075.284236
64.540000	-0.007729	-0.001011	-0.014035	-0.022069	4585.209687	20301.816288	3304.586649	11098.268934
65.034500	-0.009282	0.001053	-0.013573	-0.024265	4587.647351	20472.875397	3306.922746	11139.675218
65.549000	-0.007274	0.000022	-0.010093	-0.023025	4590.561264	20381.444228	3308.901882	11116.264127
66.038500	-0.007022	0.001009	-0.002255	-0.027864	4610.026712	20616.892288	3320.300324	11207.971718
66.535500	-0.007474	0.000615	-0.008093	-0.028782	4611.821276	20638.232120	3315.837224	11225.485503
67.036000	-0.007507	-0.000779	-0.015556	-0.023562	4591.718558	20370.860070	3304.561774	11126.387640
67.538000	-0.005756	0.000126	0.006419	-0.025764	4606.823315	20495.962287	3326.343390	11168.048769
68.036500	-0.007813	0.000593	-0.009763	-0.027769	4606.624051	20596.121460	3313.425093	11206.163783
68.538000	-0.006158	-0.000255	0.005200	-0.028337	4615.174925	20584.751957	3327.599083	11216.981978
69.040000	-0.009137	-0.000604	-0.004441	-0.021804	4578.882045	20307.479250	3312.848672	11093.290137
69.536500	-0.011016	-0.000581	-0.009468	-0.022550	4574.613797	20338.266514	3309.035547	11107.325096
70.035500	-0.006239	-0.000286	0.002547	-0.025690	4604.685757	20476.338678	3322.705622	11166.648516
70.535000	-0.006660	-0.000828	0.003335	-0.025516	4602.408670	20447.485645	3323.268890	11163.350960
71.035500	-0.006504	0.000083	-0.007790	-0.024798	4600.256734	20455.216633	3312.530338	11149.747926
71.538000	-0.008482	0.000246	0.002352	-0.019378	4572.216449	20244.611055	3316.777062	11047.835389
72.036000	-0.008178	0.000403	-0.003381	-0.022071	4583.518584	20358.481777	3314.038695	11098.315798
72.536000	-0.006637	-0.000625	-0.000373	-0.021721	4588.031749	20303.317306	3316.431598	11091.732351
73.037000	-0.016602	-0.001426	-0.012004	-0.016741	4532.282562	20073.857095	3301.708540	10998.702235
73.537500	-0.010958	-0.000534	-0.004518	-0.016343	4551.633778	20093.352529	3307.922384	10991.315996
74.037000	-0.002409	0.000406	-0.000639	-0.020212	4598.382820	20284.236041	3314.831423	11063.434542
74.537500	-0.005678	0.000167	0.010177	-0.019547	4583.429302	20248.226151	3324.073187	11051.000745
75.035000	-0.009240	0.001214	-0.016804	-0.012110	4542.327103	19995.524012	3293.597086	10913.140868
75.538500	-0.006275	-0.000909	-0.001076	-0.018970	4578.990002	20182.448316	3313.324117	11040.207755
76.035500	-0.008083	0.000071	0.001032	-0.017976	4568.450587	20181.940378	3314.324358	11021.683083
76.538500	-0.005070	0.000226	0.001553	-0.017259	4577.082688	20159.626015	3314.147796	11008.336879
77.036500	-0.010113	-0.000202	-0.003545	-0.010834	4534.419725	19890.197071	3303.934953	10889.744846
77.535500	-0.008007	-0.000995	-0.001898	-0.016277	4562.375966	20072.534752	3310.186804	10990.091263
78.037000	-0.005563	-0.000339	0.001427	-0.015791	4569.707686	20079.271672	3312.718623	10981.081424
78.542500	-0.008351	-0.000773	0.002720	-0.015489	4558.151741	20050.226212	3313.606010	10975.477945
79.034500	-0.009764	-0.000316	-0.017956	-0.009688	4531.495930	19841.114858	3290.569166	10868.767639
79.537000	-0.010694	-0.001932	-0.002267	-0.010239	4530.106120	19799.754698	3304.532253	10878.841370
80.035500	-0.005965	0.000588	-0.003164	-0.012985	4557.713339	20005.302629	3306.155942	10929.245373
80.538000	-0.006769	-0.002099	-0.025671	-0.014434	4560.113750	19956.724179	3288.071982	10955.964009
81.035500	-0.009178	-0.001096	-0.001143	-0.008118	4527.894301	19749.987922	3303.660341	10840.135784
81.536000	-0.007785	-0.000481	-0.014481	-0.007642	4531.250420	19755.320852	3291.776316	10831.461343
82.036500	-0.002600	0.000024	0.007304	-0.011462	4564.586895	19923.528036	3314.105794	10901.242927
82.536500	-0.008577	-0.001414	0.003459	-0.012961	4547.924142	19925.915217	3312.005766	10928.807851
83.037000	-0.004326	0.000062	0.004757	-0.010523	4554.652387	19888.377374	3310.988845	10884.043934
83.534500	-0.007272	-0.001606	0.000192	-0.011690	4548.051566	19868.815051	3307.973096	10905.437369
84.035000	-0.007919	-0.001391	0.004301	-0.011249	4544.024926	19860.016404	3311.228668	10897.340716
84.538000	-0.000280	-0.001368	-0.006164	-0.010574	4569.953295	19834.642986	3301.424169	10884.968286
85.035500	-0.007064	-0.001612	-0.006132	-0.004853	4523.691371	19604.304466	3296.514406	10780.899058
85.535500	-0.006142	-0.000197	-0.000917	-0.003012	4520.343603	19588.011862	3299.419178	10747.702648
86.036000	-0.002672	-0.000749	0.010805	-0.008334	4552.663697	19771.759905	3314.441411	10844.064795
86.536000	-0.003641	-0.000045	0.000931	-0.008958	4551.383969	19823.261709	3306.215674	10855.441980
87.037000	-0.005026	-0.000868	-0.001242	-0.003393	4525.797802	19576.846505	3299.467187	10754.550083
87.537000	-0.005878	0.000080	-0.009178	-0.003004	4521.275693	19598.303965	3292.340187	10747.563704
88.040000	-0.000955	-0.000060	0.000111	-0.008673	4560.312916	19811.604600	3305.243836	10850.231175
88.540500	-0.000951	0.001191	-0.001654	-0.006314	4551.552501	19768.642530	3301.641820	10807.343206
89.034500	-0.002422	0.000784	0.003824	-0.006512	4546.834982	19760.570524	3306.609370	10810.941180
89.535000	-0.005312	-0.000297	-0.019751	-0.001730	4518.701562	19535.115681	3282.431029	10724.666000
90.035500	-0.002456	0.000628	-0.006730	-0.005904	4544.464315	19730.999437	3296.903145	10799.919848
90.535500	-0.002551	0.000451	0.005425	-0.005640	4543.137846	19713.962010	3307.251822	10795.136459
91.036000	0.001339	0.000177	-0.007123	-0.006692	4561.482019	19744.031294	3297.242359	10814.202433
91.536500	0.000198	0.000388	-0.000671	-0.005521	4552.874671	19706.934885	3301.806969	10792.976186
92.036500	-0.002026	0.000061	-0.004446	-0.006640	4548.775499	19737.543253	3299.504387	10813.260728
92.536500	0.000745	0.000200	-0.004789	-0.005676	4555.485858	19705.678296	3298.376867	10795.794021
93.037000	0.000652	0.000958	-0.000632	-0.005295	4553.720741	19720.195752	3301.644075	10788.884561
93.537000	-0.002553	0.000247	-0.004985	0.000803	4519.520606	19459.311304	3292.667697	10679.342795
94.035000	-0.003430	0.001357	-0.006293	-0.003587	4532.348523	19669.774425	3295.292745	10758.055436
94.535000	0.000991	0.001814	-0.007424	-0.003173	4547.109693	19671.412754	3293.974549	10750.603925
95.035500	-0.000779	0.000415	-0.003923	-0.003474	4541.680791	19629.164563	3297.226505	10756.014164
95.602500	-0.001528	0.000450	0.000396	-0.004262	4541.827139	19660.845882	3301.640391	10770.230241
96.036000	-0.000132	0.001539	-0.002696	-0.002553	4540.670882	19636.983570	3297.489773	10739.444252
96.536000	0.002247	0.000874	-0.003507	-0.003093	4551.468754	19632.195090	3297.256784	10749.161046
97.037000	0.001327	0.002474	0.003854	-0.001894	4543.620863	19647.578440	3302.589249	10727.601600
97.533500	0.000036	0.001416	-0.016040	-0.001753	4538.343793	19601.521261	3285.524688	10725.068571
98.037500	-0.001562	0.001129	-0.003220	-0.002071	4533.641542	19602.751427	3296.626055	10730.782566
98.538000	0.003847	0.002974	0.001738	-0.000460	4547.637326	19611.721920	3299.507313	10701.903718
99.035500	-0.001643	0.000612	0.002898	0.004412	4509.735905	19336.477432	3296.312523	10615.236467
