sample name	sample
index	562
start time	 03-16-2021  02:21:36 PM
880	0.090239
Peak Time (s)	181.536
Peak Height 	0.09024
calc peak height	180,183
Baseline Time (s)	11.037
Baseline Value 	-0.004081
subtract baseline	10,4
Abs	0.063863
Peak Time (s)	181.036
Peak Height 	0.06386
calc peak height	180,183
Baseline Time (s)	9.036
Baseline Value 	0.003295
subtract baseline	10,3
PK_550	0.032216
Peak Time (s)	180.037
Peak Height 	0.03222
calc peak height	180,183
Baseline Time (s)	11.537
Baseline Value 	8.3E-4
subtract baseline	10,2
PK_880	0.055860
Peak Time (s)	180.037
Peak Height 	0.05586
calc peak height	180,183
Baseline Time (s)	11.037
Baseline Value 	0.001225
subtract baseline	10,1


Time (s)	A880-A510	A880-A775	A880-A975	A880	I510	I775	I975	I880	
0.035500	-0.002452	-0.001237	-0.003143	0.004834	5512.857227	33700.766440	3551.651409	18260.327686
0.536500	-0.003452	-0.001200	0.000919	0.005492	5502.174527	33656.508248	3558.473450	18236.778163
1.039500	-0.002932	0.000030	-0.005309	0.003516	5518.273728	33885.720387	3549.961602	18307.637867
1.537500	-0.001341	-0.000697	-0.003387	-0.000303	5553.471420	34108.245374	3561.474171	18445.492389
2.037000	-0.003698	-0.000788	-0.001355	0.004765	5505.269769	33737.751831	3555.367845	18262.800644
2.537500	0.001514	-0.000105	0.004393	0.000414	5567.508262	34099.276310	3575.851163	18419.523601
3.035000	-0.001023	0.000510	-0.000313	-0.000951	5559.800494	34242.587123	3569.020344	18468.995255
3.534500	0.001613	-0.000259	-0.006047	0.000245	5569.270513	34100.379674	3555.023742	18425.659178
4.035500	0.001326	0.000131	-0.004637	0.000962	5562.662281	34076.737732	3556.412566	18399.691023
4.535500	0.001025	-0.000233	0.000574	0.001284	5558.579413	34027.236388	3566.281306	18388.059505
5.036000	0.000702	0.000062	-0.004822	0.000650	5560.618797	34094.224723	3556.667416	18410.974868
5.539500	0.000746	-0.000423	0.001077	0.000318	5563.091739	34083.267045	3569.269857	18423.011661
6.036500	-0.000001	-0.000378	-0.000022	0.000235	5558.728133	34092.527360	3567.202277	18426.018101
6.537000	0.000711	-0.000086	0.000585	0.000572	5561.190354	34089.199339	3567.749847	18413.802418
7.037500	-0.000292	-0.000490	-0.003201	0.000361	5555.992634	34075.271193	3560.511336	18421.436820
7.537500	-0.000770	-0.000455	0.002930	0.000151	5554.238782	34092.976319	3573.393725	18429.057779
8.034500	0.003480	0.000224	0.002996	0.000549	5579.579537	34113.233679	3572.713248	18414.628283
8.535500	-0.000170	-0.000827	0.001020	-0.000130	5560.012110	34086.359865	3570.064823	18439.215944
9.036000	0.000963	0.000298	0.000000	0.000422	5563.834694	34127.793177	3566.867107	18419.248814
9.536000	0.000651	-0.000236	0.002984	-0.000184	5565.758264	34132.957484	3574.187883	18441.168841
10.036000	-0.000158	0.000851	-0.002909	0.000003	5559.219846	34198.123357	3561.823611	18434.412882
10.536500	0.001705	0.000466	-0.000638	0.000969	5565.113335	34100.417083	3564.462723	18399.459824
11.036500	0.000000	-0.000499	0.001866	0.000000	5560.277236	34100.707967	3571.527133	18434.517953
11.536500	-0.002015	0.000000	-0.004587	-0.000472	5550.166043	34170.898986	3559.394955	18451.620054
12.037500	-0.000646	-0.000401	-0.001112	-0.000416	5558.768154	34137.851361	3566.308504	18449.586695
12.535000	0.002150	0.000984	0.000701	0.001144	5566.892583	34125.209137	3566.825037	18393.134559
13.035500	0.000339	0.000424	-0.000491	-0.001067	5569.523139	34244.806286	3568.896886	18473.228290
13.535500	0.000029	-0.000448	0.001420	-0.000768	5565.510283	34159.867223	3572.183787	18462.361605
14.041000	0.000744	-0.000835	-0.002406	0.000289	5563.269115	34055.642769	3562.262459	18424.067251
14.536000	-0.000068	-0.000464	-0.002825	0.002921	5540.730067	33892.985551	3556.118417	18329.051122
15.039000	0.001724	0.000091	0.004105	0.000654	5567.308948	34096.033140	3574.768503	18410.827653
15.536500	0.001208	-0.000683	0.000973	-0.001064	5575.228085	34164.301630	3571.875523	18473.116483
16.036500	0.001543	0.000515	0.001610	0.000279	5568.582896	34153.844219	3570.434024	18424.415733
16.537500	0.000720	0.000274	0.002212	-0.000130	5565.866073	34165.984931	3572.498679	18439.238926
17.034500	0.001268	-0.000734	-0.001812	-0.000773	5573.705762	34139.596497	3565.614427	18462.550629
17.535000	0.002364	0.000062	0.001693	-0.003206	5597.067708	34373.956792	3577.741201	18551.098798
18.035000	-0.001622	0.000384	0.001196	0.002027	5536.427134	34018.211768	3566.036440	18361.252822
18.535500	0.000952	-0.000238	-0.001038	0.001472	5556.870425	34013.394705	3562.635498	18381.287155
19.036000	-0.001078	-0.000528	0.003082	0.001454	5543.709742	33993.797427	3571.041550	18381.940746
19.536000	0.000072	-0.000533	0.000492	0.001382	5551.691233	33998.537036	3565.915479	18384.509900
20.036500	0.000142	-0.000647	0.001093	0.001575	5550.888049	33976.482941	3566.745096	18377.564887
20.536500	-0.001739	0.000187	0.005254	0.001998	5535.857356	34006.069830	3574.370073	18362.287446
21.037500	-0.000583	0.000443	0.001045	0.002774	5538.331583	33968.653460	3564.216136	18334.335026
21.534500	0.001034	0.000551	0.001937	0.002137	5553.043740	34022.301385	3567.318212	18357.276587
22.035000	0.002752	0.000239	0.001058	0.002047	5564.909822	34006.296735	3565.715627	18360.528575
22.535000	-0.002211	-0.001204	-0.000847	0.001049	5538.963665	33974.260025	3563.877885	18396.551811
23.035000	0.000888	0.000166	-0.000265	0.002073	5552.513142	33999.167253	3562.983354	18359.600886
23.535500	-0.000012	-0.000471	-0.000272	0.001340	5551.415386	34006.089367	3564.452050	18386.045095
24.036000	0.002572	0.000537	-0.000243	0.002291	5562.117701	34010.190226	3562.586284	18351.716513
24.539000	-0.000144	0.000090	-0.000071	0.002471	5543.164718	33965.081870	3562.569225	18345.235700
25.036500	0.001992	0.001070	0.003375	0.002537	5556.700657	34030.839142	3569.429584	18342.857768
25.536500	-0.002012	-0.000131	-0.001766	0.002299	5532.117828	33961.491860	3559.496980	18351.425725
26.037000	-0.000318	0.000757	-0.002298	0.002716	5540.433715	33995.460640	3557.589213	18336.430197
26.534500	0.001369	0.000156	0.001094	0.002239	5554.571548	33986.509008	3565.397740	18353.592101
27.034500	-0.000620	0.000059	-0.000012	0.002509	5539.813540	33960.073918	3562.612208	18343.857771
27.535500	0.004385	0.001740	0.004112	0.002326	5573.821674	34094.409313	3571.362673	18350.465278
28.035500	0.002969	0.001216	0.004526	-0.000966	5586.221614	34294.980895	3578.961055	18469.562456
28.536000	-0.000073	0.000466	-0.006514	0.000243	5558.204453	34152.929325	3554.091719	18425.721112
29.053000	0.003338	-0.000095	0.002182	0.000057	5581.896942	34125.810588	3572.056371	18432.464170
29.536500	0.000611	0.000192	-0.002520	0.000072	5563.817698	34145.446502	3562.468852	18431.906173
30.037000	0.000915	0.001291	0.004290	0.005344	5531.357629	33845.005348	3565.583390	18242.076113
30.537500	0.002191	0.001206	0.002694	0.001194	5566.830230	34137.622074	3570.779195	18391.313869
31.055000	0.003425	0.000085	0.003575	0.000005	5582.811542	34142.563724	3575.013059	18434.342280
31.535000	0.002089	0.000985	0.004433	0.004540	5544.234460	33880.742757	3567.504912	18270.866641
32.035000	-0.000370	0.000048	-0.000872	0.003942	5532.115654	33856.409660	3557.989674	18292.324148
32.547500	0.001487	0.000775	0.005558	0.001032	5563.264175	34118.227294	3576.974396	18397.177577
33.036000	0.003859	0.000668	0.001620	0.000451	5582.735502	34152.454694	3570.103675	18418.195393
33.536000	0.001715	0.001234	0.004963	0.000976	5565.126676	34155.408299	3575.866415	18399.179232
34.039500	-0.001091	0.000237	0.001640	0.007525	5504.281007	33614.130088	3555.838400	18164.201970
34.537000	0.004337	0.000791	0.003994	0.001524	5578.797896	34083.782784	3572.760810	18379.388494
35.037000	0.001745	-0.000030	0.002145	0.002702	5554.003450	33939.807659	3566.591825	18336.918501
35.537000	0.000133	-0.000885	-0.002342	0.002376	5545.593538	33901.791413	3558.181332	18348.651057
36.034500	0.002343	-0.000246	-0.001218	0.003551	5552.359976	33863.388226	3558.078859	18306.371081
36.535000	0.000827	0.000343	-0.001380	0.003667	5541.697534	33897.303374	3557.521442	18302.203829
37.035000	0.002156	0.000993	-0.004325	0.003900	5548.854891	33927.273780	3551.158613	18293.855883
37.535500	-0.000215	0.000903	-0.002182	0.004075	5532.258741	33908.225291	3555.093010	18287.557784
38.035500	0.000439	0.000846	-0.003909	0.003778	5538.446112	33925.427130	3552.232408	18298.223622
38.538500	0.000783	-0.000123	0.003181	0.002920	5546.288419	33917.534623	3568.256310	18329.085353
39.036500	0.001362	0.000798	-0.000130	0.003705	5544.939272	33927.196875	3559.959050	18300.830980
39.536500	0.002097	0.000968	0.001811	0.004111	5547.091603	33910.275538	3563.060145	18286.265909
40.037000	0.000642	0.000303	0.001267	0.003836	5539.390060	33882.327986	3562.514761	18296.132026
40.537000	0.000643	0.000967	0.003456	0.004033	5538.111814	33915.819297	3566.551097	18289.051705
41.037000	0.002791	0.000529	0.009123	0.004070	5551.894697	33881.768649	3578.058106	18287.735619
41.535000	-0.000049	0.001366	0.003365	0.004256	5532.159331	33928.442715	3565.913534	18281.063284
42.035500	0.000314	-0.000410	0.001680	0.003150	5541.724708	33880.350396	3564.739055	18320.796667
42.535500	-0.000101	-0.000573	0.007036	0.003239	5538.439442	33862.250126	3575.477452	18317.577710
43.036000	0.001843	-0.000174	-0.000697	0.003410	5550.015199	33878.676818	3559.412082	18311.452238
43.536500	-0.001020	0.000297	0.003275	0.003508	5530.714776	33905.433901	3567.250889	18307.935063
44.036500	0.001497	0.000615	0.002197	0.003985	5543.997942	33894.000256	3564.096896	18290.799661
44.537000	0.000901	0.000295	0.000239	0.003972	5540.194578	33871.984247	3560.167388	18291.268138
45.037000	0.003489	0.000816	0.010473	-0.000363	5585.670512	34222.133253	3590.032366	18447.662286
45.535000	0.000112	0.000756	-0.001811	0.001545	5550.889927	34079.752677	3560.926154	18378.645200
46.035000	-0.000513	0.000660	-0.002957	0.002400	5541.225139	34011.237780	3556.897994	18347.806725
46.535000	0.003236	0.000620	0.001405	0.001543	5571.410591	34070.115968	3567.444957	18378.719864
47.035500	0.001645	0.000756	0.002396	0.001174	5563.365314	34106.512891	3570.212087	18392.024253
47.536000	0.003652	0.000432	0.004908	0.001336	5575.522609	34071.447759	3575.016812	18386.192402
48.039000	0.000929	0.000388	0.001197	0.003517	5543.347479	33911.366671	3563.019796	18307.618436
48.547500	0.004487	0.001052	0.003830	0.001448	5580.290772	34108.125073	3572.580496	18382.123033
49.036500	0.003265	-0.000279	0.001926	0.004653	5551.185636	33782.154531	3562.196564	18266.828831
49.537500	0.002512	0.000428	-0.001388	0.002013	5563.555388	34022.389148	3560.835695	18361.765880
50.045500	0.001026	0.000880	0.006326	0.005064	5533.900237	33835.649471	3570.294283	18252.111069
50.537500	0.004761	0.000944	0.003792	0.001695	5580.470668	34082.485985	3571.998515	18373.215920
51.035000	0.003312	0.001040	0.007372	0.001506	5572.159524	34103.093408	3579.733643	18380.062209
51.535500	0.003298	0.000257	0.002535	-0.000870	5587.769828	34218.393096	3574.675790	18466.087692
52.035500	0.003399	0.001774	-0.000728	0.004922	5550.300336	33909.962993	3556.310832	18257.197074
52.536000	0.004774	0.003546	0.002098	-0.006262	5633.640092	34854.144977	3584.887962	18663.063825
53.035500	0.002802	-0.006394	0.005783	0.116190	4905.308568	26413.365784	3369.497743	14740.731825
53.536500	0.004322	-0.010270	0.005964	-0.042853	5887.337028	36583.654765	3672.777752	20066.409457
54.036000	0.004482	-0.020819	0.001107	-0.262937	7986.080893	57574.882378	4306.590765	31527.448658
54.536500	0.007351	-0.007381	0.009323	-0.123813	6565.265408	43793.155935	3884.509391	23625.470803
55.034500	-0.000941	-0.010120	-0.005306	-0.155169	6775.542048	46589.967794	3931.620070	25192.239648
55.535000	-0.002804	-0.008004	-0.004227	-0.152782	6735.952044	46562.703413	3927.873132	25068.994618
56.035000	-0.016869	-0.010741	-0.022564	-0.163772	6707.546137	47403.637964	3907.018289	25642.293729
56.535500	-0.004513	-0.006713	-0.018859	-0.228589	7484.935658	55077.363338	4115.922531	29335.260430
57.035500	0.001795	-0.003400	-0.009946	-0.223391	7497.155751	54850.543598	4128.217157	29018.333820
57.538500	0.003029	-0.000959	-0.013690	-0.206327	7325.807388	53124.879877	4060.686196	28004.258191
58.036500	0.001496	0.000004	-0.009181	-0.173519	6974.877977	49561.945700	3973.882371	26163.048804
58.537000	-0.000119	-0.001573	-0.012955	-0.141186	6654.189010	46044.449397	3871.033764	24479.572481
59.036500	0.003290	-0.000842	-0.003664	-0.109324	6404.057932	43048.357921	3810.950994	22938.840376
59.536500	0.003935	-0.001450	-0.003147	-0.090779	6254.894358	41308.864913	3765.154001	22092.718489
60.034500	0.002266	-0.002561	-0.003600	-0.068555	6065.134479	39290.776380	3710.186338	21125.267143
60.535000	0.006166	0.000833	-0.001869	-0.055576	5995.721533	38492.703080	3683.965359	20582.718918
61.035000	0.003861	0.000752	0.005418	-0.019444	5717.409158	35631.705647	3619.751578	19155.041816
61.536000	0.009086	0.000140	0.009070	-0.010200	5689.710730	34893.474996	3607.788214	18808.471324
62.036500	0.011744	0.005936	0.004865	-0.007374	5688.552003	35114.129493	3592.963354	18703.963582
62.536000	0.003977	0.001347	-0.000104	-0.010669	5658.040258	35017.805363	3589.468942	18825.877510
63.036500	0.008947	0.000800	0.015624	0.005385	5583.751636	33806.992545	3588.791546	18240.614377
63.536500	0.006725	0.002118	0.014318	0.019363	5478.522158	32914.119333	3557.525728	17748.337382
64.060500	0.009139	0.005018	0.008551	0.021420	5480.805470	32972.753019	3541.941053	17677.231319
64.536500	0.009835	0.006589	0.011545	0.014116	5532.322774	33597.183188	3562.512798	17931.287401
65.035000	0.012613	0.006760	0.014796	0.013174	5556.596899	33676.339299	3571.029604	17964.359516
65.549000	0.015069	0.007194	0.011247	0.012458	5577.465004	33758.389266	3565.264677	17989.534412
66.036000	0.012696	0.007458	0.014309	0.015131	5544.340194	33586.745021	3566.053051	17895.706859
66.535000	0.011022	0.005895	0.009541	0.014171	5539.683941	33543.906091	3558.358049	17929.332367
67.039000	0.014270	0.007751	0.017865	0.017633	5538.289437	33430.218494	3568.195373	17808.399972
67.536000	0.012545	0.007842	0.015692	0.018525	5521.297969	33373.639487	3561.981392	17777.407302
68.036500	0.015601	0.007809	0.012614	0.020953	5525.370560	33200.478220	3550.931340	17693.355108
68.539500	0.016304	0.008403	0.019411	0.022315	5521.098656	33146.674306	3561.839465	17646.401352
69.037000	0.017117	0.009105	0.017496	0.023764	5516.985155	33094.409532	3555.070925	17596.603838
69.535000	0.015675	0.008579	0.011406	0.024677	5501.799171	32993.925986	3541.147050	17565.306839
70.035000	0.014451	0.008637	0.014946	0.026584	5481.745318	32865.330934	3544.373772	17500.175481
70.535500	0.018250	0.009612	0.017475	0.027268	5501.697736	32885.586353	3548.035054	17476.891931
71.035000	0.018981	0.009688	0.022304	0.028505	5498.451798	32805.127181	3555.205708	17434.869955
71.539000	0.018643	0.010316	0.022032	0.029556	5489.547752	32775.774651	3552.556905	17399.243334
72.039000	0.018076	0.010943	0.014306	0.031379	5474.293980	32693.218357	3533.684657	17337.680682
72.542000	0.019386	0.009756	0.019978	0.031341	5482.883491	32613.965072	3544.919379	17338.935224
73.036500	0.020026	0.010185	0.017793	0.032354	5480.504079	32573.863532	3538.608174	17304.832846
73.537000	0.017517	0.010610	0.019518	0.032840	5461.457466	32569.657496	3541.047503	17288.485618
74.034500	0.020858	0.011430	0.023133	0.035581	5465.266018	32437.921045	3542.771720	17196.697198
74.535000	0.022017	0.011875	0.026474	0.035479	5473.278241	32475.431715	3549.603142	17200.120224
75.035500	0.021480	0.012635	0.021141	0.036841	5461.221096	32434.233678	3536.371934	17154.708796
75.535500	0.020312	0.011675	0.022387	0.036945	5453.177302	32361.506684	3538.612598	17151.239509
76.036000	0.019262	0.012190	0.021470	0.039049	5433.327752	32253.341296	3532.694332	17081.407150
76.536000	0.021770	0.012675	0.027670	0.038362	5453.433929	32333.091606	3546.248850	17104.159984
77.036500	0.023988	0.012904	0.026037	0.039514	5460.177096	32270.220427	3540.741942	17066.009142
77.537000	0.022768	0.012296	0.018786	0.039716	5451.186190	32215.212933	3526.175460	17059.324205
78.037000	0.023829	0.014215	0.030052	0.042429	5440.774841	32161.347824	3542.911462	16969.884724
78.537000	0.025536	0.013877	0.026849	0.041841	5455.249443	32178.282547	3537.761876	16989.230266
79.037500	0.027889	0.013123	0.028728	0.042141	5468.258243	32106.911093	3540.869358	16979.371945
79.535000	0.028037	0.014829	0.026588	0.044274	5455.676431	32078.065219	3532.485994	16909.400192
80.038000	0.023917	0.014042	0.027827	0.043584	5434.075648	32071.498534	3536.258770	16931.986351
80.535500	0.028802	0.014249	0.028457	0.044486	5459.175438	32024.549881	3535.726761	16902.452353
81.038500	0.025987	0.013792	0.027497	0.044190	5443.274069	32013.699962	3534.425762	16912.136176
81.536500	0.028430	0.014611	0.027156	0.046238	5445.764996	31930.972701	3529.764462	16845.287695
82.036500	0.024803	0.014931	0.021257	0.046406	5421.962968	31941.198044	3518.041163	16839.800269
82.537000	0.025814	0.014294	0.029805	0.046400	5428.321886	31898.777219	3534.619761	16840.016338
83.037000	0.027884	0.015967	0.029034	0.047285	5435.745160	31951.760174	3531.382075	16811.205770
83.537500	0.027239	0.015906	0.029469	0.049452	5418.160543	31802.251013	3528.014631	16740.986909
84.035000	0.028935	0.015745	0.028938	0.049008	5431.532398	31821.182094	3527.845127	16755.332932
84.535000	0.026310	0.014362	0.027248	0.047849	5422.358533	31806.161478	3526.812663	16792.884114
85.035000	0.029868	0.015782	0.028366	0.049274	5435.712649	31805.814710	3526.217599	16746.719074
85.535500	0.029737	0.016300	0.027447	0.051009	5424.030317	31724.490341	3521.092888	16690.721606
86.035500	0.025391	0.015494	0.024420	0.050044	5402.981723	31735.104656	3517.130846	16721.851509
86.536500	0.027297	0.015630	0.027896	0.049763	5416.573939	31762.930149	3524.362437	16730.908938
87.036500	0.029072	0.016738	0.036287	0.051002	5419.921461	31754.186947	3538.305229	16690.935634
87.537500	0.025467	0.015403	0.033130	0.052287	5389.574592	31579.636523	3529.617887	16649.595317
88.034500	0.028910	0.016393	0.027957	0.051605	5415.145491	31690.887682	3520.925347	16671.514466
88.535000	0.030524	0.016862	0.033027	0.052242	5421.246595	31679.725016	3529.506978	16651.053142
89.035000	0.031171	0.016653	0.034168	0.051744	5428.402125	31698.968276	3532.700650	16667.060939
89.535000	0.029379	0.016971	0.029896	0.055749	5392.353224	31454.089576	3516.690949	16538.822952
90.035500	0.030071	0.016946	0.036176	0.053213	5412.362462	31620.591211	3533.751981	16619.877971
90.539000	0.032412	0.017034	0.030936	0.053302	5426.414374	31620.552173	3523.398707	16617.031081
91.039000	0.030707	0.017702	0.035582	0.054144	5410.535831	31609.036679	3530.778457	16590.087166
91.536500	0.026018	0.018044	0.030728	0.057408	5361.527835	31415.316531	3515.106851	16486.055301
92.037000	0.029921	0.017686	0.033365	0.054985	5400.430765	31552.028103	3524.840498	16563.195537
92.537500	0.032288	0.017668	0.034237	0.054514	5418.068496	31582.104766	3527.442497	16578.235883
93.037000	0.031144	0.018414	0.026971	0.054914	5408.463789	31605.164904	3512.698249	16565.483321
93.535500	0.031578	0.018325	0.033324	0.059171	5384.809147	31317.639700	3516.701690	16430.197953
94.037500	0.030465	0.017086	0.038428	0.055998	5397.528661	31445.195640	3532.711993	16530.899260
94.535500	0.031296	0.018302	0.029732	0.055724	5404.377660	31543.955218	3516.425426	16539.643700
95.035500	0.034918	0.018301	0.036085	0.056135	5424.375633	31516.628233	3527.884581	16526.550025
95.538500	0.034075	0.018485	0.030410	0.056397	5417.476236	31511.449973	3516.435944	16518.215918
96.036000	0.032873	0.018453	0.032895	0.058059	5399.681634	31399.401842	3518.013207	16465.424201
96.536500	0.032015	0.018574	0.039485	0.057475	5397.983861	31445.942093	3531.892514	16483.934529
97.036500	0.033470	0.019010	0.039706	0.057813	5404.910580	31452.457197	3531.664415	16473.231839
97.544500	0.033024	0.018922	0.039598	0.058120	5400.236145	31426.325625	3530.855316	16463.483700
98.037000	0.035798	0.018992	0.034709	0.058418	5415.619813	31411.306218	3520.809412	16454.051591
98.534500	0.034415	0.019443	0.038403	0.058791	5404.704152	31416.458001	3527.226860	16442.242537
99.035500	0.034123	0.020644	0.040221	0.059733	5397.055772	31433.585809	3528.928992	16412.469634
99.536000	0.032510	0.019253	0.037373	0.058717	5393.364418	31408.809154	3525.375072	16444.584074
100.038500	0.037293	0.019375	0.036776	0.059062	5420.923662	31394.076602	3523.553786	16433.661978
100.536500	0.036724	0.020130	0.039151	0.059906	5412.115765	31388.172141	3526.515880	16406.988671
101.037500	0.034784	0.019929	0.033913	0.060065	5399.093723	31364.459464	3516.119262	16401.986985
101.536500	0.033049	0.019975	0.035933	0.064715	5359.845378	31062.539778	3511.099882	16256.051152
102.037000	0.033912	0.018877	0.037856	0.059615	5396.479077	31324.753197	3524.571670	16416.175207
102.537000	0.033981	0.019775	0.041414	0.060381	5392.171203	31333.449635	3529.989480	16392.011679
103.035000	0.035342	0.019447	0.033004	0.061336	5394.678337	31249.073900	3511.955337	16361.920761
103.535000	0.032294	0.019949	0.034577	0.064909	5354.059302	31048.132918	3508.154382	16249.992822
104.035500	0.036605	0.019977	0.041731	0.060850	5405.511239	31315.832015	3529.692560	16377.224040
104.538500	0.035716	0.020108	0.036728	0.060949	5399.387506	31317.987951	3519.822701	16374.109131
105.035500	0.033845	0.019438	0.041981	0.061126	5386.733210	31262.268099	3529.641849	16368.530139
105.536500	0.033451	0.019622	0.034797	0.065575	5357.051923	30983.431440	3507.309289	16229.217248
106.036500	0.036957	0.020203	0.035185	0.062335	5398.489655	31233.092413	3514.209618	16330.531361
106.537000	0.034640	0.019565	0.033913	0.061539	5389.090735	31243.532302	3513.301488	16355.553267
107.036500	0.035485	0.021822	0.033644	0.063140	5384.431419	31286.552691	3509.741026	16305.284565
107.537000	0.032843	0.019499	0.041183	0.067305	5342.836963	30863.146250	3516.174863	16175.417081
108.037500	0.036293	0.020549	0.043504	0.062478	5393.499105	31246.467155	3529.976192	16326.059244
108.535000	0.038420	0.021366	0.043366	0.064135	5396.400666	31191.360418	3526.486806	16274.144679
109.035500	0.035639	0.021240	0.039822	0.063532	5382.963049	31222.588200	3520.806933	16293.008210
109.536000	0.034032	0.020444	0.037264	0.068883	5340.481860	30822.197548	3505.717084	16126.547762
110.036000	0.040070	0.021731	0.041274	0.064825	5402.347368	31170.095000	3521.113252	16252.607581
110.536500	0.038711	0.021040	0.041584	0.064106	5398.387973	31171.936432	3523.097879	16275.073239
111.037000	0.036443	0.020866	0.035838	0.064175	5383.954035	31155.957417	3511.944596	16272.891611
111.537000	0.038296	0.022987	0.042199	0.065709	5385.920985	31194.394003	3521.191919	16225.037211
112.037000	0.037471	0.022237	0.041948	0.065688	5380.977818	31146.727260	3520.750506	16225.711438
112.535000	0.035084	0.021711	0.040073	0.065160	5369.564712	31146.839175	3518.159266	16242.148035
113.037500	0.038836	0.021251	0.043357	0.065125	5392.859019	31119.041844	3524.554698	16243.254582
113.535500	0.036603	0.021174	0.040161	0.070727	5344.885833	30750.212522	3507.710129	16069.654407
114.038500	0.033035	0.021196	0.038404	0.065821	5353.020737	31069.999713	3513.701571	16221.565334
114.537000	0.038932	0.022503	0.042567	0.066165	5387.027883	31132.888105	3521.022191	16210.844993
115.036000	0.039331	0.022450	0.043172	0.066247	5388.982185	31124.019877	3522.029868	16208.290847
115.536000	0.033641	0.021228	0.044367	0.072131	5318.529141	30663.257509	3513.037102	16026.495202
116.036500	0.038750	0.022568	0.041417	0.067273	5379.090860	31064.743450	3516.685612	16176.418764
116.537000	0.039001	0.021622	0.039056	0.066231	5387.047399	31071.000044	3514.161609	16208.787720
117.037000	0.041201	0.022483	0.043957	0.067114	5395.179388	31069.554324	3521.871192	16181.344227
117.537500	0.037897	0.021543	0.042033	0.073365	5336.747273	30604.244884	3506.260145	15988.682287
118.035000	0.037751	0.022474	0.036399	0.067840	5369.479581	31021.628888	3506.053906	16158.819613
118.535500	0.042073	0.023298	0.041037	0.068235	5393.640463	31049.632215	3514.117731	16146.598607
119.035500	0.039573	0.022508	0.040939	0.067814	5380.824553	31025.541880	3514.734948	16159.627186
119.536000	0.037504	0.022619	0.039170	0.073318	5334.655912	30676.402672	3500.950902	15990.129947
120.036000	0.040763	0.022477	0.041142	0.068583	5383.414593	30973.501065	3513.652735	16135.811904
120.536500	0.041635	0.022353	0.046580	0.067909	5392.950128	31009.309263	3525.404593	16156.704463
121.036500	0.038996	0.022212	0.040968	0.068116	5375.420651	30986.629583	3514.212855	16150.271782
121.537500	0.036002	0.022281	0.042097	0.073964	5321.707389	30613.129939	3505.249008	15970.366496
122.037500	0.041063	0.023245	0.046923	0.069499	5379.625261	30963.880470	3522.992841	16107.514515
122.535000	0.038009	0.022271	0.045602	0.068598	5366.424064	30959.178910	3522.184190	16135.374863
123.035500	0.040753	0.023098	0.042213	0.069253	5379.231476	30970.299479	3514.420435	16115.105153
123.538500	0.039754	0.023528	0.048543	0.069620	5370.847603	30974.365530	3525.891605	16103.767974
124.035500	0.043153	0.024021	0.043513	0.070836	5384.259329	30927.444435	3513.880680	16066.302792
124.536000	0.041737	0.023284	0.050587	0.070003	5380.669410	30933.658750	3529.114866	16091.946859
125.036500	0.039196	0.023486	0.046918	0.070355	5362.937260	30923.903150	3521.333468	16081.111336
125.537000	0.036040	0.023247	0.044182	0.076226	5308.365131	30530.080375	3504.915267	15901.433187
126.037000	0.038638	0.024176	0.039645	0.071827	5350.566471	30873.203829	3504.653962	16035.827991
126.537500	0.040396	0.024102	0.050148	0.071166	5365.314202	30911.300368	3526.005732	16056.144322
127.035000	0.041577	0.024094	0.050992	0.071731	5369.084808	30874.100851	3526.545866	16038.770053
127.536500	0.041719	0.024485	0.044775	0.071505	5371.341588	30914.171006	3515.012486	16045.729868
128.036000	0.039488	0.023499	0.045105	0.071128	5360.003683	30874.655060	3516.366297	16057.320777
128.535500	0.046061	0.023945	0.047601	0.071645	5397.211014	30870.013560	3520.164257	16041.409298
129.035500	0.044348	0.023604	0.048786	0.071390	5388.206126	30864.414465	3522.938824	16049.241842
129.536500	0.037270	0.023563	0.039870	0.077221	5309.771394	30486.594069	3494.951111	15871.197917
130.036500	0.042300	0.024568	0.047557	0.072354	5369.697473	30864.453559	3518.716441	16019.647828
130.537000	0.042681	0.024072	0.047149	0.071892	5374.867968	30862.281912	3518.821032	16033.848172
131.037500	0.042722	0.024314	0.045090	0.072198	5373.242480	30858.120024	3514.291211	16024.443673
131.537500	0.040397	0.024492	0.045879	0.078694	5319.695675	30451.944590	3503.460996	15826.617792
132.035000	0.042601	0.025896	0.053931	0.074423	5358.892832	30816.503056	3527.025356	15956.350938
132.535500	0.045744	0.024944	0.047964	0.073331	5384.851440	30825.550710	3517.623866	15989.731950
133.038000	0.043845	0.024745	0.044920	0.073183	5374.086178	30822.277237	3512.085852	15994.247386
133.536000	0.045566	0.025624	0.043270	0.074018	5379.524616	30825.074614	3507.366542	15968.712300
134.035500	0.043078	0.024947	0.044001	0.073983	5364.492688	30783.606915	3508.819832	15969.797760
134.536500	0.044888	0.025485	0.043760	0.074054	5375.137146	30813.786227	3508.225234	15967.605966
135.036500	0.043078	0.025802	0.050779	0.074208	5363.114834	30824.296721	3521.348117	15962.907822
135.537500	0.043822	0.025231	0.041816	0.073856	5369.816498	30810.137843	3504.921808	15973.651060
136.037000	0.044223	0.026267	0.045542	0.075120	5364.539428	30795.382640	3509.585208	15935.070249
136.535500	0.045452	0.026795	0.052514	0.075487	5369.810223	30805.837342	3522.225812	15923.896287
137.035000	0.046738	0.025220	0.048058	0.074554	5383.443398	30764.391524	3515.460198	15952.353103
137.538000	0.042830	0.024696	0.051768	0.074216	5361.552193	30752.358515	3523.239273	15962.658728
138.035500	0.044430	0.025439	0.048429	0.074524	5369.452604	30780.450429	3516.226779	15953.251854
138.536000	0.043865	0.026952	0.048563	0.076165	5355.977931	30772.139175	3513.346571	15903.266058
139.036500	0.042593	0.025565	0.049879	0.074913	5355.860734	30763.508126	3518.263168	15941.406551
139.536500	0.044160	0.025242	0.038235	0.080389	5332.145221	30391.626889	3486.039938	15775.458405
140.037000	0.045826	0.026767	0.052799	0.075815	5370.093630	30782.795789	3522.144667	15913.914635
140.537000	0.046453	0.025771	0.043721	0.075879	5373.545057	30714.462570	3504.699182	15911.968956
141.037500	0.048105	0.026546	0.047549	0.076420	5380.370489	30729.503896	3510.930309	15895.525050
141.536000	0.043431	0.025986	0.044061	0.079727	5331.740813	30481.321345	3498.102694	15795.416210
142.035000	0.046798	0.026941	0.049677	0.077577	5365.263361	30680.449295	3512.778569	15860.414520
142.536000	0.045200	0.025836	0.052551	0.075900	5365.746131	30717.314715	3521.502438	15911.334406
143.035500	0.045362	0.026678	0.051318	0.077097	5359.422738	30694.453046	3516.834150	15874.972763
143.536000	0.043390	0.026291	0.043211	0.081820	5318.889823	30367.304193	3492.608024	15732.438175
144.036500	0.047091	0.027476	0.047855	0.078087	5363.935755	30682.061587	3508.343492	15844.962704
144.536500	0.045989	0.027203	0.052150	0.077676	5359.713457	30690.917290	3517.317323	15857.413435
145.037000	0.046013	0.026157	0.050324	0.076892	5364.647978	30674.052643	3515.321507	15881.186641
145.537500	0.041406	0.026405	0.046488	0.080484	5315.002761	30459.746477	3501.236323	15772.611966
146.037500	0.047796	0.026747	0.052744	0.078108	5368.118626	30633.801340	3517.628376	15844.325748
146.535500	0.046293	0.027689	0.053071	0.078494	5356.575329	30669.567570	3517.514851	15832.635391
147.038000	0.046993	0.026679	0.048942	0.077634	5366.100093	30659.912240	3511.269231	15858.671528
147.536000	0.047194	0.027014	0.048456	0.082741	5336.264997	30354.712232	3500.691765	15704.830235
148.035500	0.045824	0.027702	0.050386	0.079065	5350.245612	30633.674923	3511.294397	15815.380391
148.536500	0.046444	0.026603	0.048134	0.078563	5357.085521	30595.384585	3507.970608	15830.576583
149.036500	0.048387	0.028281	0.054666	0.079748	5361.703037	30626.994089	3518.169628	15794.779101
149.536500	0.048136	0.026433	0.050312	0.078767	5366.166102	30571.416731	3511.721230	15824.399197
150.037000	0.048368	0.027157	0.051919	0.079726	5361.727346	30556.318313	3512.957317	15795.451044
150.535500	0.049058	0.027872	0.055036	0.079990	5364.324551	30585.256509	3518.414787	15787.484551
151.037500	0.048373	0.027603	0.051646	0.079364	5363.963968	30608.081924	3513.125753	15806.353948
151.535500	0.045800	0.027708	0.054033	0.082243	5330.854327	30430.619809	3512.187276	15719.759790
152.035500	0.048488	0.027836	0.058485	0.079798	5362.018362	30595.270967	3525.435475	15793.286983
152.535500	0.048843	0.028631	0.052934	0.080762	5358.301858	30584.389846	3512.916210	15764.242061
153.036000	0.048813	0.028312	0.056562	0.080245	5361.269478	30597.063656	3520.859073	15779.801055
153.536500	0.047868	0.027988	0.048396	0.082638	5340.973128	30423.294713	3500.773582	15707.923155
154.036500	0.047588	0.029428	0.053191	0.081596	5345.587482	30582.001512	3511.816422	15739.164653
154.534000	0.049137	0.028975	0.054024	0.081338	5356.580369	30569.500848	3513.895639	15746.914298
155.037000	0.048807	0.028050	0.058639	0.080656	5358.727956	30553.914890	3524.071593	15767.425884
155.537500	0.046810	0.027295	0.056875	0.082782	5333.698623	30369.966273	3516.586736	15703.597682
156.035000	0.047627	0.027217	0.056797	0.080763	5350.886044	30493.793975	3520.313535	15764.195586
156.538500	0.049281	0.028506	0.053390	0.081639	5355.621104	30520.173089	3512.112585	15737.870555
157.035500	0.052319	0.027672	0.048644	0.081312	5376.205257	30487.797356	3503.737036	15747.717296
157.535500	0.048159	0.028128	0.053423	0.083611	5336.841148	30370.221102	3508.426962	15678.803904
158.036000	0.050904	0.029846	0.056030	0.082806	5358.404035	30531.236748	3514.924953	15702.883808
158.536500	0.049845	0.028549	0.053860	0.081974	5357.021932	30501.550726	3512.371274	15727.827657
159.036500	0.050820	0.029231	0.059135	0.082594	5359.183700	30505.527091	3521.290709	15709.249438
159.537000	0.050640	0.028821	0.047697	0.084953	5343.742472	30329.022295	3495.129480	15638.773265
160.037500	0.049937	0.029499	0.057951	0.082947	5351.653358	30500.040736	3518.335225	15698.665720
160.535500	0.051582	0.029144	0.053062	0.082932	5361.775124	30478.350309	3509.031028	15699.120150
161.035500	0.051382	0.030513	0.055893	0.084334	5352.011075	30476.208070	3511.747602	15657.220483
161.535500	0.049627	0.030060	0.053947	0.084529	5340.171921	30434.834762	3507.680900	15651.396903
162.035500	0.049211	0.028807	0.054288	0.083183	5345.806658	30440.750851	3510.883436	15691.602368
162.535500	0.049092	0.029930	0.059272	0.083518	5343.055892	30491.120158	3519.775742	15681.588768
163.036500	0.049315	0.029449	0.056616	0.083295	5345.764019	30474.655104	3515.110380	15688.264624
163.536500	0.052215	0.029784	0.063703	0.086017	5346.842259	30322.546303	3523.499683	15607.109437
164.037000	0.053496	0.030215	0.055765	0.085184	5359.709406	30403.018017	3509.887396	15631.889704
164.537000	0.051580	0.029504	0.060858	0.084694	5351.022708	30388.933315	3520.564029	15646.489641
165.037000	0.053201	0.030552	0.055412	0.085149	5358.122999	30426.700280	3509.284827	15632.934257
165.535000	0.048497	0.030495	0.054270	0.087226	5317.097630	30290.927130	3503.194957	15571.216027
166.038000	0.051186	0.029239	0.060977	0.084730	5348.413250	30369.737718	3520.724892	15645.421869
166.535500	0.051835	0.030212	0.058235	0.085240	5349.251810	30399.167886	3514.485658	15630.205461
167.036000	0.051677	0.029751	0.057129	0.085200	5348.536129	30372.403369	3512.452643	15631.403362
167.536500	0.049657	0.029455	0.058239	0.085878	5332.197347	30310.469477	3513.275943	15611.231261
168.036500	0.052958	0.030309	0.058454	0.085960	5351.702865	30359.544878	3513.529743	15608.793138
168.536500	0.054524	0.030659	0.053902	0.086139	5360.154428	30370.451615	3504.548992	15603.467692
169.037000	0.054051	0.029650	0.059055	0.085894	5358.764074	30321.838797	3514.805042	15610.754422
169.537000	0.050374	0.029744	0.056850	0.085684	5337.704759	30341.221217	3511.001006	15617.010443
170.035000	0.052188	0.029896	0.053701	0.085406	5350.391466	30368.502096	3505.556153	15625.276088
170.538000	0.054237	0.030899	0.062919	0.086707	5354.940107	30349.593244	3520.656588	15586.607590
171.035500	0.053614	0.031957	0.059026	0.087354	5347.219394	30375.750103	3511.963531	15567.423370
171.535500	0.053752	0.030682	0.060582	0.086565	5352.856009	30344.815915	3516.442933	15590.831421
172.036000	0.054498	0.030937	0.054621	0.087281	5353.032150	30315.503668	3503.750858	15569.576693
172.536000	0.053946	0.030997	0.060091	0.087288	5349.634578	30318.854723	3514.120657	15569.373738
173.036500	0.053133	0.030738	0.054823	0.087170	5345.415096	30309.909426	3504.343512	15572.882734
173.537000	0.054830	0.030659	0.061952	0.087254	5355.222180	30299.563362	3517.747461	15570.379485
174.037000	0.053045	0.030057	0.059998	0.086703	5347.719704	30296.354324	3515.060340	15586.727852
174.537500	0.055375	0.031033	0.055297	0.087943	5354.348935	30279.582182	3503.777988	15549.983975
175.035000	0.053151	0.030453	0.061197	0.087371	5344.306716	30279.055476	3516.075316	15566.913084
175.537500	0.051892	0.030443	0.055618	0.087454	5336.180805	30273.216877	3505.308205	15564.471708
176.035500	0.052349	0.030620	0.055387	0.087643	5337.802538	30272.447023	3504.516011	15558.871330
176.536000	0.054106	0.031836	0.068717	0.088370	5344.036254	30303.437590	3528.653399	15537.336545
177.036000	0.054434	0.030471	0.057933	0.087629	5350.533713	30263.877534	3509.362289	15559.281448
177.536000	0.052127	0.031216	0.057725	0.090287	5320.512940	30142.829301	3503.937490	15480.800426
178.037000	0.052725	0.031958	0.056506	0.089253	5330.344184	30255.145227	3503.587896	15511.276044
178.537000	0.053885	0.031330	0.054173	0.088456	5342.179238	30265.922397	3500.697549	15534.816272
179.037500	0.055406	0.031920	0.057257	0.089191	5346.944881	30256.676860	3505.120679	15513.089454
179.534500	0.054570	0.031198	0.055853	0.089441	5340.358339	30195.138131	3502.002525	15505.714136
180.037500	0.055860	0.032216	0.063251	0.090206	5343.545777	30211.173726	3514.582950	15483.200078
180.535500	0.054033	0.031561	0.061260	0.088963	5339.998843	30248.398254	3513.154603	15519.826312
181.035500	0.052877	0.032004	0.063863	0.089281	5331.091783	30256.269429	3517.524835	15510.444435
181.536000	0.050816	0.030612	0.056280	0.090239	5312.935511	30107.771237	3501.306572	15482.226158
182.036000	0.054799	0.031113	0.054251	0.089195	5343.236282	30205.326283	3499.454629	15512.973706
182.536500	0.054462	0.031446	0.058853	0.089667	5338.338373	30196.592749	3507.242276	15499.078562
183.036500	0.053062	0.032412	0.059740	0.090092	5327.316978	30230.734364	3508.115840	15486.538907
183.537500	0.053668	0.032198	0.061537	0.092240	5318.039701	30081.603190	3507.451148	15423.461338
184.037500	0.053907	0.031235	0.057847	0.089710	5334.722761	30180.484278	3505.256599	15497.799533
184.534000	0.051145	0.032220	0.065087	0.090452	5313.629255	30195.892878	3517.627997	15475.963131
185.038000	0.058823	0.032406	0.060013	0.090846	5357.669133	30182.707597	3507.205008	15464.374208
185.572000	0.054440	0.032678	0.061056	0.092303	5322.299352	30107.900675	3506.421523	15421.598444
186.035000	0.053248	0.031729	0.064835	0.090440	5326.339086	30165.561990	3517.166909	15476.307435
186.558000	0.055609	0.032100	0.065324	0.090253	5341.735846	30200.833319	3518.463399	15481.808249
187.036500	0.056860	0.033246	0.064103	0.091179	5343.701166	30214.744582	3514.350788	15454.568436
187.536000	0.053326	0.032896	0.063103	0.093384	5309.131456	30053.556779	3508.251382	15389.987072
188.039500	0.056860	0.032885	0.063448	0.091711	5340.477709	30158.264270	3512.085921	15438.951296
188.537500	0.057794	0.032776	0.058460	0.091308	5348.593196	30176.882824	3503.398872	15450.804809
189.037500	0.056957	0.033432	0.062992	0.092296	5337.527185	30155.890162	3510.106406	15421.808616
