sample name	sample
index	286
start time	 02-25-2021  12:34:37 PM
880	-0.026625
Peak Time (s)	92.537
Peak Height 	-0.02663
calc peak height	90,93
Baseline Time (s)	11.037
Baseline Value 	-0.005799
subtract baseline	10,4
Abs	-0.007893
Peak Time (s)	92.537
Peak Height 	-0.007893
calc peak height	90,93
Baseline Time (s)	9.036
Baseline Value 	0.002658
subtract baseline	10,3
PK_550	-0.004928
Peak Time (s)	90.035
Peak Height 	-0.004928
calc peak height	90,93
Baseline Time (s)	8.536
Baseline Value 	5.453E-4
subtract baseline	10,2
PK_880	-0.010744
Peak Time (s)	91.036
Peak Height 	-0.01074
calc peak height	90,93
Baseline Time (s)	10.539
Baseline Value 	0.002971
subtract baseline	10,1


Time (s)	A880-A510	A880-A775	A880-A975	A880	I510	I775	I975	I880	
0.036000	-0.000533	-0.000529	-0.007602	0.001310	6875.657802	45801.098888	3990.438058	24226.907990
0.536500	-0.002779	-0.000263	-0.004645	0.005248	6820.221519	45440.477456	3988.035016	24034.772099
1.036500	-0.004057	-0.001016	-0.001146	0.003220	6826.907075	45565.329000	4001.640022	24133.494587
1.540000	0.000494	-0.000016	0.000607	0.001861	6879.952384	45797.345638	4009.377026	24199.914177
2.037000	-0.000104	0.000001	0.001372	0.001206	6880.468110	45863.619033	4012.925697	24232.005452
2.534500	-0.002869	-0.000159	-0.001589	0.002585	6843.184937	45711.879375	4002.114261	24164.484584
3.035000	-0.000111	-0.000781	-0.001456	-0.001917	6908.735278	46095.468935	4013.663496	24385.634289
3.535500	0.000351	-0.000726	0.002684	0.000524	6890.754900	45859.139491	4017.929515	24265.452766
4.036000	0.001129	-0.000784	-0.001810	0.000412	6898.835010	45864.539255	4006.963087	24270.951082
4.536000	-0.002533	-0.000699	0.003084	0.000116	6868.384779	45902.143968	4019.961859	24285.485320
5.036500	-0.000441	-0.000454	-0.000360	0.000592	6882.974403	45879.346478	4010.129406	24262.096729
5.536500	-0.001559	-0.000645	0.001536	0.000306	6875.454387	45888.699407	4015.590870	24276.138577
6.039500	0.000913	0.000140	-0.002748	0.001419	6887.748495	45856.367291	4002.133041	24221.561938
6.537500	-0.000544	-0.000599	0.001440	0.000258	6885.061712	45897.960967	4015.470735	24278.510527
7.034500	0.001293	0.000279	0.002101	0.000504	6899.482903	45960.453115	4016.511549	24266.409387
7.535000	0.000028	-0.000909	0.003215	-0.000529	6897.377807	45945.100600	4021.918307	24317.192529
8.035000	-0.001478	-0.000169	0.003506	0.000082	6878.213602	45957.982547	4021.113340	24287.181867
8.535500	-0.000617	0.000000	0.002209	0.000155	6885.335880	45967.459111	4017.662427	24283.576736
9.035500	0.000700	-0.000341	0.000000	-0.000351	6901.869331	45983.810784	4013.388953	24308.467642
9.536000	0.000393	0.000105	0.004292	-0.000151	6897.260807	46008.135568	4023.683390	24298.604358
10.036500	-0.000752	0.000248	0.001398	0.000263	6883.136512	45981.309454	4015.354129	24278.261968
10.539000	0.000000	-0.000190	-0.003389	-0.000517	6897.013617	46015.129350	4005.344890	24316.606890
11.037000	0.000967	0.000168	-0.000853	0.000000	6901.101623	45999.450905	4010.377422	24291.193632
11.537000	-0.001582	-0.000430	-0.004013	0.002453	6855.905143	45698.138163	3996.449193	24170.919580
12.037500	-0.001652	-0.001205	0.000753	-0.000681	6883.528123	45930.917039	4016.102446	24324.692440
12.535000	0.000620	-0.000908	0.001538	-0.000867	6905.829814	45978.727575	4018.543583	24333.851992
13.035000	0.000236	-0.000320	0.004661	-0.002433	6916.601252	46192.560172	4030.406107	24411.133967
13.535500	-0.004918	-0.000944	-0.000807	0.002536	6825.319680	45639.550438	4004.177332	24166.889377
14.036000	-0.002285	-0.000379	-0.000567	0.000373	6868.303255	45908.310199	4010.159530	24272.846131
14.536500	-0.002502	-0.000824	-0.002514	0.001680	6854.591520	45735.536076	4002.065650	24208.748344
15.036500	-0.000509	0.000209	-0.002767	0.000078	6887.011469	45995.813654	4005.414761	24287.367194
15.550500	-0.000533	-0.000514	0.001304	0.001961	6869.781111	45738.343066	4010.867360	24195.010191
16.037000	-0.001697	0.000299	0.001885	-0.000172	6878.525666	46029.446854	4017.667229	24299.630978
16.537000	-0.000200	-0.000413	0.003154	-0.000657	6896.475411	46006.986756	4022.088035	24323.522996
17.035000	-0.000751	0.000090	0.001730	-0.000179	6887.142500	46009.444123	4017.297960	24299.991643
17.535500	-0.003730	-0.000461	0.000896	0.000923	6850.368135	45845.912772	4012.440785	24245.863806
18.035500	0.000668	0.000004	0.004123	-0.000131	6899.577767	45996.230771	4023.206982	24297.651853
18.536000	-0.001517	-0.000514	0.006687	0.000829	6871.109902	45849.978054	4027.267297	24250.464700
19.036000	-0.001281	-0.000435	0.001268	0.001076	6871.017903	45833.420110	4012.991436	24238.370456
19.536000	-0.002865	-0.000811	-0.003138	0.000653	6860.557986	45838.071041	4003.064082	24259.124041
20.036500	-0.002153	-0.000613	-0.001022	0.000654	6866.959790	45857.494496	4008.322993	24259.068484
20.537000	0.001246	0.000527	-0.000275	0.001566	6889.422848	45879.926597	4007.911721	24214.322707
21.037500	-0.000769	0.000131	0.002333	0.001365	6873.026851	45860.709485	4014.933906	24224.171891
21.537500	-0.001226	-0.000462	0.000901	0.001278	6869.693559	45810.846083	4011.568047	24228.470710
22.034500	0.000950	-0.000058	0.001031	0.001160	6890.423221	45862.366107	4012.186537	24234.254375
22.535500	-0.001336	0.000377	0.001597	0.001551	6866.238920	45866.752888	4012.625988	24215.099118
23.035500	0.000230	0.000458	0.003730	0.001835	6877.801140	45846.604476	4017.263015	24201.173172
23.535500	-0.000035	-0.000103	0.001123	0.001182	6881.313538	45855.769300	4012.361825	24233.179532
24.036000	-0.000606	-0.000730	-0.000532	0.000517	6882.152296	45859.421237	4009.886055	24265.779144
24.539000	-0.000139	-0.000232	0.003307	0.001117	6880.957995	45849.424394	4018.002846	24236.340854
25.036500	-0.002040	-0.000132	-0.002851	0.000941	6865.399866	45876.716881	4003.062964	24245.004709
25.537000	-0.002863	-0.000311	0.002130	0.001273	6855.013320	45826.242837	4014.657195	24228.724921
26.037000	0.000155	-0.000181	-0.000151	0.001324	6881.740921	45834.039432	4008.825635	24226.214362
26.535000	-0.000398	-0.000426	0.003825	0.001005	6879.621941	45841.314979	4019.588819	24241.836765
27.035000	-0.001062	-0.000871	-0.002705	0.000857	6874.961785	45812.007383	4003.633669	24249.097144
27.538500	-0.000258	0.000323	0.004616	-0.000271	6892.439778	46041.659308	4024.806554	24304.514839
28.035500	0.001691	-0.000132	-0.000376	-0.002674	6932.099102	46235.365393	4018.274910	24423.062863
28.536000	-0.004991	-0.000454	-0.002976	0.004790	6804.641205	45466.605292	3993.249445	24057.015915
29.039000	0.000004	0.000251	0.003065	-0.000314	6895.209764	46038.829795	4020.996734	24306.630647
29.536500	-0.000435	-0.000086	0.002312	-0.000381	6891.842775	46012.045356	4019.270864	24309.953085
30.037000	-0.000959	0.000272	0.003201	-0.000362	6886.919421	46045.648948	4021.461127	24309.001787
30.537500	-0.004178	-0.000312	-0.004899	0.005386	6806.562799	45422.171080	3987.075951	24028.057413
31.069500	-0.000050	0.000244	0.004671	-0.000122	6892.983468	46019.048751	4024.570640	24297.197873
31.534500	-0.002483	-0.000359	0.002553	0.002280	6849.380855	45722.249701	4013.193009	24179.389293
32.035000	-0.002029	0.000059	0.000336	0.001317	6862.104520	45858.362752	4010.056454	24226.544645
32.568500	-0.003986	-0.000032	0.001355	0.005040	6811.335310	45483.377361	4003.327729	24044.849144
33.035500	0.000896	-0.000035	-0.001489	-0.000096	6901.337795	45988.836992	4009.031115	24295.931569
33.536000	-0.000397	-0.000430	0.001283	0.000746	6881.971313	45866.426335	4013.853880	24254.528653
34.036500	0.000724	-0.000049	0.003767	-0.000213	6900.830667	45999.058141	4022.514937	24301.682446
34.536500	-0.003270	-0.000058	-0.002890	0.004416	6823.253567	45541.958824	3994.380407	24075.200979
35.036500	-0.003198	-0.000625	0.000004	0.001498	6849.982798	45773.079760	4008.777539	24217.688459
35.537500	-0.000780	0.000087	-0.002222	0.001940	6867.746471	45799.734871	4002.146572	24196.057265
36.035000	-0.001603	0.000389	-0.000526	0.002285	6857.231908	45795.405458	4005.497783	24179.160256
36.535000	-0.002283	-0.000511	-0.005915	0.002798	6846.535917	45656.304855	3990.923865	24154.097382
37.035500	-0.000230	-0.000204	0.004860	0.002091	6871.340244	45756.100781	4019.460354	24188.645492
37.535500	-0.000386	-0.000000	0.001354	0.002158	6869.328431	45769.601555	4010.499278	24185.369529
38.036000	0.001374	0.000543	0.002401	0.002647	6880.799986	45774.907660	4011.892991	24161.437956
38.536500	-0.000044	0.000373	-0.000047	0.002119	6872.760490	45810.183182	4007.103965	24187.269031
39.036000	-0.000914	-0.000091	0.000274	0.001762	6868.132450	45799.627314	4008.790243	24204.725213
39.537000	-0.002958	-0.000459	-0.001584	0.001478	6852.318978	45791.425906	4004.875987	24218.677601
40.037000	-0.001866	-0.000503	-0.002832	0.001427	6862.586845	45792.093239	4001.904494	24221.174473
40.537500	-0.001817	-0.000492	-0.002739	0.001575	6861.693145	45778.638003	4001.768574	24213.922121
41.037000	-0.002690	-0.000580	0.002957	0.001452	6854.952449	45781.984462	4016.281194	24219.915959
41.535000	-0.003477	-0.000125	-0.000079	0.001563	6846.893041	45815.979812	4008.408270	24214.494165
42.035000	-0.001949	-0.000525	0.001615	0.001398	6862.092464	45792.762219	4013.052889	24222.560107
42.536000	-0.000961	-0.000119	-0.002402	0.001760	6867.736985	45797.117323	4002.146124	24204.858077
43.039000	-0.000602	-0.000242	0.002467	0.001376	6874.432027	45822.838077	4015.243754	24223.656092
43.536000	-0.001425	-0.001037	-0.001304	0.001264	6868.022911	45755.523335	4006.104103	24229.161152
44.036500	-0.002639	-0.000185	-0.000953	0.001491	6855.066335	45817.145250	4006.412591	24218.040401
44.537000	-0.001998	-0.000118	0.000442	0.002534	6851.452601	45720.936148	4007.286087	24166.978776
45.037500	0.000913	0.000637	-0.001069	-0.000233	6902.736499	46069.129408	4010.420921	24302.671344
45.537500	-0.003148	0.000627	0.000699	0.004374	6824.717342	45613.253136	4003.352827	24077.229855
46.057500	0.001980	0.000506	0.001653	-0.000120	6911.413858	46044.781205	4016.954820	24297.079024
46.535000	-0.003509	-0.001385	-0.000620	0.004515	6820.250620	45402.408567	3999.736385	24070.387896
47.035500	-0.000746	0.000009	0.005287	-0.000259	6887.910604	46009.396863	4026.477650	24303.928865
47.538500	-0.001033	0.000148	0.001819	0.002176	6863.337211	45782.403777	4011.617106	24184.493882
48.036000	0.000135	0.000178	0.002458	0.000021	6893.359813	45998.313611	4018.624263	24290.154464
48.536500	-0.004043	0.000264	-0.001215	0.004402	6816.499234	45574.842056	3998.542834	24075.863682
49.037000	-0.003338	0.000488	0.001890	0.002892	6836.248286	45745.341059	4010.006258	24149.489446
49.537000	-0.004993	-0.000453	-0.002299	0.003325	6817.629106	45610.308559	3998.527738	24128.369507
50.037500	0.000552	0.000206	0.001139	-0.000172	6898.894152	46020.264708	4015.793803	24299.636149
50.535000	-0.005266	-0.000437	-0.000899	0.005059	6799.824820	45441.951685	3997.702407	24043.951325
51.034500	0.002134	0.000466	0.003967	-0.001346	6924.003824	46162.648324	4025.885307	24357.471392
51.535500	-0.001137	0.000352	0.007347	0.002045	6863.577583	45815.469292	4025.858780	24190.884511
52.038500	-0.001632	0.000211	0.003393	0.002113	6858.522753	45794.861264	4015.717012	24187.564393
52.535500	-0.003135	-0.003981	-0.005271	0.012509	6753.018020	44380.225949	3968.917231	23685.023528
53.036500	-0.025059	-0.014795	0.001546	0.168567	5475.972632	31169.015275	3665.550447	17423.184324
53.536000	-0.025588	-0.024071	-0.013350	-0.083861	7457.732352	52331.451045	4204.083404	28838.809264
54.036500	-0.039098	-0.148173	-0.014146	-0.310906	10317.330211	65535.000000	5077.989773	46623.595343
54.537000	-0.036991	-0.166028	-0.007936	-0.328761	10663.647194	65535.000000	5200.618241	48456.956367
55.035000	-0.044372	-0.134342	-0.008297	-0.297075	10000.478106	65535.000000	5038.795896	45254.339931
55.535000	-0.041449	-0.114435	-0.002417	-0.277168	9730.263628	65535.000000	4971.637131	43358.595599
56.035500	-0.035918	-0.104432	-0.005438	-0.267164	9660.840257	65535.000000	4911.192907	42438.254969
56.535500	-0.024245	-0.099665	-0.012782	-0.262397	9768.322811	65535.000000	4856.591122	42007.083612
57.035500	-0.022751	-0.095121	-0.008209	-0.257854	9720.656649	65535.000000	4856.722239	41600.530750
57.536000	-0.020040	-0.064975	-0.010666	-0.221127	9210.947842	64594.125913	4690.130388	38465.627825
58.036000	-0.020885	-0.040638	-0.005891	-0.178742	8618.209663	62085.607080	4543.765079	35162.390703
58.536500	-0.019239	-0.032262	-0.006869	-0.161252	8415.323391	60858.019227	4476.405860	33890.581096
59.036500	-0.019029	-0.022264	-0.010479	-0.121480	7939.885472	57022.316897	4328.993712	31182.138513
59.537000	-0.017384	-0.019359	-0.008446	-0.094856	7661.259798	54149.449731	4251.746456	29502.835424
60.037500	-0.014304	-0.013658	-0.003703	-0.060218	7331.398695	50850.379333	4163.542618	27466.619221
60.535500	-0.016293	-0.012582	-0.008306	-0.036732	7082.061462	48442.390684	4086.020595	26175.543092
61.035500	-0.016182	-0.014307	-0.008196	-0.023556	6959.754297	46908.739713	4051.634748	25481.226312
61.536000	-0.021821	-0.012751	-0.013765	-0.016549	6844.819121	46360.642129	4019.498361	25120.471601
62.036000	-0.019094	-0.012005	-0.010772	-0.012708	6834.847408	46052.450138	4017.364146	24925.139430
62.536000	-0.020416	-0.012529	-0.012025	-0.010396	6802.520644	45772.020231	4008.440649	24808.424551
63.036500	-0.015440	-0.007923	-0.010927	-0.013487	6874.654069	46537.427829	4018.934266	24964.608947
63.537000	-0.012461	-0.005198	-0.015809	-0.022197	6981.597922	47699.826902	4028.612398	25410.788099
64.062000	-0.011910	-0.004917	-0.014922	-0.035353	7110.717376	49105.456092	4064.858452	26101.897951
64.537000	-0.013181	-0.004651	-0.019554	-0.034111	7086.728881	49001.774750	4049.552519	26035.726171
65.041500	-0.011746	-0.005493	-0.019719	-0.036937	7127.464519	49212.474408	4056.458786	26186.477644
65.540500	-0.009189	-0.004736	-0.014034	-0.036337	7146.309940	49229.280846	4069.776632	26154.408686
66.038000	-0.010818	-0.004714	-0.018015	-0.036315	7130.411041	49229.258050	4059.279641	26153.224380
66.536000	-0.009827	-0.004434	-0.020710	-0.035818	7135.170755	49206.247185	4050.981847	26126.707706
67.036000	-0.010169	-0.003571	-0.011533	-0.034719	7121.320281	49181.092945	4072.105741	26068.097258
67.536500	-0.013638	-0.002840	-0.014753	-0.031704	7059.579529	48938.717040	4055.766965	25908.108504
68.037500	-0.012370	-0.003568	-0.019333	-0.034501	7098.173607	49158.202748	4051.135187	26056.462670
68.537000	-0.011154	-0.003031	-0.014110	-0.031918	7085.148057	48941.051908	4057.996148	25919.397612
69.037500	-0.009304	-0.002538	-0.018941	-0.033723	7120.056314	49185.008702	4050.134052	26015.088029
69.534500	-0.011086	-0.001781	-0.014057	-0.031803	7084.709360	49061.431563	4057.837162	25913.329208
70.035000	-0.009483	-0.002493	-0.017610	-0.033251	7113.825365	49139.613527	4052.361806	25990.069461
70.538000	-0.012095	-0.002365	-0.011621	-0.031426	7071.550159	48959.536373	4063.217033	25893.396553
71.035000	-0.009515	-0.002307	-0.013389	-0.032979	7110.906907	49130.461209	4062.652938	25975.618939
71.536000	-0.012357	-0.001806	-0.015122	-0.029165	7047.704208	48779.716557	4048.226060	25774.232172
72.036500	-0.010579	-0.002514	-0.014855	-0.031664	7088.207379	48968.976388	4055.396180	25905.960718
72.536000	-0.012139	-0.001481	-0.020432	-0.029033	7048.507441	48799.917703	4034.246585	25767.244533
73.036500	-0.007321	-0.001770	-0.016777	-0.030592	7109.064515	48934.248044	4047.635059	25849.374603
73.537000	-0.010336	-0.001316	-0.018400	-0.027426	7050.352155	48648.012846	4035.329693	25682.936716
74.037000	-0.010888	-0.000638	-0.016468	-0.028807	7058.186705	48865.181283	4043.828923	25755.414575
74.534500	-0.011609	-0.000216	-0.018354	-0.027375	7037.895296	48758.489281	4035.319486	25680.280745
75.035000	-0.012425	-0.001035	-0.012630	-0.029104	7046.481793	48854.520494	4054.523821	25770.977059
75.535500	-0.011592	-0.001055	-0.018401	-0.026314	7028.089299	48558.612460	4032.489989	25624.785748
76.035500	-0.011610	-0.000716	-0.015535	-0.029060	7053.746960	48883.623285	4046.884109	25768.663254
76.536000	-0.010257	-0.001750	-0.018262	-0.028127	7057.724686	48676.194701	4037.478798	25719.702429
77.036500	-0.010659	-0.000641	-0.014738	-0.028937	7061.575136	48878.535425	4048.627416	25762.202207
77.537000	-0.010451	-0.000917	-0.016378	-0.026696	7042.399370	48613.334875	4038.638386	25644.780733
78.037000	-0.008192	-0.001261	-0.017998	-0.028950	7085.094004	48814.528068	4040.263435	25762.910697
78.537000	-0.010221	-0.000177	-0.014816	-0.027345	7050.681462	48759.576001	4044.317277	25678.731413
79.034500	-0.011745	-0.001100	-0.016409	-0.028929	7051.248325	48829.265619	4044.294590	25761.809984
79.535000	-0.010636	-0.001021	-0.016154	-0.028715	7059.695738	48814.945698	4044.400455	25750.555620
80.035500	-0.008295	-0.001732	-0.012707	-0.029264	7087.099543	48797.911494	4054.740422	25779.412541
80.536000	-0.009813	-0.001910	-0.017952	-0.028341	7063.938788	48681.888425	4038.820284	25730.930778
81.036000	-0.010375	-0.001871	-0.016977	-0.029869	7073.090666	48847.163191	4045.254189	25811.263353
81.539000	-0.010995	-0.001609	-0.011552	-0.029496	7063.682259	48835.409547	4058.352198	25791.606983
82.036500	-0.011062	-0.002082	-0.013594	-0.030257	7070.256893	48865.780408	4055.016462	25831.686564
82.537000	-0.008950	-0.001876	-0.018735	-0.029602	7084.087060	48818.444814	4040.044717	25797.203000
83.037000	-0.010053	-0.002193	-0.012167	-0.030049	7077.860162	48832.120620	4058.191490	25820.746719
83.537500	-0.010833	-0.002089	-0.012686	-0.029615	7066.346659	48797.284646	4055.707165	25797.881473
84.035000	-0.011823	-0.002813	-0.017213	-0.030438	7064.767417	48807.700657	4046.111899	25841.238095
84.538000	-0.008769	-0.001440	-0.007631	-0.029212	7082.097085	48823.157781	4067.874804	25776.658236
85.035500	-0.010939	-0.003110	-0.007371	-0.030025	7069.231964	48732.848124	4070.703611	25819.488449
85.535500	-0.010197	-0.002823	-0.015912	-0.029722	7073.384399	48731.154019	4047.622373	25803.491208
86.036500	-0.011931	-0.003772	-0.016212	-0.030188	7061.379726	48680.372136	4048.053251	25828.076165
86.536000	-0.010505	-0.004096	-0.012813	-0.030353	7076.445499	48663.517907	4057.298990	25836.740348
87.037000	-0.010407	-0.003330	-0.013045	-0.029144	7065.925995	48617.014149	4053.551604	25773.128421
87.537000	-0.010557	-0.004291	-0.011139	-0.029685	7069.622538	48572.871681	4059.924349	25801.569388
88.037000	-0.009185	-0.004402	-0.014090	-0.029563	7081.487632	48548.334951	4051.926487	25795.140617
88.537500	-0.011448	-0.004552	-0.016031	-0.028358	7048.665400	48406.432046	4043.799625	25731.844178
89.038000	-0.009869	-0.004365	-0.010737	-0.028740	7067.189271	48466.008475	4058.505916	25751.870415
89.535000	-0.011917	-0.005090	-0.016853	-0.026929	7030.810223	48201.059477	4038.018553	25656.950300
90.035500	-0.013987	-0.004928	-0.009227	-0.028590	7026.969407	48391.349247	4062.058563	25744.001050
90.536000	-0.011331	-0.005991	-0.008618	-0.028428	7050.424934	48263.372089	4063.226724	25735.471480
91.036000	-0.010744	-0.005903	-0.011233	-0.029067	7062.001284	48339.325643	4058.066019	25769.058967
91.536500	-0.012344	-0.006008	-0.011724	-0.028453	7041.121470	48264.196966	4055.187240	25736.810396
92.037000	-0.012285	-0.006395	-0.013365	-0.027854	7036.045048	48161.544575	4049.376559	25705.384534
92.537000	-0.012364	-0.005994	-0.007893	-0.026625	7023.769667	48075.456609	4060.408348	25641.055876
93.037500	-0.013138	-0.006830	-0.013694	-0.027668	7026.288855	48096.891108	4048.043715	25695.620028
93.540500	-0.011281	-0.006443	-0.007441	-0.026676	7034.399253	48034.083521	4061.723015	25643.698008
94.038000	-0.014277	-0.007078	-0.011080	-0.026957	7008.976282	47997.355743	4052.974737	25658.404276
94.535000	-0.015516	-0.008164	-0.010795	-0.027480	7002.296506	47939.051741	4055.071683	25685.764175
95.035500	-0.015436	-0.008166	-0.014429	-0.026829	6996.986531	47871.562536	4043.986773	25651.739732
95.558000	-0.016185	-0.007631	-0.011197	-0.024709	6970.368764	47707.879463	4046.850972	25541.103545
96.058000	-0.016771	-0.008141	-0.011278	-0.026546	6981.953218	47844.851833	4051.394771	25636.910978
96.537000	-0.012565	-0.007935	-0.009701	-0.025326	7009.739395	47740.193708	4052.320923	25573.253088
97.036500	-0.014811	-0.009110	-0.013968	-0.025385	6989.371996	47625.334174	4041.458036	25576.349711
97.537000	-0.015661	-0.007848	-0.014163	-0.020880	6939.929304	47293.103228	4029.448695	25342.746260
98.061500	-0.014563	-0.008137	-0.007965	-0.023646	6975.537185	47546.543452	4052.465261	25485.862011
98.538000	-0.014780	-0.008357	-0.015494	-0.023835	6975.290242	47543.504118	4033.585422	25495.713235
