sample name	sample
index	823
start time	 03-31-2021  04:03:09 PM
880	0.025438
Peak Time (s)	91.036
Peak Height 	0.02544
calc peak height	90,93
Baseline Time (s)	8.536
Baseline Value 	-0.003972
subtract baseline	10,4
Abs	0.017406
Peak Time (s)	91.537
Peak Height 	0.01741
calc peak height	90,93
Baseline Time (s)	10.036
Baseline Value 	0.002303
subtract baseline	10,3
PK_550	0.021632
Peak Time (s)	91.036
Peak Height 	0.02163
calc peak height	90,93
Baseline Time (s)	10.036
Baseline Value 	-4.2536E-4
subtract baseline	10,2
PK_880	0.026652
Peak Time (s)	91.036
Peak Height 	0.02665
calc peak height	90,93
Baseline Time (s)	10.036
Baseline Value 	1.9733E-4
subtract baseline	10,1


Time (s)	A880-A510	A880-A775	A880-A975	A880	I510	I775	I975	I880	
0.036000	0.000589	-0.000165	-0.002751	0.001773	6567.988308	38659.911875	4028.731931	21228.010234
0.536500	0.001308	-0.000026	-0.012306	0.003351	6561.225773	38542.523379	4005.604542	21162.395116
1.037000	0.000877	0.000412	-0.002025	0.003756	6554.663441	38545.253427	4026.088997	21145.597825
1.537000	-0.003608	-0.000774	-0.007467	0.006912	6495.231891	38193.334420	4008.228850	21015.190573
2.037000	0.001428	0.000450	0.002568	0.001346	6577.967234	38745.111260	4040.899501	21245.770165
2.538000	0.001575	0.000569	-0.005381	0.001772	6575.757737	38719.932008	4023.215176	21228.020095
3.035000	0.002614	0.001157	0.002013	-0.000715	6603.710075	38972.476107	4044.114276	21331.900505
3.534500	-0.002175	-0.000035	-0.000778	0.004604	6524.197547	38439.954667	4026.927549	21110.469033
4.036000	0.000977	0.001375	-0.001481	0.000718	6579.357588	38872.489604	4033.633052	21271.968977
4.536000	-0.000276	0.000383	-0.001717	0.000333	6572.516493	38822.718434	4033.951249	21288.080493
5.036000	0.000461	0.000362	0.001162	0.000841	6574.321927	38779.300208	4038.982197	21266.868085
5.536500	-0.004207	-0.000395	-0.001326	0.004492	6509.307470	38419.781445	4026.012362	21115.100218
6.037000	0.001299	0.000873	-0.002844	0.000691	6582.116852	38833.500310	4030.812731	21273.096940
6.537000	0.001418	0.000520	0.006020	0.001169	6579.281795	38765.305173	4048.667766	21253.150057
7.037500	0.004125	0.000374	-0.002062	0.000661	6604.785252	38795.044022	4032.527257	21274.373112
7.534500	0.002680	0.000883	-0.006023	0.000128	6597.533030	38880.576735	4025.313104	21296.625857
8.034500	0.000984	0.000354	0.003022	0.000014	6584.989855	38846.457129	4044.714657	21301.413729
8.535500	-0.000623	0.000108	-0.003323	0.000000	6572.405176	38827.450938	4031.259841	21301.989865
9.035000	-0.000166	-0.001090	0.000406	-0.000835	6582.602389	38797.596915	4040.938869	21336.935583
9.539000	0.000909	-0.000016	-0.009241	0.000031	6584.261624	38814.715001	4018.795954	21300.713998
10.036000	0.000000	0.000000	0.000000	-0.000145	6578.466309	38830.489559	4038.606902	21308.067626
10.537000	0.000505	0.000280	0.001114	0.000604	6576.542590	38791.978833	4039.383777	21276.759169
11.036500	0.002865	0.000667	-0.009612	0.000122	6599.047696	38863.320660	4017.833876	21296.886628
11.535000	-0.002773	-0.000634	0.000729	-0.000796	6561.742091	38831.842846	4041.544587	21335.301665
12.037500	0.001862	0.000495	-0.005143	0.000423	6588.703147	38824.419422	4026.539258	21284.297795
12.534500	0.001127	-0.000134	0.000860	0.000131	6585.195246	38796.803898	4039.849375	21296.520068
13.038000	-0.000973	0.000660	-0.000278	0.000690	6564.208660	38816.091890	4036.242109	21273.147417
13.564500	0.000015	-0.000071	-0.000607	0.000569	6572.944815	38766.068564	4035.801006	21278.202315
14.035500	-0.001794	0.000004	-0.004509	0.002156	6546.266030	38642.421295	4024.237501	21212.046773
14.537000	-0.002065	-0.000806	-0.005513	0.002035	6545.092530	38586.242870	4022.390223	21217.092078
15.238500	-0.003124	-0.000254	-0.000149	0.006196	6504.500423	38293.195641	4024.907754	21044.713443
15.561000	-0.004111	-0.000104	-0.004949	0.005184	6504.688373	38387.230460	4017.005239	21086.462436
16.103500	0.000417	0.000343	-0.008099	0.001561	6568.298889	38718.807879	4017.989023	21236.833242
16.540500	0.000517	0.000452	0.001527	0.001389	6570.443661	38741.771337	4038.592477	21244.007560
17.035000	0.000130	0.000365	0.003030	0.001149	6569.276485	38754.243088	4042.304179	21253.991228
17.535500	0.001301	0.000378	-0.001239	0.001504	6575.715443	38726.249430	4032.484498	21239.195623
18.035500	0.000659	0.000711	-0.004688	0.001649	6569.516313	38741.670903	4024.923763	21233.174893
18.536000	0.001200	0.000429	-0.004547	0.002339	6568.336193	38662.137098	4023.774606	21204.431321
19.036000	-0.002378	-0.000389	-0.001413	0.001666	6545.528559	38650.315705	4031.774878	21232.431873
19.536000	-0.000013	0.000579	0.003713	0.002156	6560.229254	38689.360847	4041.614010	21212.042985
20.036500	0.000123	0.000228	-0.006844	0.001931	6563.070586	38679.036078	4019.829778	21221.401788
20.537000	0.000871	0.000765	-0.002529	0.002555	6564.049564	38672.001847	4027.553407	21195.453368
21.040000	-0.001664	-0.000174	-0.000263	0.001953	6548.868076	38644.458944	4033.598573	21220.488121
21.537500	0.000330	0.000106	0.000399	0.002768	6558.116795	38600.783032	4033.276176	21186.602561
22.038000	-0.001975	-0.000157	-0.006442	0.002082	6545.428557	38635.312924	4020.352095	21215.115208
22.538500	-0.000721	0.000391	-0.001569	0.002573	6551.399914	38639.908118	4029.532767	21194.681105
23.035500	0.000482	0.000776	0.003298	0.002953	6557.857253	38640.357462	4039.032151	21178.908387
23.535000	-0.000861	0.000444	-0.003752	0.002958	6547.289229	38612.832941	4024.141775	21178.685972
24.036000	-0.000628	0.000830	-0.000146	0.002926	6549.368732	38646.933284	4031.789526	21180.027957
24.536500	0.001451	0.000700	-0.004456	0.002732	6567.211607	38652.190628	4023.142740	21188.081748
25.036500	0.000649	-0.000225	-0.001219	0.002021	6566.501756	38634.720061	4031.436179	21217.671400
25.537000	-0.000350	-0.000244	-0.000274	0.002068	6558.281474	38629.355069	4033.332224	21215.721994
26.037000	-0.000951	-0.000478	-0.004369	0.002302	6551.726010	38591.149344	4024.223300	21205.964079
26.535000	0.001047	0.000435	0.003399	0.002664	6564.574776	38636.153495	4039.863576	21190.935709
27.035000	-0.001268	0.000038	0.002205	0.002397	6548.501120	38625.536981	4037.890672	21202.031066
27.535500	-0.000152	0.000218	0.002227	0.000963	6568.528836	38757.511178	4040.990941	21261.777901
28.035500	0.001773	-0.000236	-0.001292	-0.000718	6597.043936	38858.083238	4037.078560	21332.030276
28.536500	-0.000481	0.000383	-0.001309	0.001864	6558.850461	38697.259231	4031.578331	21224.218180
29.036000	0.000608	0.000795	0.002520	0.002015	6566.224772	38718.626292	4039.373638	21217.925520
29.536500	-0.002454	-0.000222	-0.005131	0.004616	6521.938395	38423.745706	4017.806299	21109.969876
30.039500	0.000830	0.001365	0.001638	0.002551	6563.755881	38721.344658	4036.359318	21195.618357
30.537500	0.002486	0.001089	0.000009	0.002179	6579.738428	38729.164783	4033.694971	21211.076313
31.034500	0.000162	-0.000540	-0.000077	0.002935	6555.487821	38534.479351	4031.915221	21179.642478
31.535500	-0.000941	0.000056	-0.004799	0.003858	6539.627214	38507.916288	4020.075229	21141.362200
32.035000	0.001360	0.000223	-0.000796	0.001876	6573.248924	38683.170446	4032.634619	21223.705153
32.536000	0.001086	0.000050	-0.001255	0.001871	6571.120853	38669.436394	4031.676604	21223.905190
33.036000	-0.000508	0.001171	-0.000407	0.002491	6553.717071	38710.429022	4032.157522	21198.111410
33.536000	0.000921	0.000451	-0.000923	0.004104	6552.270886	38520.007598	4027.672716	21131.154581
34.036500	0.001421	0.001038	-0.000761	0.000428	6585.170690	38868.685597	4035.774635	21284.108947
34.536500	0.000343	0.000059	-0.000731	0.002948	6556.808212	38582.224500	4030.509648	21179.101176
35.039500	-0.000391	0.000140	-0.001126	0.002755	6552.567534	38604.653671	4030.084623	21187.154455
35.537000	0.000159	0.000727	-0.000245	0.003697	6549.488301	38575.651296	4029.954642	21148.030594
36.035000	-0.001092	-0.000312	-0.002621	0.002849	6546.334757	38560.151545	4026.742122	21183.236510
36.535000	0.003327	0.000977	0.001259	0.003944	6572.447025	38575.867783	4032.606440	21137.777554
37.035500	-0.000291	-0.000043	-0.004159	0.003149	6550.263075	38557.624580	4022.891574	21170.775248
37.535500	0.000994	0.000801	-0.005512	0.003967	6553.925723	38559.731681	4018.365661	21136.849986
38.036000	0.001083	0.000406	-0.001317	0.003698	6556.731432	38549.426486	4027.697882	21147.997928
38.536500	0.002540	0.001074	-0.004437	0.004238	6563.936073	38559.822996	4020.037514	21125.609485
39.036500	0.001364	0.000626	-0.001711	0.003734	6558.652877	38564.458436	4026.795915	21146.514081
39.539500	-0.000473	0.000483	-0.002119	0.003179	6548.599937	38597.966428	4027.103284	21169.521760
40.037500	0.000495	0.000684	0.001226	0.003918	6550.395934	38554.160401	4032.592549	21138.878321
40.537500	-0.000789	0.000183	-0.000643	0.003138	6546.449632	38576.928246	4030.295061	21171.240777
41.035000	0.000999	0.000271	-0.006042	0.003170	6560.215370	38581.447962	4018.920220	21169.904718
41.535000	-0.000848	-0.000110	-0.002733	0.003484	6543.282105	38524.912369	4025.176736	21156.882961
42.035500	-0.001851	-0.000181	-0.001435	0.002780	6540.943554	38576.381874	4029.380545	21186.089747
42.536000	0.002096	0.000202	-0.000275	0.003072	6569.618045	38583.799328	4031.210180	21173.966838
43.036000	0.001408	-0.000327	-0.002265	0.002776	6566.537823	38564.847831	4027.643710	21186.279770
43.539000	0.000248	0.000521	-0.002678	0.003358	6552.849657	38586.497956	4025.554802	21162.102404
44.039500	0.000685	0.001369	0.004066	0.004121	6550.290496	38593.454201	4038.181206	21130.461039
44.537000	0.001087	0.000470	-0.005115	0.002096	6569.357465	38685.409421	4023.094954	21214.546776
45.037000	0.000681	0.000276	-0.002751	0.001900	6567.705098	38685.497642	4028.461227	21222.682955
45.534500	-0.002722	-0.000323	-0.001343	0.002768	6534.237196	38565.859386	4029.598885	21186.605600
46.035000	0.000648	-0.000357	-0.001074	0.001724	6568.834279	38648.217632	4032.369320	21230.037727
46.535500	-0.002184	0.000237	-0.000250	0.001978	6544.607190	38675.954244	4033.572873	21219.455513
47.035500	0.000903	0.000662	-0.000404	0.002830	6562.138890	38641.158920	4031.449176	21184.039875
47.536000	0.000104	-0.000336	0.003988	0.001621	6565.357110	38658.293613	4043.344011	21234.309057
48.036000	-0.001083	0.000150	-0.003610	0.003519	6541.171771	38543.174891	4023.266335	21155.429076
48.536500	-0.000277	0.000588	-0.002178	0.002705	6553.853093	38645.285012	4027.975799	21189.230768
49.037000	0.001646	0.000567	-0.003961	0.002607	6569.743691	38651.608586	4024.440435	21193.298419
49.537000	0.000711	0.000089	-0.002771	0.001864	6568.221960	38673.157398	4028.496171	21224.197604
50.035000	0.004400	0.000446	-0.000736	-0.000594	6616.989486	38904.069994	4037.997879	21326.863838
50.537500	0.001546	0.000603	-0.001305	-0.005776	6635.630356	39345.909484	4047.851368	21545.152065
51.035500	0.000591	0.000670	0.000437	0.000706	6576.405927	38815.572893	4037.726125	21272.476077
51.535500	-0.048845	-0.010639	0.001067	0.009582	6145.597329	37197.148918	4020.370273	20905.628383
52.036000	-0.038458	-0.006177	-0.009885	-0.092318	7030.163021	46637.379395	4231.284103	25603.922091
52.536000	-0.048527	-0.057351	-0.017812	-0.289081	9115.349948	63945.271606	4839.289751	38478.980437
53.036000	-0.045570	-0.128827	-0.011659	-0.371773	10416.354630	65535.000000	5230.703125	45891.169354
53.536500	-0.044121	-0.123314	-0.020339	-0.366260	10348.651266	65535.000000	5162.680642	45351.896612
54.037000	-0.032129	-0.115271	-0.018036	-0.358217	10414.408333	65535.000000	5135.791976	44577.275776
54.537000	-0.024722	-0.072701	-0.019167	-0.312891	9806.853696	65140.461863	4930.786497	40470.549075
55.035000	-0.015683	-0.052479	-0.018455	-0.285881	9536.922031	64179.630601	4824.098169	38219.546659
55.535000	-0.010938	-0.068525	-0.015519	-0.309226	9963.828350	65213.325655	4930.713924	40156.797298
56.035500	-0.008897	-0.041166	-0.019674	-0.268358	9380.892363	63313.553164	4751.911537	36832.259180
56.536000	-0.008736	-0.029051	-0.014798	-0.246527	9077.493093	61983.079220	4689.234739	35180.444912
57.036000	-0.006413	-0.020344	-0.011273	-0.222831	8792.741561	59988.259255	4617.791398	33479.041738
57.536500	-0.008294	-0.011938	-0.005738	-0.186241	8314.187254	56418.641461	4514.083565	31027.583675
58.039500	-0.007105	-0.006768	-0.015503	-0.152197	7937.747371	52994.081208	4379.838041	28924.919991
58.537000	-0.008979	-0.003239	-0.015326	-0.126961	7647.883645	50565.453092	4308.924006	27469.299312
59.037500	-0.003307	-0.001875	-0.015672	-0.108624	7518.537110	48749.259179	4258.652189	26463.411361
59.534500	-0.001481	0.000655	-0.012996	-0.093880	7390.437102	47485.437752	4227.308755	25684.842443
60.037500	-0.001352	0.002119	-0.012199	-0.081276	7270.300796	46363.374247	4197.475795	25039.909569
60.535000	0.000733	0.003628	-0.012412	-0.072012	7202.709589	45599.098706	4174.112113	24577.705955
61.035500	0.001230	0.004798	-0.010698	-0.064114	7134.188515	44947.044663	4159.136013	24191.331931
61.536000	0.013900	0.009127	-0.003551	-0.075025	7356.635297	46438.748928	4203.466634	24726.944101
62.036000	0.003117	0.008475	-0.009728	-0.053803	7057.602499	44313.791951	4136.918631	23697.400983
62.539000	0.009248	0.007627	-0.003658	-0.068488	7249.587785	45645.617296	4186.944239	24404.463886
63.036500	0.005042	0.005476	-0.007495	-0.072802	7250.600461	45857.595425	4188.118476	24616.718514
63.537000	0.003667	0.005679	-0.005858	-0.063612	7151.986922	44983.457351	4169.618958	24167.012075
64.040000	0.004395	0.006927	-0.001740	-0.058538	7112.122009	44616.852575	4167.298111	23922.771755
64.537500	0.008194	0.008289	-0.007809	-0.053297	7098.982078	44248.429934	4140.250614	23673.491124
65.035000	0.008005	0.008514	-0.002036	-0.046541	7036.293968	43635.336162	4137.932247	23356.507124
65.535500	0.012710	0.011105	-0.006946	-0.039335	7013.962385	43207.748422	4109.786683	23023.814479
66.035500	0.012681	0.010426	-0.005789	-0.036731	6990.595498	42906.248728	4106.478592	22904.944321
66.536000	0.013172	0.011180	0.001218	-0.033513	6966.544550	42681.591224	4115.166847	22759.039827
67.036500	0.016036	0.011137	0.002469	-0.030693	6966.931221	42422.055943	4111.561544	22632.074283
67.536500	0.012839	0.010915	-0.000054	-0.028286	6917.965518	42185.227312	4100.312087	22524.334318
68.037000	0.013439	0.011468	-0.001238	-0.024712	6892.233992	41914.784873	4089.575342	22365.443748
68.537000	0.013644	0.012744	0.002306	-0.020626	6858.918861	41664.947403	4088.361272	22185.405684
69.037000	0.016223	0.012777	0.002382	-0.018334	6861.364875	41465.296408	4083.405686	22085.140935
69.535000	0.015077	0.013434	-0.001578	-0.015571	6828.091544	41280.031088	4068.529357	21964.992834
70.035000	0.015455	0.012468	0.003635	-0.014487	6822.117765	41100.653786	4077.638126	21918.063985
70.535500	0.017234	0.013921	0.000293	-0.011535	6812.204256	40969.994113	4063.787583	21790.841970
71.035000	0.015032	0.013784	0.001398	-0.010138	6781.961046	40836.706766	4063.150020	21730.942688
71.535500	0.016815	0.014103	0.001257	-0.008180	6780.498358	40694.901494	4058.580005	21647.346667
72.036000	0.016861	0.013874	0.000777	-0.007194	6772.637572	40590.052681	4055.398367	21605.338500
72.536500	0.015776	0.014732	0.007087	-0.005172	6746.804808	40489.915774	4064.731707	21519.584466
73.039000	0.016150	0.014716	0.002320	-0.003936	6739.665978	40382.484735	4051.692293	21467.328788
73.537000	0.016794	0.014531	0.009939	-0.002602	6733.969925	40252.683595	4065.348477	21411.152103
74.037500	0.017923	0.015691	0.010348	-0.000216	6723.603044	40148.131434	4061.033001	21311.029667
74.535000	0.019253	0.015877	0.009144	0.001841	6717.612862	39989.186597	4053.954011	21225.146045
75.038000	0.018667	0.017044	0.010354	0.004146	6693.928475	39892.899437	4051.589286	21129.412132
75.535500	0.020951	0.016617	0.002224	0.006491	6693.429598	39659.243315	4029.269654	21032.536568
76.036000	0.019943	0.017027	0.005122	0.008462	6669.196581	39528.428569	4031.225207	20951.539396
76.538500	0.021575	0.017751	0.007942	0.010631	6664.841473	39407.675889	4032.598333	20862.777930
77.036000	0.021656	0.018495	0.011310	0.012925	6646.965939	39278.543308	4034.871015	20769.402937
77.537000	0.019230	0.017956	0.007808	0.012438	6631.375646	39274.257181	4028.506757	20789.193974
78.037000	0.022000	0.017736	0.008875	0.013274	6646.922608	39186.616324	4028.991893	20755.240827
78.534500	0.022326	0.019062	0.007544	0.015220	6633.899133	39135.300592	4022.123719	20676.499156
79.034500	0.023702	0.019859	0.008462	0.017173	6629.271093	39039.651394	4019.962754	20597.799002
79.535500	0.024159	0.019955	0.005463	0.018272	6624.122090	38956.898719	4011.464660	20553.676524
80.035500	0.023311	0.019718	0.009897	0.018610	6614.649650	38909.630673	4019.959449	20540.144634
80.535500	0.023481	0.019265	0.013298	0.018910	6613.605254	38847.744260	4026.443171	20528.117014
81.038500	0.025127	0.019646	0.012419	0.021669	6604.740192	38652.943508	4018.841329	20418.002576
81.536000	0.023331	0.019399	0.013529	0.021222	6594.017174	38669.273337	4022.087812	20435.795448
82.036500	0.023570	0.019821	0.009080	0.021831	6591.080879	38653.966745	4011.582540	20411.545196
82.536500	0.023944	0.019900	0.017566	0.022492	6588.802211	38606.537364	4027.885719	20385.291126
83.037500	0.023149	0.019284	0.007361	0.022492	6582.515825	38556.295389	4006.684431	20385.292691
83.537500	0.024745	0.019928	0.011969	0.023664	6585.863940	38513.325922	4013.766951	20338.811804
84.035000	0.023649	0.019038	0.012652	0.022766	6584.296111	38513.963280	4017.045055	20374.412288
84.535000	0.021198	0.019682	0.014336	0.023272	6560.975321	38525.199664	4019.495435	20354.339606
85.035500	0.023214	0.019768	0.011337	0.023824	6572.510614	38487.275429	4012.128905	20332.485309
85.538500	0.022678	0.019531	0.012838	0.023376	6571.808964	38504.436728	4016.163830	20350.209022
86.036000	0.022754	0.019998	0.011881	0.023497	6571.461969	38532.615196	4013.930361	20345.438955
86.536500	0.022666	0.020793	0.011533	0.024528	6562.640386	38513.341595	4011.079829	20304.609465
87.036500	0.022272	0.018936	0.010698	0.022985	6571.687815	38487.835736	4012.541537	20365.713843
87.537000	0.023790	0.020338	0.019009	0.024062	6575.172692	38514.266541	4027.618320	20323.067994
88.037500	0.023772	0.019823	0.015263	0.023845	6576.745462	38490.069712	4020.233079	20331.659444
88.537500	0.024816	0.020003	0.013459	0.024225	6581.984684	38473.791830	4015.691399	20316.599004
89.035000	0.022800	0.019677	0.013023	0.023729	6569.989498	38487.612254	4015.815286	20336.244605
89.535000	0.022551	0.020785	0.018158	0.024954	6558.399510	38478.122379	4023.962511	20287.812174
90.036000	0.024979	0.021254	0.013804	0.024565	6580.586030	38547.877439	4015.700642	20303.159162
90.536000	0.024861	0.020949	0.015369	0.024975	6576.414573	38489.632892	4018.100293	20286.950335
91.036000	0.026652	0.021632	0.014310	0.025438	6586.912239	38507.591841	4014.939019	20268.677377
91.536500	0.021298	0.020378	0.017406	0.024116	6555.132821	38513.105625	4024.140812	20320.903878
92.037000	0.022338	0.020600	0.014777	0.025356	6553.565387	38430.401180	4016.079156	20271.929786
92.537000	0.025575	0.021034	0.016354	0.025325	6579.291232	38468.138701	4019.420452	20273.133431
93.037000	0.020935	0.020270	0.013710	0.029537	6510.063024	38066.162712	4005.257358	20107.801214
93.534500	0.020411	0.020517	0.022812	0.025148	6540.112948	38440.524513	4033.344171	20280.131419
94.040500	0.022347	0.020307	0.017322	0.025511	6552.423459	38394.089805	4021.051508	20265.827509
94.535000	0.023715	0.020825	0.019522	0.026099	6558.541362	38388.376452	4024.420294	20242.636306
95.035500	0.020034	0.020961	0.009255	0.025755	6532.434430	38427.358714	4003.878380	20256.201228
95.536000	0.020378	0.021350	0.022520	0.026472	6529.533907	38400.735959	4029.934657	20227.975550
96.036500	0.020971	0.021421	0.018450	0.026636	6532.871399	38393.133621	4021.057963	20221.508363
96.537000	0.022282	0.020529	0.016327	0.025855	6549.221050	38384.206946	4018.263566	20252.266229
