sample name	sample
index	684
start time	 03-22-2021  12:05:28 PM
880	0.126316
Peak Time (s)	90.537
Peak Height 	0.1263
calc peak height	90,93
Baseline Time (s)	9.537
Baseline Value 	-0.006576
subtract baseline	10,4
Abs	0.073874
Peak Time (s)	90.537
Peak Height 	0.07387
calc peak height	90,93
Baseline Time (s)	11.037
Baseline Value 	0.005579
subtract baseline	10,3
PK_550	0.038308
Peak Time (s)	90.039
Peak Height 	0.03831
calc peak height	90,93
Baseline Time (s)	9.036
Baseline Value 	0.001053
subtract baseline	10,2
PK_880	0.070978
Peak Time (s)	90.039
Peak Height 	0.07098
calc peak height	90,93
Baseline Time (s)	11.534
Baseline Value 	0.003798
subtract baseline	10,1


Time (s)	A880-A510	A880-A775	A880-A975	A880	I510	I775	I975	I880	
0.036500	-0.001359	-0.000835	-0.004416	0.002229	7367.920780	45707.894935	3958.144424	24172.977815
0.537000	-0.001888	-0.000457	0.000079	0.005256	7331.098440	45447.529264	3961.977534	24024.873858
1.037500	-0.004785	-0.000998	-0.004808	0.006645	7287.115975	45258.772025	3945.682481	23957.243733
1.537500	-0.001043	-0.000864	-0.001125	0.001418	7379.650100	45785.127582	3968.888002	24212.849148
2.037500	0.000454	-0.000752	-0.003730	0.000964	7400.037065	45841.115429	3963.243297	24235.206574
2.535500	-0.001239	-0.001298	-0.000610	0.000494	7387.247737	45833.530634	3972.680918	24258.347057
3.038500	-0.004943	-0.001465	-0.006588	0.004832	7304.042866	45390.312203	3945.765503	24045.533744
3.536000	-0.000514	-0.000495	0.003418	0.000102	7398.928488	45951.906295	3984.410398	24277.702527
4.036000	0.000466	-0.000359	0.000703	0.000008	7410.182893	45974.670954	3977.441628	24282.316085
4.536500	-0.000453	-0.000269	-0.002142	0.000031	7400.306489	45981.321209	3969.862473	24281.178284
5.037000	-0.001713	-0.000682	-0.000749	-0.000074	7388.228050	45950.822321	3973.816632	24286.384911
5.537000	-0.001967	-0.001194	0.000663	-0.000870	7393.893815	45979.010750	3979.666146	24325.706007
6.037000	-0.000864	-0.000404	-0.001425	-0.000682	7403.467790	46038.781235	3973.634441	24316.405647
6.535500	-0.000427	-0.000073	0.000827	-0.000154	7402.513911	46019.157224	3978.198138	24290.294102
7.035500	0.000266	-0.000438	0.001138	-0.000227	7410.551381	45990.240909	3979.219035	24293.922062
7.538000	-0.001238	-0.000324	-0.001254	-0.000227	7394.789887	46001.514610	3972.883559	24293.925193
8.035500	-0.000682	-0.000526	0.000792	-0.000385	7402.264744	45997.142478	3978.718424	24301.710629
8.536000	0.001077	-0.000009	-0.001126	-0.000088	7417.608143	46019.035567	3972.855156	24287.064973
9.036000	-0.000989	0.000000	-0.002740	0.000193	7393.006143	45992.027427	3967.863955	24273.215945
9.536500	-0.000201	0.000114	0.000115	0.000000	7403.274307	46022.416616	3975.903285	24282.715586
10.037000	-0.001381	-0.000180	0.001088	-0.000300	7394.067733	46023.126997	3979.279593	24297.549578
10.537000	0.001034	0.000156	-0.005226	0.000012	7416.102322	46025.476257	3961.818565	24282.122906
11.037500	0.002110	0.000027	0.000000	0.000325	7424.138656	45981.622915	3974.741063	24266.702947
11.534500	0.000000	-0.000450	0.001782	-0.000339	7408.929055	46000.074988	3981.227176	24299.429345
12.038000	-0.003146	0.000092	-0.005367	0.001626	7355.626475	45859.086646	3957.237654	24202.603112
12.535500	0.001229	-0.000048	-0.000365	-0.000346	7421.920315	46040.739434	3975.548888	24299.810195
13.035500	0.001294	0.000564	0.000410	0.000207	7416.789643	46046.632049	3976.136497	24272.495633
13.536000	0.000659	-0.000444	-0.000593	0.000149	7410.726534	45952.241765	3973.636610	24275.350282
14.036500	-0.001649	-0.000214	-0.001737	0.003542	7351.285449	45639.842731	3961.713217	24108.633339
14.536000	-0.000652	0.000120	-0.000238	0.002421	7373.280115	45783.179454	3968.583267	24163.549494
15.036500	-0.000822	0.000278	0.001049	0.001031	7386.001161	45936.427289	3975.648503	24231.900710
15.537000	-0.000041	0.000084	0.001543	0.000728	7397.331359	45947.270013	3977.758757	24246.832464
16.037500	-0.001442	0.000174	-0.005316	0.004095	7347.706004	45623.493511	3950.956866	24081.555237
16.538000	0.000713	0.000227	-0.003366	0.000727	7405.227620	45961.486387	3964.815361	24246.854544
17.035500	0.003360	0.000740	0.004388	-0.001961	7461.499302	46280.175761	3992.528550	24379.725069
17.535500	0.000436	0.000289	-0.002300	0.001825	7390.835037	45858.872539	3964.731824	24192.810484
18.036000	-0.000785	-0.000663	-0.002701	0.001829	7378.060680	45764.441844	3963.673435	24192.655326
18.536500	-0.000178	0.000153	0.000166	0.002066	7381.915082	45821.613513	3970.581493	24180.994182
19.037000	-0.000694	-0.000135	0.003361	0.002058	7376.624672	45793.863021	3979.055023	24181.382884
19.537000	0.000473	0.000574	-0.002242	0.002067	7388.698072	45863.154528	3964.250148	24180.951258
20.037500	-0.000887	0.000122	-0.003173	0.002490	7370.113824	45776.663416	3960.709224	24160.183261
20.534000	0.000125	0.000005	0.002100	0.002149	7384.205164	45798.774476	3975.469394	24176.905803
21.037500	0.001781	-0.000071	-0.002946	0.002002	7403.061307	45805.702779	3962.575747	24184.112069
21.535000	-0.000761	-0.000159	0.002247	0.001579	7380.918119	45838.889381	3977.371223	24204.946757
22.035500	-0.002073	-0.000726	-0.000935	0.001725	7365.734654	45768.345589	3968.579806	24197.724667
22.536000	-0.000581	-0.001001	0.000884	0.001275	7385.970577	45785.772539	3974.566222	24219.900348
23.036000	-0.001468	-0.000314	0.003780	0.001810	7371.146807	45800.793558	3980.825975	24193.578624
23.536500	0.001925	0.000592	-0.002419	0.002518	7399.164018	45820.352841	3962.606474	24158.803103
24.036500	-0.000724	-0.000989	0.003043	0.001726	7379.765320	45742.348326	3979.091240	24197.700211
24.537000	-0.000943	-0.000169	-0.004905	0.002080	7373.804339	45788.460070	3957.260634	24180.324949
25.037000	-0.000431	-0.000798	-0.000141	0.001861	7381.413092	45747.917244	3970.314025	24191.075375
25.537500	0.000594	0.000179	-0.002899	0.002229	7388.269454	45808.003039	3962.106913	24172.981336
26.038000	0.000231	-0.000097	0.003682	0.002365	7383.056417	45767.343628	3979.090706	24166.301332
26.535500	-0.001697	-0.000695	-0.000583	0.002121	7365.538058	45732.460559	3968.465766	24178.310210
27.035500	0.002306	0.000269	0.002508	-0.000085	7430.515311	46046.305478	3982.482714	24286.910211
27.536000	0.000149	0.000037	-0.000153	0.000096	7405.940041	46005.323323	3974.941741	24277.997317
28.036000	0.000153	0.000289	0.003764	0.001155	7394.886086	45925.257263	3982.525474	24225.787579
28.536500	0.000975	0.000313	0.002513	0.002093	7393.667821	45834.747140	3976.712470	24179.659804
29.039500	-0.000331	-0.000048	0.000650	0.001330	7387.997016	45874.493617	3973.799728	24217.151159
29.537000	-0.001603	-0.000339	-0.001941	0.000599	7382.353582	45918.038571	3968.895593	24253.169010
30.037000	0.000225	-0.000048	0.003380	0.000888	7398.437318	45918.298473	3982.215849	24238.940239
30.535000	-0.001086	0.000175	0.003145	0.003873	7353.692332	45645.472862	3973.673654	24092.420961
31.035500	0.000742	-0.000196	0.001528	0.002655	7385.370215	45728.867455	3972.618484	24152.062426
31.535500	0.000723	-0.000090	-0.003426	0.001171	7400.683327	45886.114196	3963.496271	24224.995916
32.036000	0.000576	-0.000154	0.002250	0.000824	7402.782643	45914.111626	3979.379967	24242.082674
32.536000	-0.001018	-0.000261	0.000813	0.001817	7375.753799	45805.279161	3972.945391	24193.203487
33.036500	-0.000893	-0.000111	0.001606	0.001157	7383.934010	45885.350751	3976.787522	24225.666744
33.536500	-0.000122	0.000297	0.003181	0.002393	7379.093711	45803.517143	3977.687836	24164.944393
34.037000	-0.001675	0.000151	0.002345	0.003651	7349.890895	45664.990360	3972.148462	24103.295680
34.540000	0.000607	0.000508	0.000990	0.004053	7369.398587	45660.483516	3967.519766	24083.600809
35.035000	-0.002073	-0.000187	-0.001162	0.003396	7348.408148	45656.811786	3963.598899	24115.750596
35.535500	-0.000227	0.000167	0.002554	0.003756	7363.814197	45656.133558	3972.422024	24098.120337
36.035000	0.000108	-0.000106	0.003220	0.003262	7372.437454	45677.983489	3975.488777	24122.326819
36.535500	0.000195	-0.000179	0.003882	0.003569	7370.149052	45640.530260	3976.429217	24107.285968
37.036000	0.000033	0.000052	-0.002124	0.003437	7369.832196	45676.263110	3960.972939	24113.731526
37.536000	0.000086	0.000666	0.006338	0.004365	7360.736693	45645.409726	3980.833256	24068.361121
38.036500	-0.001145	-0.000091	0.002808	0.003455	7357.419508	45660.523196	3973.890410	24112.895764
38.537000	-0.001973	-0.000195	-0.004313	0.003270	7350.749219	45668.385526	3955.702616	24121.930266
39.039500	-0.002299	0.000771	0.001097	0.004007	7339.756727	45691.049239	3967.924203	24085.884774
39.534500	-0.000004	0.000226	0.001992	0.003882	7364.823118	45649.560428	3970.609361	24091.975137
40.037500	-0.001086	-0.000058	0.001500	0.003871	7353.718370	45622.797485	3969.342101	24092.535808
40.535500	-0.000145	0.000067	-0.001311	0.003758	7364.646482	45646.124228	3962.260116	24098.031931
41.035500	0.000666	0.000044	-0.000061	0.003301	7377.833697	45688.838279	3966.733665	24120.400608
41.535500	-0.000857	0.000028	0.002480	0.003391	7361.058193	45678.405111	3973.190102	24115.982848
42.036000	-0.001780	-0.000053	0.002930	0.003690	7348.398661	45641.016665	3973.590322	24101.367965
42.536500	0.000344	0.001052	0.003727	0.005293	7353.792977	45592.043034	3971.462046	24023.069803
43.036500	0.000166	0.000336	0.006477	0.003818	7367.260881	45666.749376	3982.661083	24095.120909
43.539500	0.003208	0.000805	0.007151	-0.000899	7448.646187	46180.741142	3997.106827	24327.153758
44.037000	0.000854	0.000249	0.002132	0.003426	7378.495227	45696.779401	3972.180618	24114.283956
44.537500	0.000335	0.000218	0.001010	0.001735	7390.732762	45860.743781	3973.684103	24197.267623
45.037500	0.000338	-0.000175	0.003697	0.001635	7391.803541	45831.793664	3981.070152	24202.188603
45.535500	-0.001780	0.000137	0.000163	0.001647	7369.595974	45861.407543	3971.678130	24201.565693
46.035000	-0.001868	0.000146	-0.004367	0.007122	7312.107461	45323.922407	3945.589543	23934.071601
46.536000	0.000380	0.000235	0.007703	0.005843	7348.470847	45457.833708	3980.533479	23996.264716
47.036000	-0.000186	0.000256	0.004470	0.005444	7346.741156	45498.964070	3973.024282	24015.692079
47.536000	0.001592	0.001222	-0.002417	0.005017	7369.614502	45635.882571	3956.089926	24036.523064
48.039500	-0.002284	0.000446	0.000844	0.007411	7304.860477	45324.908273	3958.346841	23920.027561
48.537000	-0.000368	-0.000116	-0.000997	0.005125	7348.163279	45493.815876	3959.511386	24031.270985
49.038000	0.001351	0.000195	0.002192	0.001982	7398.764649	45834.026230	3976.156327	24185.109300
49.535000	0.003987	0.001182	0.007573	0.000170	7445.569967	46111.724954	3995.361351	24274.325946
50.035000	-0.001028	0.000341	0.002292	0.008379	7307.824935	45220.270362	3959.601776	23873.150450
50.535500	-0.000686	-0.001231	0.002146	0.026961	7124.577534	43300.425998	3911.758616	22992.508489
51.036000	-0.051592	-0.009305	-0.007409	0.347696	4668.062769	21839.736888	3333.555891	12473.603726
51.536000	-0.035352	-0.012358	-0.005630	0.052192	6574.228644	40054.669191	3832.305846	21855.580235
52.036500	-0.038702	-0.074109	-0.010246	-0.231198	9944.675904	64805.591031	4737.990211	39349.767446
52.539500	-0.055603	-0.176448	-0.015644	-0.338623	11588.289070	65535.000000	5244.285443	49593.269197
53.036500	-0.058733	-0.140822	-0.005729	-0.302998	10842.505346	65535.000000	5105.281912	45911.823161
53.533500	-0.062963	-0.135065	0.002754	-0.297240	10660.856357	65535.000000	5119.631930	45344.656266
54.037500	-0.049708	-0.106983	-0.001248	-0.269158	10398.770212	65535.000000	4956.299645	42683.764718
54.535000	-0.033589	-0.110378	-0.006725	-0.272553	10745.582959	65535.000000	4946.116168	42996.433501
55.035000	-0.009471	-0.102836	0.001521	-0.265011	11052.657872	65535.000000	4949.553258	42305.199659
55.535500	-0.003371	-0.069258	0.003935	-0.228615	10500.125623	65129.832606	4789.736507	39133.317657
56.036000	-0.007670	-0.035446	0.002884	-0.175747	9556.909628	62457.533745	4560.467496	34974.468807
56.536000	-0.005022	-0.018862	0.003938	-0.128671	8904.968957	58418.312198	4386.078325	31674.185777
57.039000	0.006523	-0.009555	0.007960	-0.089125	8527.061494	54683.083143	4263.558579	29165.341457
57.536500	0.002412	-0.005790	0.009222	-0.048903	7976.396144	50512.245575	4140.219509	26837.451726
58.036500	0.001848	-0.004830	0.007690	-0.039177	7856.422245	49560.519316	4106.589794	26306.184703
58.537500	-0.000345	-0.001689	0.006117	-0.004923	7453.621964	46333.466483	4005.196576	24527.074634
59.035000	0.006088	0.002132	0.017876	0.018625	7275.828614	44404.043069	3973.619103	23382.914008
59.535500	0.011947	0.004990	0.020020	0.039921	7121.363168	42678.063562	3924.111321	22400.251004
60.035500	0.009979	0.006057	0.021615	0.056962	6938.556490	41241.069700	3885.747422	21647.946687
60.535500	0.013915	0.008428	0.029311	0.077248	6787.580467	39690.852288	3855.468247	20789.980734
61.036000	0.022534	0.013135	0.038055	0.084836	6796.944307	39447.585990	3858.213137	20479.240263
61.539000	0.030626	0.017018	0.035668	0.085118	6868.516205	39752.002447	3851.891707	20467.814441
62.036500	0.030643	0.017428	0.032946	0.087366	6847.938869	39596.271610	3840.216933	20376.828393
62.537000	0.033445	0.018639	0.035219	0.089842	6850.937567	39489.488604	3839.742849	20277.181560
63.040500	0.038984	0.019747	0.039599	0.086096	6937.342969	39900.980470	3858.889484	20428.174100
63.537500	0.041049	0.020743	0.041482	0.087652	6942.136281	39853.266523	3859.667030	20365.299509
64.038000	0.042966	0.023149	0.049367	0.093008	6909.875526	39602.934921	3865.703778	20150.582486
64.535000	0.039123	0.022627	0.042296	0.098801	6820.843274	39072.859421	3835.360808	19921.321898
65.035500	0.044197	0.024498	0.045211	0.096108	6892.447337	39455.178733	3848.477838	20027.510577
65.536500	0.047063	0.026209	0.056515	0.099782	6884.943330	39290.282357	3866.597930	19882.787020
66.038500	0.045336	0.025687	0.049212	0.102802	6841.113043	38994.555233	3842.159111	19764.763181
66.536500	0.045804	0.027793	0.053055	0.109155	6787.422558	38643.163738	3836.301472	19519.093425
67.036500	0.049377	0.027423	0.053319	0.104576	6861.978627	38991.427549	3847.630267	19695.792783
67.536500	0.052261	0.029346	0.061707	0.107425	6862.304081	38914.473829	3860.742098	19585.644168
68.040000	0.050379	0.029755	0.056565	0.112067	6802.521533	38565.004387	3837.692551	19407.681912
68.537500	0.052754	0.030190	0.054731	0.116421	6784.556225	38244.444577	3823.380851	19242.490326
69.035000	0.056012	0.031143	0.057158	0.112293	6852.009879	38660.635622	3838.550795	19399.086375
69.535500	0.057492	0.031730	0.061268	0.113426	6855.203493	38615.607137	3845.512353	19355.945158
70.035500	0.057228	0.033289	0.059146	0.116771	6822.078041	38469.067144	3832.762803	19229.315190
70.539000	0.055351	0.032605	0.057414	0.121002	6766.640078	38068.585892	3819.032996	19070.484721
71.036000	0.061972	0.034141	0.062940	0.117051	6863.097580	38515.929462	3840.941736	19218.760562
71.536500	0.060812	0.034873	0.063255	0.117667	6846.721248	38525.495620	3840.236987	19195.546767
72.037000	0.062592	0.035283	0.057527	0.120164	6840.135892	38354.548700	3821.211020	19101.816524
72.536500	0.059651	0.034805	0.057972	0.123800	6780.197905	38020.151346	3813.924810	18966.305220
73.037500	0.065310	0.035821	0.059623	0.119527	6871.059901	38450.657496	3827.491585	19125.669949
73.535000	0.065283	0.037206	0.065659	0.119932	6867.061719	38530.985362	3840.560141	19110.491263
74.035000	0.063718	0.035958	0.066510	0.122003	6833.599203	38259.700595	3837.716822	19033.156619
74.535000	0.063107	0.036191	0.059140	0.125244	6798.443162	38015.487964	3813.300088	18912.823312
75.038500	0.066235	0.037896	0.063749	0.120799	6867.855219	38516.507182	3834.096629	19078.087601
75.536000	0.069357	0.037984	0.065068	0.120928	6895.614073	38513.147630	3836.859267	19073.246335
76.036500	0.066124	0.036852	0.065954	0.119969	6874.505004	38498.958887	3841.164723	19109.131711
76.536500	0.064345	0.037885	0.063708	0.126187	6801.125399	38076.295530	3821.573233	18877.972073
77.037000	0.068101	0.038886	0.068590	0.121636	6877.368372	38529.024197	3843.430882	19046.820022
77.537500	0.066150	0.038131	0.063473	0.120867	6866.430032	38530.161327	3833.297221	19075.521273
78.034500	0.067708	0.037773	0.071072	0.120984	6879.769672	38491.224310	3850.799132	19071.148423
78.535000	0.066221	0.037682	0.064024	0.125491	6824.568672	38116.194406	3823.894011	18903.663608
79.035000	0.070975	0.039347	0.067472	0.121955	6901.115852	38540.639320	3840.070650	19034.916818
79.538000	0.069793	0.039018	0.070641	0.121957	6890.104290	38513.527046	3847.493452	19034.861438
80.036000	0.071652	0.039072	0.068048	0.122255	6904.639614	38493.567381	3840.715289	19023.759582
80.536000	0.065818	0.038840	0.064099	0.127254	6804.818631	38067.183751	3820.024751	18838.643607
81.041500	0.068170	0.038092	0.069284	0.120882	6885.006375	38525.807249	3846.828828	19074.979612
81.537000	0.069462	0.039225	0.070497	0.122205	6884.723511	38510.148726	3846.569244	19025.609898
82.040000	0.067916	0.038391	0.063936	0.121437	6877.494462	38504.704485	3833.047260	19054.229663
82.537500	0.065708	0.038299	0.063703	0.127240	6803.937827	38024.492203	3819.149534	18839.135607
83.037500	0.067810	0.039332	0.068650	0.122402	6867.590143	38502.807389	3841.780666	19018.290411
83.535000	0.069254	0.038715	0.069726	0.122039	6884.334519	38482.003931	3845.150434	19031.814962
84.038000	0.069067	0.039368	0.068538	0.124119	6863.341065	38365.240031	3837.511342	18954.491415
84.536000	0.066175	0.038500	0.066254	0.127337	6807.308471	38032.896677	3824.777714	18835.567321
85.036000	0.069126	0.038855	0.068571	0.122269	6881.010664	38474.586330	3841.906361	19023.239367
85.536500	0.070011	0.038464	0.066256	0.121900	6892.658509	38472.808895	3837.363699	19036.983538
86.039000	0.070093	0.038953	0.073689	0.122490	6887.925871	38464.447305	3853.422235	19014.985753
86.537000	0.067540	0.038265	0.062148	0.127521	6818.078279	37998.986436	3814.961648	18828.796865
87.037000	0.070804	0.037765	0.068760	0.121781	6901.146634	38425.323776	3843.490458	19041.416007
87.534000	0.068681	0.038061	0.070593	0.121875	6880.531204	38441.823290	3847.571206	19037.909357
88.035000	0.068541	0.037773	0.068995	0.123169	6867.258908	38312.527873	3840.793422	18989.750214
88.538000	0.068480	0.038521	0.072189	0.127022	6831.232044	38060.088528	3839.252308	18847.156877
89.035000	0.071269	0.038739	0.069703	0.122441	6899.327958	38450.949918	3844.153585	19016.815829
89.535500	0.071127	0.038177	0.074681	0.122226	6900.013006	38422.585194	3856.399288	19024.829491
90.039000	0.070978	0.038308	0.070577	0.122482	6896.245464	38412.351411	3846.108983	19015.308641
90.536500	0.066198	0.037209	0.073874	0.126316	6816.824589	38011.031017	3844.845698	18873.196261
91.036500	0.068795	0.037745	0.069035	0.122427	6876.472893	38370.847878	3842.622075	19017.347714
91.537000	0.068991	0.036824	0.069663	0.121272	6889.007669	38389.973601	3846.802680	19060.402955
92.037500	0.068487	0.036652	0.073716	0.122337	6874.448974	38288.910265	3853.849360	19020.688589
92.537500	0.064869	0.037164	0.068754	0.125586	6811.363522	38066.527790	3834.600923	18900.170345
93.061000	0.067039	0.036562	0.070979	0.120898	6874.377975	38399.138810	3850.783502	19074.384587
93.535000	0.067772	0.037301	0.072322	0.121630	6874.382125	38399.728780	3852.227324	19047.060637
94.035500	0.066034	0.036030	0.067583	0.121621	6858.399627	38296.667181	3841.110482	19047.387314
94.536000	0.066124	0.037416	0.074345	0.125805	6820.818916	38069.197066	3847.154598	18892.076549
95.036500	0.068891	0.036978	0.072662	0.121547	6885.525015	38380.088673	3853.225241	19050.139481
95.536500	0.066750	0.035530	0.068517	0.120190	6878.257081	38372.619326	3846.652559	19100.851387
96.037000	0.065899	0.036326	0.068394	0.122871	6845.649578	38218.979001	3840.084473	19000.838292
