sample name	sample
index	939
start time	 04-12-2021  02:05:10 PM
880	-0.061502
Peak Time (s)	121.037
Peak Height 	-0.0615
calc peak height	120,123
Baseline Time (s)	9.035
Baseline Value 	-0.005234
subtract baseline	10,4
Abs	-0.005900
Peak Time (s)	120.038
Peak Height 	-0.0059
calc peak height	120,123
Baseline Time (s)	8.537
Baseline Value 	0.002125
subtract baseline	10,3
PK_550	-0.002431
Peak Time (s)	121.537
Peak Height 	-0.002431
calc peak height	120,123
Baseline Time (s)	9.035
Baseline Value 	1.3514E-4
subtract baseline	10,2
PK_880	-0.005226
Peak Time (s)	120.038
Peak Height 	-0.005226
calc peak height	120,123
Baseline Time (s)	11.036
Baseline Value 	0.001179
subtract baseline	10,1


Time (s)	A880-A510	A880-A775	A880-A975	A880	I510	I775	I975	I880	
0.038000	0.000012	-0.000116	0.002630	0.003602	7138.356909	43226.829192	3935.860699	23208.511881
0.538500	-0.001249	-0.000224	-0.001128	0.004314	7119.104312	43150.871371	3924.717641	23175.233351
1.035500	-0.001329	0.000887	0.001380	0.004625	7115.292253	43224.936820	3930.179261	23160.686419
1.538500	-0.002300	0.000093	-0.003328	0.006485	7087.848031	42979.710235	3913.932372	23074.073916
2.036500	-0.001725	-0.000086	-0.002948	0.001154	7145.320684	43457.168024	3928.047438	23323.363872
2.537000	-0.000946	-0.000631	-0.000031	0.000111	7163.197848	43503.555619	3937.942103	23372.477504
3.037000	0.001218	0.000293	0.000665	-0.001381	7199.310040	43729.623228	3943.447290	23442.945016
3.534500	-0.001542	0.000375	-0.000181	0.004996	7109.612751	43143.173507	3925.374071	23143.380371
4.037500	-0.000919	0.000702	0.001771	0.000810	7156.596088	43562.748274	3940.713967	23339.534763
4.535500	0.000242	-0.000187	0.005003	0.000320	7172.839907	43525.469802	3950.121688	23362.599266
5.035500	0.000237	-0.000552	-0.000402	0.000473	7171.277760	43477.165463	3936.102863	23355.404670
5.536000	0.001612	0.000390	0.000789	0.000622	7183.389797	43551.219212	3938.719493	23348.405239
6.036500	0.001744	-0.000069	0.003201	0.000776	7183.165088	43493.933870	3944.403653	23341.130028
6.537000	0.001499	0.000375	0.001481	0.000453	7183.939121	43565.634788	3940.883161	23356.360963
7.037000	0.001877	0.000254	0.001252	0.000347	7188.724527	43564.205017	3940.574295	23361.346947
7.537500	0.000927	-0.000489	0.000847	-0.000058	7183.337622	43532.573283	3940.572418	23380.440714
8.037500	-0.000472	-0.000098	0.003674	0.000171	7167.266733	43547.741044	3947.130365	23369.622970
8.537500	0.001332	0.000853	0.000000	0.001316	7173.763697	43529.638722	3934.998479	23315.716167
9.035000	-0.000165	0.000000	-0.002626	0.000000	7171.980398	43572.874574	3931.724283	23377.702806
9.536000	0.000854	0.000556	-0.001351	0.000473	7177.362411	43580.615083	3933.727087	23355.396460
10.036000	0.001422	-0.000089	0.000507	-0.000339	7191.011891	43596.274980	3940.424260	23393.692013
10.536000	-0.000009	-0.000325	-0.000725	-0.000535	7178.794663	43592.479579	3937.821279	23402.952275
11.036000	0.000000	-0.000359	0.001487	-0.000650	7180.028046	43600.133736	3943.678178	23408.408904
11.536500	-0.000180	0.000906	0.007438	0.000450	7167.397714	43615.507052	3955.988348	23356.495424
12.036500	0.001317	-0.000450	-0.002205	-0.000441	7190.980418	43572.029701	3933.876606	23398.515834
12.537000	0.000286	-0.000275	0.003804	-0.000354	7179.927549	43580.266869	3948.790719	23394.418374
13.040000	0.002150	0.000946	0.002173	-0.000365	7198.480028	43695.604020	3944.691484	23394.926887
13.534500	0.002389	0.000744	-0.000647	0.000340	7193.863401	43610.636649	3935.823363	23361.667246
14.038000	-0.000470	-0.000371	0.002438	0.001749	7151.791314	43375.232920	3940.031166	23295.391862
14.535000	-0.001528	0.000359	0.000705	0.001983	7139.120862	43421.358837	3935.093000	23284.362320
15.044000	0.000984	-0.000706	0.002568	-0.000416	7187.435213	43545.818148	3945.819382	23397.350691
15.536000	0.002065	0.000435	0.001309	0.000290	7191.149345	43586.442494	3940.860250	23364.028665
16.036500	0.000763	0.000300	0.000259	0.000794	7173.310770	43526.796832	3936.956287	23340.306362
16.536500	0.001510	-0.000247	-0.002469	-0.000566	7194.123141	43602.675899	3933.529869	23404.410917
17.037000	0.002854	-0.000615	0.001068	-0.004157	7243.298632	43905.268832	3951.498273	23574.706885
17.537000	0.000894	0.000591	0.002171	0.001421	7168.408512	43495.331634	3940.181803	23310.761711
18.034500	0.000199	0.000900	0.004205	0.001908	7156.785767	43478.741207	3944.082237	23287.898956
18.540500	-0.001632	-0.000044	-0.000634	0.001259	7145.188813	43451.239777	3933.554657	23318.394997
19.035000	0.000386	0.000438	-0.000251	0.001308	7164.527133	43491.631009	3934.389611	23316.079993
19.535500	-0.000787	0.000267	0.001584	0.001261	7153.462456	43480.075140	3939.109661	23318.313962
20.036000	0.001467	-0.000673	-0.000547	0.000697	7181.206784	43444.981425	3935.178501	23344.857528
20.536500	0.000619	0.000109	0.002135	0.001519	7164.742208	43441.261867	3939.845137	23306.166140
21.037000	0.003862	0.000338	0.000871	0.001102	7200.913592	43501.535713	3937.718427	23325.775882
21.537000	0.000172	-0.000021	0.001432	0.000895	7166.481138	43487.351822	3939.646266	23335.522218
22.036500	0.000757	0.000374	0.003169	0.001403	7167.247562	43476.837354	3942.742317	23311.631851
22.535000	-0.000632	-0.000426	-0.003695	0.000875	7158.773617	43451.423799	3926.880930	23336.455194
23.037500	-0.000819	0.000097	0.003968	0.001129	7154.446376	43476.534386	3945.450852	23324.525762
23.535000	-0.000908	0.000560	0.001803	0.001106	7153.788403	43521.837238	3940.048741	23325.579007
24.036000	-0.000690	-0.000813	0.000971	0.000625	7160.657413	43438.705550	3939.167138	23348.250294
24.535500	-0.001346	0.000537	0.001152	0.001615	7144.507618	43472.202244	3937.135483	23301.647640
25.036000	0.000260	-0.000440	-0.001248	0.000727	7169.012877	43463.931237	3933.350898	23343.449997
25.536500	0.000250	-0.000032	-0.001904	0.000905	7167.144941	43485.321552	3931.266947	23335.035694
26.036500	-0.000422	0.000260	0.002710	0.001504	7154.655423	43456.738858	3941.329979	23306.873667
26.537000	0.000384	-0.000200	0.003168	0.001283	7164.750162	43434.508614	3943.041200	23317.266766
27.037500	0.001944	-0.000743	0.004509	-0.001472	7207.428738	43641.034298	3953.420087	23447.247325
27.537500	0.001515	-0.000006	-0.001896	-0.000421	7192.747116	43611.709289	3934.602459	23397.586403
28.035000	0.000217	0.000592	0.004413	-0.000091	7176.643024	43636.791750	3949.667520	23381.998440
28.535500	0.001120	-0.000416	0.000841	-0.000648	7191.083089	43594.542222	3942.043438	23408.297693
29.035500	-0.001284	0.000076	0.001333	-0.000488	7165.763727	43625.595521	3942.881542	23400.736598
29.536000	-0.000739	-0.000099	0.000375	0.001802	7148.625961	43395.526260	3934.722147	23292.882534
30.036000	0.000556	-0.000881	-0.001207	-0.000816	7187.167765	43566.790521	3937.318499	23416.248002
30.536500	-0.002230	0.000529	-0.003017	0.002455	7127.665117	43393.311345	3924.644466	23262.245296
31.036500	0.000232	0.001252	-0.002155	0.002522	7151.094062	43454.419609	3926.617818	23259.108008
31.537000	0.001084	0.000582	-0.001103	0.001884	7165.726473	43451.340430	3930.824639	23289.045090
32.037000	0.000156	-0.000731	0.001774	-0.000959	7184.616560	43594.203493	3945.182851	23422.999631
32.537500	0.001357	0.000170	0.002754	-0.000149	7188.481931	43602.621626	3945.611784	23384.711143
33.035000	-0.000242	-0.000628	0.001533	-0.000676	7177.891625	43577.373819	3943.858940	23409.610235
33.535000	0.001069	0.000138	-0.000845	0.000017	7183.999745	43584.191965	3936.136069	23376.918635
34.035000	0.000800	-0.000375	0.000539	0.001048	7171.172026	43440.067150	3937.021355	23328.347053
34.535500	0.001608	-0.000253	0.000421	0.001539	7174.289502	43405.736972	3935.494046	23305.239718
35.035500	-0.001785	-0.000238	0.000186	0.001391	7142.409340	43420.932052	3935.277153	23312.213853
35.536500	0.000258	-0.000279	-0.000523	0.001698	7159.433022	43388.499592	3932.735333	23297.756290
36.039500	-0.001808	0.000128	0.000495	0.001362	7142.458699	43457.638974	3936.122762	23313.554006
36.533500	0.000145	0.000429	0.001988	0.001627	7159.012606	43461.039981	3939.203356	23301.079026
37.040500	-0.001041	-0.000721	0.006492	0.001065	7152.884920	43406.239453	3952.011881	23327.513008
37.535000	0.001288	-0.000471	0.001232	0.001900	7167.575980	43351.798346	3936.620670	23288.269312
38.035500	-0.000219	-0.000263	0.001989	0.001447	7157.219376	43413.361648	3939.660536	23309.581918
38.536000	0.001091	0.000123	0.005204	0.001952	7165.122603	43402.259646	3946.493921	23285.826645
39.036000	-0.000392	0.000085	0.004247	0.001743	7152.605269	43418.171095	3944.602833	23295.638947
39.536500	0.000154	-0.000525	0.000567	0.001897	7156.459276	43347.143350	3934.964671	23288.436317
40.036500	0.000632	-0.000301	0.002033	0.001275	7167.272513	43425.770245	3940.203665	23317.629118
40.536500	-0.000636	0.000114	0.000620	0.001708	7150.555559	43424.052777	3935.569563	23297.272835
41.040000	-0.001025	0.000263	0.005821	0.001806	7145.788977	43428.927830	3948.428955	23292.713275
41.540000	0.000845	-0.000023	-0.002498	0.001671	7165.466486	43414.808796	3927.879450	23299.022892
42.035000	-0.000423	0.000600	0.001556	0.001982	7149.961768	43443.875570	3937.229246	23284.421909
42.535000	-0.000701	-0.000022	-0.002271	0.001413	7152.808535	43438.947232	3929.084947	23311.142920
43.035500	-0.000300	-0.000015	0.004397	0.001641	7154.508383	43418.358687	3945.240775	23300.451755
43.537500	-0.000348	0.000591	0.001803	0.001371	7156.694757	43500.043374	3939.383291	23313.142139
44.036000	0.001791	0.001070	0.001697	0.000748	7183.906709	43602.976395	3940.683241	23342.454210
44.536000	0.002241	-0.000509	0.002715	-0.000584	7201.556346	43579.882803	3946.614279	23405.246917
45.036500	0.002100	0.000462	0.005553	0.000131	7193.069605	43603.803837	3952.000158	23371.527467
45.537000	0.000798	0.000265	0.001944	0.000862	7172.974348	43517.080344	3941.016895	23337.061567
46.037500	0.001468	-0.000409	0.003625	0.000205	7186.080483	43515.544206	3946.922320	23368.048312
46.535000	0.002165	0.000924	0.007674	0.000477	7190.282276	43614.621126	3956.520666	23355.198798
47.038000	-0.000006	0.000215	0.003411	0.001125	7162.467393	43487.885798	3944.054058	23324.687298
47.535500	-0.000923	-0.000533	0.003006	0.002440	7140.580832	43295.945686	3939.721318	23262.948011
48.035500	0.000043	0.000142	-0.000634	0.000817	7165.979445	43509.805676	3934.661055	23339.190581
48.535500	0.001800	0.001415	0.003834	0.001084	7180.682955	43603.867063	3945.225903	23326.650658
49.036500	0.003442	0.000917	0.003722	0.000881	7198.936019	43576.267231	3945.457686	23336.199394
49.536500	0.002629	0.000554	0.000368	-0.001316	7212.695383	43748.083706	3942.537215	23439.882143
50.037000	0.002216	0.000416	0.002760	0.001561	7180.073996	43465.975057	3941.312765	23304.210868
50.537500	-0.004423	-0.002106	0.001167	0.002606	7104.848887	43134.728604	3934.689457	23255.142359
51.037500	-0.032207	-0.004538	0.012571	0.264345	5054.459839	24833.772002	3458.498285	14037.769299
51.535000	-0.058893	-0.018360	-0.004366	-0.046363	7051.809556	46276.766148	4049.025468	25685.610369
52.035000	-0.058590	-0.070824	-0.010892	-0.252199	9579.360631	64616.859517	4748.638081	39506.033748
52.535500	-0.132821	-0.297629	-0.086960	-0.485425	12536.334149	65535.000000	5577.460778	65535.000000
53.035500	-0.032104	-0.159230	0.011334	-0.347026	11734.709782	65535.000000	5336.671986	48440.468813
53.536500	-0.031430	-0.109952	0.006596	-0.297748	10798.339130	65535.000000	5045.582769	43554.722045
54.036000	-0.032982	-0.075970	-0.003528	-0.262146	10149.980671	65302.101830	4825.940111	40354.297227
54.536500	-0.025203	-0.065705	-0.007389	-0.249186	10063.882738	64916.416284	4750.781316	39252.849676
55.036500	-0.017773	-0.049467	-0.008348	-0.226451	9815.498840	63996.700588	4649.739345	37398.366429
55.539500	-0.013294	-0.033661	-0.008067	-0.201288	9493.447238	62696.135618	4549.397304	35455.896951
56.037000	-0.006903	-0.023652	-0.007850	-0.181739	9296.418436	61398.687839	4475.314111	34022.655718
56.534500	-0.006179	-0.019335	-0.008227	-0.166459	9085.271416	59942.201326	4417.678554	32946.404004
57.034500	-0.008111	-0.011008	-0.008444	-0.133196	8603.101547	56763.613049	4301.199464	30730.492476
57.535000	-0.005974	-0.013057	-0.010203	-0.147231	8819.810130	58268.697586	4342.870403	31644.814423
58.035000	-0.006247	-0.012243	-0.005869	-0.138174	8693.789130	57229.104515	4326.698410	31051.396253
58.536000	-0.010723	-0.010996	-0.011892	-0.120797	8409.022479	55250.952872	4249.117569	29946.916693
59.036000	-0.006277	-0.011756	-0.015968	-0.134354	8642.588633	56814.302280	4280.050627	30804.817764
59.537000	-0.004682	-0.010037	-0.008863	-0.126076	8554.748805	56007.249388	4276.184156	30277.776528
60.040000	-0.007399	-0.011823	-0.007993	-0.126952	8530.800281	55896.343275	4281.940509	30333.124973
60.537000	-0.008037	-0.010178	-0.011198	-0.121576	8453.232322	55443.653444	4253.879397	29995.503557
61.037500	-0.008745	-0.010321	-0.010674	-0.120339	8428.372410	55277.168123	4251.573423	29918.416082
61.535000	-0.008238	-0.008811	-0.011079	-0.119554	8424.831306	55364.503394	4247.732118	29869.611438
62.035000	-0.003792	-0.007773	-0.016426	-0.117755	8458.661076	55272.800258	4224.883938	29758.073583
62.535500	-0.003458	-0.007368	-0.015757	-0.114652	8423.281363	54948.938739	4217.189607	29566.844142
63.036000	-0.003206	-0.007863	-0.012761	-0.114976	8430.623360	54928.615406	4227.697494	29586.763414
63.536000	-0.002866	-0.008701	-0.013005	-0.115619	8443.175923	54905.146097	4228.964978	29626.296278
64.037000	-0.003155	-0.008392	-0.015548	-0.114328	8423.007986	54787.970188	4216.824158	29546.947102
64.539500	-0.003237	-0.008628	-0.011143	-0.113028	8405.430040	54604.954279	4226.646163	29467.239124
65.037000	-0.003395	-0.007518	-0.012626	-0.109881	8363.628464	54363.370677	4212.025888	29275.399796
65.537500	-0.004719	-0.008006	-0.011879	-0.110494	8354.672095	54378.131867	4216.304991	29312.644280
66.034500	-0.002881	-0.007074	-0.006501	-0.107949	8345.781785	54187.615832	4225.259215	29158.267520
66.535500	-0.004109	-0.007134	-0.006443	-0.108080	8332.028943	54195.967845	4225.859752	29166.194786
67.035500	-0.002840	-0.007026	-0.009622	-0.105858	8320.107078	53947.241541	4208.827880	29032.137489
67.536000	-0.004900	-0.007711	-0.011591	-0.107169	8310.746301	54020.786344	4206.766462	29111.150243
68.035500	-0.005050	-0.008160	-0.011043	-0.105920	8293.325425	53821.672914	4204.578300	29035.886290
68.536000	-0.005069	-0.007889	-0.011818	-0.104719	8278.159204	53712.839350	4198.414428	28963.637851
69.036500	-0.006889	-0.007888	-0.010156	-0.101767	8219.292096	53369.178770	4194.408800	28787.041616
69.536500	-0.007371	-0.008368	-0.011566	-0.102175	8218.380066	53360.854369	4191.307258	28811.375852
70.037000	-0.008441	-0.008346	-0.015517	-0.100517	8185.023283	53171.439574	4174.066962	28712.644465
70.540000	-0.008820	-0.008024	-0.007656	-0.099694	8170.389784	53113.578655	4195.736395	28663.752408
71.035000	-0.010226	-0.008678	-0.012360	-0.096309	8112.466082	52649.463583	4170.858952	28463.645419
71.535000	-0.009546	-0.008958	-0.012149	-0.097894	8139.773195	52798.974576	4176.343104	28557.157698
72.035500	-0.011142	-0.008951	-0.009799	-0.096340	8101.843907	52621.854669	4178.780246	28465.495467
72.535500	-0.008890	-0.008390	-0.011116	-0.095728	8121.551358	52615.964087	4172.879263	28429.449129
73.036500	-0.012931	-0.008624	-0.014480	-0.091814	8026.614598	52144.020578	4150.858962	28200.338071
73.536500	-0.008743	-0.008012	-0.010247	-0.093531	8096.925296	52408.465722	4168.837212	28300.631788
74.036500	-0.009684	-0.008572	-0.013615	-0.092423	8072.421718	52218.950475	4155.289080	28235.860888
74.537000	-0.008787	-0.008533	-0.007164	-0.092417	8083.065089	52222.769313	4174.840445	28235.535113
75.037500	-0.012496	-0.008695	-0.011519	-0.088147	7988.544052	51722.738652	4148.742322	27987.584560
75.535000	-0.009433	-0.007828	-0.009910	-0.090772	8055.743055	52116.278564	4161.488120	28139.700763
76.035500	-0.010547	-0.008094	-0.011095	-0.090759	8042.353216	52084.680467	4157.869734	28138.941285
76.535500	-0.010049	-0.008080	-0.012279	-0.090386	8043.834531	52044.143573	4153.180479	28117.265396
77.035000	-0.011797	-0.007618	-0.013454	-0.085991	7971.470418	51601.784572	4136.545075	27863.305095
77.535500	-0.010198	-0.008606	-0.009094	-0.090483	8043.218902	51995.622418	4163.082425	28122.886471
78.036000	-0.010101	-0.007810	-0.008292	-0.089308	8030.450967	51952.937589	4161.955061	28054.730054
78.539000	-0.011673	-0.008022	-0.008452	-0.089372	8012.635514	51936.190423	4161.664819	28058.449106
79.036500	-0.013072	-0.008175	-0.014344	-0.085353	7949.130485	51468.078588	4132.018336	27826.612591
79.537000	-0.010798	-0.008028	-0.009678	-0.088661	8014.572326	51855.469207	4155.818318	28017.287135
80.037500	-0.009383	-0.007513	-0.008660	-0.088540	8029.855002	51899.822505	4158.522704	28010.286619
80.535000	-0.008835	-0.006990	-0.011370	-0.087524	8024.323677	51844.362774	4147.325250	27951.601422
81.034500	-0.011720	-0.007635	-0.017398	-0.083493	7943.225286	51320.915849	4117.568392	27720.055938
81.535500	-0.007551	-0.006974	-0.012563	-0.087002	8033.336865	51787.325743	4142.201434	27921.465266
82.036000	-0.007610	-0.007747	-0.008667	-0.087810	8042.215169	51791.359310	4156.298254	27968.117550
82.536500	-0.007315	-0.007035	-0.012691	-0.087215	8038.657513	51804.526446	4142.454252	27933.771462
83.039000	-0.010528	-0.007674	-0.013777	-0.082457	7945.041491	51201.413899	4125.150093	27660.915738
83.536500	-0.009086	-0.007310	-0.009235	-0.087649	8022.841769	51822.417719	4154.103637	27958.817854
84.037000	-0.006679	-0.007646	-0.009061	-0.087330	8047.559187	51748.670546	4153.665839	27940.372446
84.534500	-0.006210	-0.007413	-0.009586	-0.086971	8048.871772	51734.534519	4151.011097	27919.683919
85.035000	-0.007399	-0.005955	-0.012746	-0.082176	7978.294170	51361.401492	4127.357191	27644.900662
85.535000	-0.007568	-0.007175	-0.012675	-0.087247	8036.047265	51792.404576	4142.598280	27935.634174
86.035500	-0.007000	-0.006820	-0.010508	-0.086587	8034.949508	51758.019539	4147.098045	27897.554567
86.536000	-0.008470	-0.006560	-0.012044	-0.086981	8022.217345	51831.600817	4143.685605	27920.279699
87.036000	-0.009890	-0.006880	-0.012994	-0.082650	7954.718433	51311.179274	4128.025344	27671.946219
87.536500	-0.006482	-0.006924	-0.008216	-0.086877	8044.535439	51778.981018	4154.848872	27914.307369
88.036500	-0.005256	-0.006014	-0.007243	-0.086221	8051.286116	51807.497207	4155.799830	27876.492773
88.536500	-0.006213	-0.005834	-0.011100	-0.086273	8040.550549	51833.569508	4144.391249	27879.508203
89.036500	-0.007623	-0.006524	-0.010022	-0.081952	7973.044571	51273.146842	4134.743775	27632.122323
89.534500	-0.005923	-0.006767	-0.010561	-0.086926	8051.752038	51802.186378	4147.956961	27917.123097
90.038000	-0.006790	-0.006664	-0.009873	-0.086119	8031.894188	51722.974237	4147.596780	27870.628042
90.535000	-0.005793	-0.006515	-0.008115	-0.086258	8045.354977	51755.379615	4153.288599	27878.614660
91.035500	-0.010380	-0.006627	-0.012250	-0.080725	7926.638127	51125.515093	4124.546251	27562.354396
91.536000	-0.006773	-0.006046	-0.008504	-0.085503	8024.811289	51723.315200	4149.855795	27835.247086
92.036000	-0.005069	-0.005785	-0.006186	-0.084766	8036.251124	51669.786074	4154.600564	27792.927823
92.536000	-0.007084	-0.006242	-0.008347	-0.085499	8021.084211	51700.759704	4150.311168	27834.985834
93.036500	-0.009506	-0.006510	-0.009375	-0.080028	7928.681019	51061.111035	4130.964749	27522.742512
93.536500	-0.005352	-0.005743	-0.006239	-0.084279	8027.136747	51619.894017	4152.979199	27765.015074
94.034500	-0.006496	-0.005836	-0.010409	-0.083925	8009.458452	51569.959167	4139.452860	27744.782787
94.535000	-0.006075	-0.005478	-0.011388	-0.083875	8013.817661	51604.403714	4136.395866	27741.891195
95.034500	-0.009690	-0.005892	-0.009478	-0.078074	7903.951841	50913.560988	4124.902903	27412.218553
95.535500	-0.005968	-0.005945	-0.006142	-0.083302	8008.331841	51488.083133	4150.335887	27709.137722
96.035500	-0.005249	-0.005879	-0.005587	-0.082677	8009.438195	51425.686676	4150.124760	27673.443180
96.535500	-0.007449	-0.006386	-0.008230	-0.083014	7987.526485	51406.692277	4143.228872	27692.686300
97.039000	-0.004148	-0.005466	-0.009273	-0.081848	8012.649349	51379.352713	4136.656345	27626.211659
97.537000	-0.007335	-0.005547	-0.006214	-0.082032	7977.353977	51390.820032	4146.319605	27636.690093
98.036500	-0.006221	-0.005430	-0.005858	-0.080866	7976.745017	51274.036448	4143.896577	27570.334155
98.537000	-0.005563	-0.005091	-0.008193	-0.080684	7982.318192	51291.451478	4136.406608	27560.001760
99.037000	-0.006279	-0.005185	-0.004594	-0.080322	7969.691368	51240.750692	4146.049193	27539.430402
99.534500	-0.006485	-0.005058	-0.009436	-0.079843	7961.686754	51201.598360	4130.237176	27512.264132
100.035500	-0.006620	-0.005071	-0.007836	-0.079555	7956.754357	51168.215082	4134.117916	27495.955893
100.535500	-0.005558	-0.004841	-0.006765	-0.079304	7966.230454	51165.975045	4136.552288	27481.766739
101.035500	-0.010315	-0.005147	-0.010002	-0.073417	7843.342790	50483.554151	4109.754373	27150.657511
101.539000	-0.006205	-0.004035	-0.006089	-0.077831	7941.511307	51091.949934	4134.185463	27398.465118
102.036500	-0.006723	-0.004846	-0.007520	-0.078071	7938.280883	51028.774706	4130.664903	27412.020593
102.536500	-0.006466	-0.005155	-0.006468	-0.077748	7937.514855	50958.871842	4132.818501	27393.802497
103.037000	-0.010033	-0.005226	-0.012824	-0.071803	7828.186895	50298.838554	4096.931131	27060.697961
103.534500	-0.006331	-0.004408	-0.004021	-0.076123	7920.229703	50861.946134	4135.252648	27302.265736
104.035000	-0.005379	-0.004424	-0.007153	-0.076231	7932.525737	50872.067965	4126.320130	27308.370304
104.536000	-0.006451	-0.004217	-0.007341	-0.075582	7912.583053	50823.434035	4123.857443	27271.909571
105.035000	-0.009809	-0.004682	-0.013305	-0.070060	7810.953968	50168.356404	4090.549590	26963.894832
105.535500	-0.006173	-0.004267	-0.002989	-0.074337	7901.420646	50681.009128	4133.021657	27202.135029
106.038500	-0.006844	-0.003981	-0.003991	-0.073483	7883.845467	50618.564624	4127.538108	27154.332762
106.536500	-0.007610	-0.004576	-0.005893	-0.074275	7884.150169	50640.230185	4124.272242	27198.657256
107.036500	-0.010561	-0.004040	-0.008076	-0.068539	7785.262759	50072.878245	4101.205499	26879.720573
107.534500	-0.006136	-0.004553	-0.007562	-0.072821	7884.373199	50483.370166	4115.126584	27117.401299
108.037000	-0.006373	-0.003782	-0.004688	-0.072482	7877.757703	50530.682469	4122.544049	27098.497823
108.537000	-0.004990	-0.003929	-0.006772	-0.071944	7887.464636	50455.743325	4114.870684	27068.517781
109.034500	-0.008916	-0.004709	-0.013882	-0.067904	7796.655063	49931.631467	4082.753233	26844.672854
109.536000	-0.005099	-0.004130	-0.010640	-0.071755	7884.049623	50413.058058	4103.090492	27058.017479
110.035500	-0.007042	-0.004681	-0.009683	-0.071349	7857.114655	50308.774221	4104.685107	27035.459833
110.536500	-0.005203	-0.003953	-0.008343	-0.070622	7869.837133	50308.705263	4106.457781	26995.030570
111.036000	-0.010447	-0.004465	-0.011561	-0.065506	7752.477138	49699.451351	4082.536030	26712.807832
111.535000	-0.005986	-0.003570	-0.006727	-0.069719	7850.558894	50252.217919	4108.529940	26945.010482
112.037000	-0.005464	-0.003528	-0.003592	-0.069138	7849.877502	50193.538091	4115.965136	26912.858898
112.535500	-0.007401	-0.003502	-0.007870	-0.069511	7832.049203	50236.968054	4104.613429	26933.486478
113.037000	-0.005984	-0.003995	-0.011679	-0.069335	7846.182343	50164.106019	4093.130312	26923.715930
113.536500	-0.006199	-0.003322	-0.004837	-0.068460	7833.768321	50142.137581	4110.358215	26875.336503
114.035000	-0.005251	-0.003081	-0.007301	-0.067969	7838.965250	50115.064291	4101.796637	26848.244173
114.535500	-0.005868	-0.002829	-0.006167	-0.067678	7828.648173	50110.851114	4104.237084	26832.244350
115.035500	-0.006794	-0.003116	-0.010824	-0.064005	7776.629768	49683.041852	4080.365889	26630.626110
115.536500	-0.004851	-0.002867	-0.008502	-0.067313	7836.055735	50067.166761	4096.447268	26812.101096
116.036000	-0.005961	-0.003410	-0.009627	-0.067188	7822.016175	49994.742736	4092.859472	26805.237508
116.536500	-0.006153	-0.003493	-0.006952	-0.067436	7822.644255	50012.590337	4101.265747	26818.867251
117.036000	-0.005768	-0.003196	-0.009278	-0.066934	7821.328261	49990.422130	4093.133170	26791.265842
117.537000	-0.006345	-0.003931	-0.008814	-0.067231	7818.136722	49942.989892	4095.313518	26807.568788
118.037500	-0.007444	-0.003649	-0.006344	-0.067035	7803.475752	49952.285180	4101.865681	26796.790416
118.536000	-0.005412	-0.002221	-0.008305	-0.065554	7809.709517	49946.552290	4091.963580	26715.404902
119.035000	-0.007018	-0.002926	-0.004986	-0.065946	7795.971250	49912.695845	4102.641953	26736.910083
119.538000	-0.005368	-0.003228	-0.007030	-0.065651	7811.305015	49848.316415	4095.901816	26720.751313
120.038500	-0.005226	-0.003069	-0.005900	-0.065588	7812.212303	49858.728709	4098.973595	26717.301456
120.535500	-0.006271	-0.003203	-0.011418	-0.065234	7796.370520	49805.931113	4082.168773	26697.860765
121.036500	-0.008958	-0.003619	-0.007392	-0.061502	7724.407011	49360.891100	4083.005225	26494.185137
121.536500	-0.005770	-0.002431	-0.005904	-0.064601	7794.888810	49820.998476	4096.121790	26663.221239
122.037000	-0.005346	-0.002922	-0.011427	-0.064223	7795.411650	49727.362867	4079.271817	26642.535423
122.542500	-0.005404	-0.003322	-0.008387	-0.064610	7799.119755	49725.860531	4089.027858	26663.669744
123.034500	-0.010361	-0.003582	-0.008919	-0.060571	7698.504828	49265.478421	4076.034199	26443.666409
123.535500	-0.006131	-0.002949	-0.007051	-0.064008	7784.126414	49701.305087	4091.130434	26630.780306
124.037500	-0.007424	-0.003108	-0.011035	-0.063442	7763.224761	49623.365501	4078.171116	26599.867525
124.538500	-0.006467	-0.003244	-0.009890	-0.063653	7776.343595	49631.461897	4082.016483	26611.363711
125.036000	-0.008694	-0.003254	-0.010359	-0.061072	7722.557653	49353.967466	4073.380438	26470.834208
125.536000	-0.008052	-0.002628	-0.008472	-0.062727	7748.181123	49598.146057	4083.417925	26560.862367
126.036500	-0.006361	-0.002317	-0.006154	-0.062161	7760.776968	49570.753667	4088.408765	26529.996153
