sample name	sample
index	257
start time	 02-25-2021  10:46:24 AM
880	0.204812
Peak Time (s)	91.537
Peak Height 	0.2048
calc peak height	90,93
Baseline Time (s)	10.534
Baseline Value 	-0.004697
subtract baseline	10,4
Abs	0.139823
Peak Time (s)	90.036
Peak Height 	0.1398
calc peak height	90,93
Baseline Time (s)	8.536
Baseline Value 	0.002877
subtract baseline	10,3
PK_550	0.061792
Peak Time (s)	90.036
Peak Height 	0.06179
calc peak height	90,93
Baseline Time (s)	10.534
Baseline Value 	4.9037E-4
subtract baseline	10,2
PK_880	0.128384
Peak Time (s)	92.04
Peak Height 	0.1284
calc peak height	90,93
Baseline Time (s)	9.537
Baseline Value 	0.00293
subtract baseline	10,1


Time (s)	A880-A510	A880-A775	A880-A975	A880	I510	I775	I975	I880	
0.036500	-0.000344	-0.000379	-0.000914	0.001008	6874.388647	46182.474760	3929.841234	24288.102728
0.537000	-0.003033	-0.000227	-0.003374	0.006385	6799.295557	45663.683856	3908.970605	24023.400031
1.034000	-0.001715	-0.000770	-0.003542	0.003272	6840.371372	45917.984866	3916.768013	24176.231095
1.536000	-0.000609	-0.000456	-0.000984	0.000221	6879.299550	46253.383558	3931.769055	24327.104938
2.035000	-0.001361	-0.000070	-0.001014	0.000423	6870.336165	46271.839202	3931.144333	24317.094889
2.535000	-0.005301	-0.000597	-0.004589	0.005317	6788.246246	45732.556232	3908.582246	24075.699594
3.035500	0.000656	0.000276	-0.002569	-0.001182	6904.473058	46467.460640	3931.276638	24396.812491
3.535500	-0.002720	-0.000310	-0.004129	0.000349	6858.286037	46255.160793	3922.990790	24320.734611
4.036000	-0.001472	0.000286	-0.004718	0.001239	6861.645713	46225.819542	3919.048218	24276.653285
4.536500	-0.001224	-0.000021	0.000564	0.000644	6869.539701	46254.547898	3934.799006	24306.113801
5.036500	-0.000445	-0.000673	0.006502	0.000220	6880.849593	46231.845678	3952.093095	24327.171386
5.537000	-0.001105	0.000671	0.006152	0.000988	6867.433073	46289.379202	3949.035878	24289.078001
6.035000	-0.002091	-0.001470	-0.002505	-0.000359	6870.815279	46209.992139	3929.238218	24355.888309
6.535000	-0.003610	-0.000116	-0.002910	0.000115	6852.158253	46297.989140	3926.880638	24332.363570
7.037500	0.002179	0.000037	-0.003128	0.000544	6902.554429	46270.371839	3925.146506	24311.087304
7.535000	-0.002377	-0.000930	-0.001988	-0.000080	6865.517162	46236.089159	3929.876918	24342.033080
8.035500	0.000476	0.000353	-0.003703	0.000247	6889.269978	46331.729586	3924.403438	24325.809634
8.535500	-0.002699	-0.000754	0.000000	-0.000324	6864.792784	46278.089772	3935.890531	24354.171247
9.036500	-0.000036	0.000379	0.001291	0.000730	6879.898085	46286.030692	3936.530057	24301.864551
9.536500	0.000000	0.000176	-0.000928	0.000204	6885.187111	46318.340324	3931.961918	24327.924724
10.036500	0.000488	-0.000340	0.001317	-0.000349	6895.015391	46322.054993	3939.520106	24355.413455
10.534000	0.000258	0.000000	-0.005507	0.000000	6889.542960	46321.138799	3920.245521	24338.068301
11.034500	-0.001000	-0.000375	0.001413	-0.000268	6880.226008	46310.418685	3939.561505	24351.388033
11.534500	0.001099	0.000124	-0.003752	0.000227	6895.348008	46310.850103	3924.325821	24326.821459
12.034500	-0.001804	-0.000654	0.000116	0.001085	6859.979067	46147.281764	3932.404003	24284.279720
12.535000	-0.000130	-0.000500	0.000193	0.000311	6882.961211	46239.962911	3934.698633	24322.649816
13.036000	-0.000149	-0.000589	-0.000533	-0.002398	6908.364122	46502.754179	3940.060308	24457.440930
13.536000	-0.000744	0.000047	0.001404	-0.000122	6881.256619	46338.059514	3939.142195	24344.136346
14.036500	-0.000610	0.000266	-0.004099	0.001363	6868.557214	46211.391862	3920.365587	24270.519846
14.537000	-0.004249	-0.000216	0.001489	0.002775	6821.440079	46022.526828	3931.548547	24200.734809
15.034500	-0.001422	0.000125	-0.000589	0.000124	6872.575406	46321.251557	3933.093948	24331.937390
15.551000	-0.001857	0.000383	-0.000512	0.000037	6869.300466	46355.785020	3933.534224	24336.229923
16.034500	-0.001385	-0.000257	-0.000955	0.001300	6861.877784	46165.409995	3928.944001	24273.604793
16.538000	0.000943	0.000336	-0.001147	0.000643	6889.941093	46290.334928	3930.193376	24306.154593
17.035500	-0.001112	0.000302	-0.001174	-0.000037	6876.985851	46355.118676	3931.949077	24339.882193
17.536000	0.000603	-0.000146	0.001717	-0.003604	6926.953163	46668.932888	3949.464208	24517.718237
18.036000	-0.000901	0.000164	-0.001417	0.001295	6866.467928	46207.963572	3927.717537	24273.867580
18.536000	-0.000996	-0.000235	-0.001918	0.000679	6871.358179	46229.652901	3928.027385	24304.388467
19.038500	-0.000797	-0.000102	0.000933	0.001432	6866.153098	46167.709890	3933.668405	24267.074472
19.537000	-0.000896	-0.000094	-0.003141	0.001337	6866.116585	46178.013180	3922.990790	24271.796621
20.039500	-0.001297	-0.000329	0.001880	0.001426	6861.529109	46145.692361	3936.240797	24267.390227
20.537500	-0.002725	0.000130	-0.001120	0.002034	6842.499888	46130.833428	3926.532317	24237.323260
21.035000	-0.001614	-0.000592	-0.000905	0.001060	6861.983370	46155.931638	3929.723870	24285.495760
21.535000	0.000182	-0.000408	-0.001030	0.001174	6877.770309	46162.886418	3929.082760	24279.867192
22.035500	0.000796	-0.000115	-0.000182	0.001394	6881.481428	46170.184725	3930.769728	24268.965343
22.535500	0.000170	0.000413	0.001438	0.001570	6873.940858	46205.306656	3934.659178	24260.257450
23.036000	-0.002632	-0.000376	0.003201	0.001141	6851.698161	46169.367775	3940.586086	24281.475693
23.536500	-0.000522	0.001035	0.002623	0.002148	6862.021909	46209.808190	3936.297224	24231.692012
24.037000	-0.002921	-0.000799	-0.002985	0.000861	6851.624394	46155.176157	3924.682026	24295.376374
24.537000	-0.001002	0.000197	0.002123	0.001387	6864.658146	46202.064824	3937.005278	24269.338640
25.034500	-0.001077	-0.000393	-0.003138	0.001236	6865.370567	46158.170686	3923.269085	24276.778122
25.535000	-0.001796	0.000747	0.000964	0.002204	6849.585554	46175.423171	3931.673708	24228.945351
26.038000	-0.003081	0.000314	0.000224	0.001516	6844.009909	46200.847585	3931.532762	24262.943980
26.535500	-0.000280	0.000054	0.000476	0.001624	6869.204366	46164.034332	3931.920451	24257.575909
27.035500	-0.000278	0.000247	-0.001624	0.001389	6871.430365	46206.889688	3926.911364	24269.223160
27.536000	0.000360	0.000471	0.001067	-0.000277	6893.115834	46396.139192	3938.646989	24351.809073
28.035500	0.002147	0.000344	0.006259	-0.002123	6927.555056	46568.969657	3957.857419	24443.725545
28.536500	-0.000462	-0.000145	0.002580	-0.000744	6889.769844	46381.197861	3944.021145	24375.032401
29.039500	0.000713	0.000396	0.000849	0.000199	6891.954438	46340.832319	3936.769811	24328.168586
29.537000	0.000785	0.000424	0.007339	0.000005	6894.473281	46363.226864	3954.976384	24337.840172
30.037500	0.000004	-0.000030	0.002625	0.000230	6884.986661	46295.111782	3941.495352	24326.651713
30.540500	-0.001353	0.000155	-0.002044	0.002846	6847.727055	46052.361698	3921.893034	24197.241991
31.045000	0.001731	-0.000096	0.001270	-0.000338	6906.654738	46345.407370	3939.363306	24354.838798
31.538000	-0.002173	-0.000061	0.005206	0.003140	6837.341794	46001.614623	3940.606002	24182.768220
32.035500	-0.003572	-0.000269	-0.000413	0.003288	6822.960278	45966.183479	3925.067460	24175.436002
32.553500	-0.002918	-0.000532	-0.002611	0.002832	6833.280024	45985.485662	3920.416746	24197.952260
33.036500	0.000946	0.000197	0.000504	-0.000389	6899.721447	46379.919776	3937.428719	24357.412345
33.536500	-0.000886	0.000118	-0.000212	-0.000299	6881.576490	46362.872663	3935.249421	24352.898505
34.037000	-0.003895	-0.000159	-0.000676	0.001982	6832.098322	46107.160468	3927.864422	24239.910097
34.537500	-0.002242	0.000357	-0.000987	0.003457	6833.744266	46011.671013	3923.082677	24167.120003
35.037000	-0.001718	-0.000315	0.003306	0.001986	6852.349562	46091.253469	3938.584865	24239.712709
35.535500	-0.001820	0.000640	0.000657	0.002768	6844.092076	46108.380051	3929.329882	24201.070537
36.035000	-0.001549	-0.000256	0.000841	0.002118	6852.701597	46083.923851	3931.573266	24233.185068
36.535000	-0.001061	0.000722	0.003094	0.002677	6852.036411	46125.741522	3936.141095	24205.580375
37.036000	-0.001689	0.000009	-0.003784	0.002050	6852.018130	46117.083647	3919.373162	24236.511922
37.536000	-0.002352	-0.000139	-0.000887	0.001816	6848.018664	46125.720666	3927.744132	24248.109628
38.036500	-0.002472	0.000581	0.000411	0.003086	6835.057740	46070.823732	3927.817084	24185.389745
38.537000	-0.003052	-0.000819	0.001463	0.001154	6847.669346	46123.935430	3935.849958	24280.876307
39.037000	-0.000769	-0.000216	-0.002677	0.001411	6866.620156	46158.471127	3924.034082	24268.133010
39.537500	-0.003453	-0.000671	-0.002446	0.001259	6842.937746	46128.137309	3925.058216	24275.648264
40.038000	0.000285	-0.000385	0.002242	0.001668	6874.100348	46115.946115	3936.565449	24255.433629
40.535500	-0.002433	0.000246	-0.000334	0.002234	6843.356483	46122.382593	3928.102970	24227.424019
41.035500	-0.001600	0.000384	0.001959	0.002543	6848.253502	46105.372760	3933.441511	24212.207167
41.535500	-0.000131	0.000238	-0.000496	0.002185	6865.341070	46126.506249	3927.803864	24229.884589
42.035500	-0.001401	0.000175	0.004524	0.003245	6843.553029	46014.600904	3938.470669	24177.569109
42.536500	-0.001680	0.000025	0.004726	0.002535	6847.575125	46070.430034	3940.944322	24212.598543
43.036500	-0.000568	0.000273	0.003859	0.002585	6857.500937	46090.159369	3938.459084	24210.133466
43.537000	-0.002835	0.000253	-0.000327	0.002012	6841.680054	46145.234905	3928.720101	24238.426226
44.037000	-0.003862	-0.000733	-0.001261	0.002033	6831.924009	46044.863732	3926.158451	24237.363174
44.535000	-0.001635	0.000243	-0.000925	0.002317	6850.034134	46113.815008	3926.298881	24223.354024
45.035000	0.001821	0.000217	0.002356	-0.002241	6925.579657	46568.141447	3947.487775	24449.608806
45.538000	0.001646	0.000162	0.004224	-0.000059	6903.213785	46343.338410	3946.633059	24341.003810
46.051500	-0.003479	-0.000091	0.000509	0.003788	6819.189425	45934.261685	3926.198508	24150.841093
46.539000	-0.000511	0.000540	0.000741	0.001640	6866.889728	46211.097097	3932.592889	24256.824075
47.036000	0.000764	0.000014	0.001479	-0.000067	6894.958423	46329.222195	3939.194112	24341.403281
47.536000	-0.000800	0.000005	0.001365	-0.000237	6881.808808	46345.406637	3939.346402	24349.829772
48.036500	-0.000496	0.000115	0.001649	0.002592	6858.113750	46073.640354	3932.474252	24209.778759
48.536500	-0.003372	0.000150	-0.000518	0.003394	6823.834759	45997.321062	3924.503898	24170.206034
49.037000	-0.002062	0.000446	-0.001228	0.003195	6837.857668	46046.601433	3923.138054	24180.027662
49.540500	-0.001221	-0.000908	0.001944	-0.000477	6880.107823	46277.967951	3941.566049	24361.746748
50.035500	-0.002770	0.000345	0.006169	0.002806	6834.893853	46075.266287	3944.127320	24199.236941
50.539000	-0.000089	0.000738	0.003305	0.001821	6869.153871	46212.734621	3939.028223	24247.855960
51.035500	0.001822	0.000508	0.002093	-0.001919	6922.524387	46564.949877	3945.891800	24433.540244
51.536000	0.000078	0.000012	0.004619	0.000257	6885.419232	46296.514013	3946.846218	24325.290924
52.036000	0.000177	-0.000280	0.002086	0.001294	6876.594537	46163.713676	3937.154710	24273.921754
52.536500	-0.025025	-0.017928	0.012418	0.292718	4763.157043	24088.516679	3377.616789	13766.121046
53.037000	-0.016489	-0.015190	-0.013077	-0.018908	6909.974936	46695.193861	3950.856406	25297.471760
53.539500	-0.034262	-0.130457	-0.025450	-0.289293	10157.729893	65535.000000	4914.744193	44748.872195
54.034500	-0.034673	-0.188437	-0.016214	-0.347274	11201.533690	65535.000000	5274.939380	50743.479882
54.534500	-0.037614	-0.146332	-0.010038	-0.305168	10373.156426	65535.000000	5075.485307	46311.440878
55.035000	-0.036264	-0.143829	-0.004477	-0.302666	10353.076929	65535.000000	5091.831072	46061.311431
55.535500	-0.035839	-0.094041	-0.009336	-0.252543	9535.704755	65486.769160	4814.889387	41343.372008
56.036000	-0.023402	-0.097605	-0.015679	-0.256441	9794.107155	65535.000000	4803.371568	41691.063994
56.536000	-0.006110	-0.093762	-0.010089	-0.252599	10014.281939	65535.000000	4811.594827	41348.276261
57.036500	-0.001289	-0.077340	-0.003013	-0.235413	9811.622500	65424.889669	4764.459205	39851.822450
57.536500	-0.000735	-0.045476	-0.000069	-0.189296	9112.658472	63403.220702	4575.057715	36116.769974
58.036500	0.006612	-0.026332	0.007682	-0.154734	8728.833952	61289.787240	4466.566572	33566.389447
58.537500	0.008372	-0.013696	0.007810	-0.102734	8080.471590	56222.165208	4274.762195	30092.019992
59.037500	0.009435	-0.008059	0.013896	-0.059528	7591.559245	51795.798460	4150.911102	27505.436226
59.535000	0.018500	-0.003910	0.019300	-0.031786	7389.603680	49205.709016	4081.326607	25975.270785
60.035500	0.020444	-0.000239	0.021816	-0.003626	7120.389278	46661.844549	4005.732200	24518.845055
60.539000	0.026479	0.004660	0.027745	0.020612	6942.781901	44751.921148	3954.424391	23338.686550
61.036000	0.030696	0.007465	0.036724	0.043577	6767.494103	42849.418864	3916.666434	22279.701568
61.538500	0.041050	0.016206	0.046041	0.048946	6813.365898	43161.532617	3927.202724	22040.086055
62.036000	0.049603	0.020874	0.055190	0.070555	6694.322261	41617.733886	3894.271285	21105.086709
62.537000	0.054186	0.022219	0.060186	0.094193	6526.886602	39675.906747	3846.736941	20134.223770
63.037000	0.062237	0.027998	0.067612	0.108268	6475.457987	38978.268562	3830.269836	19580.713924
63.537500	0.069733	0.032657	0.072273	0.108877	6534.305281	39317.151648	3840.272981	19557.161070
64.035000	0.075651	0.036482	0.077085	0.113567	6544.892821	39244.498356	3840.575995	19376.929376
64.535000	0.077677	0.039404	0.078637	0.119391	6512.241443	39001.875110	3830.030306	19155.843468
65.075000	0.085022	0.041109	0.083660	0.120677	6564.480011	39036.818330	3839.251550	19107.396601
65.535500	0.087413	0.043492	0.088773	0.125870	6540.233208	38803.185591	3839.053953	18913.316872
66.036000	0.085104	0.045223	0.088601	0.134627	6445.972900	38225.551674	3817.152892	18591.214712
66.536500	0.090121	0.047328	0.093683	0.136652	6471.220273	38232.003148	3824.600102	18517.636805
67.037000	0.093076	0.047379	0.093567	0.140057	6467.410486	37959.518903	3816.027025	18394.715808
67.537000	0.096948	0.050399	0.099486	0.146276	6447.614842	37701.598661	3815.301619	18172.681398
68.036500	0.097354	0.051361	0.101289	0.149767	6421.743292	37498.910583	3811.216138	18049.404068
68.537500	0.102840	0.052901	0.107998	0.155647	6418.456493	37154.033790	3813.220216	17844.032161
69.035000	0.100889	0.053866	0.114177	0.158485	6378.709222	37006.220051	3821.330708	17745.906416
69.535500	0.104108	0.055937	0.105015	0.164030	6359.562952	36733.752395	3786.090592	17556.014812
70.035500	0.104013	0.055924	0.109400	0.170199	6308.498428	36254.306891	3781.895941	17347.574051
70.535500	0.107531	0.057307	0.116075	0.170852	6331.759977	36310.490370	3796.122898	17325.670239
71.036000	0.109050	0.058591	0.116859	0.174160	6317.209830	36154.714782	3790.135432	17215.278999
71.536000	0.111741	0.059353	0.116848	0.177095	6315.231071	35988.306989	3783.189952	17118.036813
72.036000	0.111874	0.060562	0.116950	0.182845	6269.978314	35643.198326	3770.006218	16929.415844
72.537000	0.114162	0.061476	0.122539	0.182190	6293.623470	35762.096428	3784.592598	16950.793034
73.037500	0.116320	0.062418	0.120191	0.184304	6293.970614	35673.234248	3774.147972	16881.954690
73.534500	0.116083	0.062493	0.124752	0.186028	6278.205414	35548.652695	3780.776615	16826.079951
74.035000	0.115130	0.063988	0.119126	0.191711	6225.365446	35234.487651	3754.612753	16643.441241
74.535500	0.117216	0.064113	0.125012	0.190067	6254.970497	35366.864005	3771.958467	16696.048617
75.035500	0.119805	0.063245	0.121309	0.190036	6275.911133	35304.120304	3763.461715	16697.019742
75.535500	0.120535	0.065022	0.123048	0.192954	6258.408979	35218.859084	3760.750030	16603.824210
76.036000	0.118830	0.064305	0.123899	0.196424	6217.370615	34907.913827	3754.750618	16493.778413
76.536500	0.118487	0.065498	0.119867	0.194848	6227.103932	35113.280774	3749.157830	16543.656336
77.036500	0.123042	0.065397	0.125583	0.195374	6259.107022	35066.703334	3761.014347	16527.008933
77.537000	0.122915	0.065299	0.124477	0.195730	6255.250890	35032.926651	3757.658403	16515.713150
78.037500	0.119069	0.064128	0.124193	0.198946	6199.422946	34709.086300	3749.675792	16414.371213
78.535000	0.120984	0.066096	0.125321	0.197982	6222.073163	34925.178013	3754.439944	16444.673503
79.035500	0.123728	0.065199	0.133387	0.197713	6245.941893	34878.776081	3773.652921	16453.151848
79.535500	0.124302	0.065139	0.126809	0.197447	6252.620532	34893.942193	3759.067970	16461.509089
80.036000	0.123311	0.063904	0.127443	0.199282	6230.184846	34667.944110	3756.318190	16403.816220
80.536000	0.123483	0.064151	0.124859	0.198715	6236.043354	34727.735707	3751.716760	16421.639565
81.036500	0.125111	0.066552	0.132280	0.200628	6233.789736	34763.660269	3764.337690	16361.672690
81.537000	0.124645	0.065165	0.130060	0.199743	6237.100645	34726.648016	3761.261158	16389.361726
82.037000	0.123644	0.063759	0.126622	0.201165	6217.945532	34519.493507	3750.152355	16344.859093
82.540000	0.125196	0.064946	0.130389	0.200930	6232.064145	34623.516874	3759.292988	16352.214018
83.034500	0.125479	0.065149	0.133170	0.200922	6234.368210	34638.987309	3765.709765	16352.458002
83.535000	0.127171	0.064538	0.131155	0.201390	6244.081763	34560.049133	3759.994122	16337.856805
84.035500	0.121826	0.063532	0.129949	0.202995	6189.304391	34369.712853	3753.562851	16287.832270
84.535500	0.126162	0.063899	0.130592	0.201542	6234.874646	34502.268725	3758.354958	16333.109810
85.036000	0.126184	0.064525	0.134010	0.202139	6230.315086	34504.341988	3764.840400	16314.471071
85.535500	0.128393	0.065392	0.134541	0.203061	6240.512694	34500.363956	3763.939638	16285.767231
86.036500	0.123782	0.062524	0.126047	0.204356	6193.965881	34198.042699	3741.629319	16245.562819
86.537000	0.126026	0.063169	0.133345	0.202880	6223.213659	34351.690220	3761.603988	16291.409577
87.037500	0.126424	0.063076	0.134536	0.202446	6229.784687	34376.430290	3765.347087	16304.907808
87.535000	0.127407	0.062717	0.131139	0.202993	6233.234879	34310.653389	3756.284451	16287.880067
88.034500	0.127987	0.062029	0.130330	0.202525	6241.551853	34294.757322	3755.505253	16302.466225
88.535000	0.127574	0.062412	0.133993	0.203596	6229.788096	34244.885040	3761.446293	16269.153853
89.035000	0.126123	0.061389	0.129632	0.202535	6226.701155	34247.640779	3753.888019	16302.138166
89.535500	0.128118	0.061247	0.134440	0.203254	6236.804145	34185.407544	3763.262913	16279.778242
90.036000	0.127709	0.061792	0.139823	0.203711	6229.946153	34191.748074	3774.673525	16265.567611
90.536000	0.127086	0.061254	0.128700	0.203431	6227.234568	34173.095901	3749.725901	16274.280102
91.037000	0.127809	0.061130	0.138731	0.204282	6226.220608	34102.768669	3770.805626	16247.844646
91.536500	0.127353	0.061187	0.135280	0.204812	6218.442927	34068.693778	3761.609703	16231.427358
92.040000	0.128384	0.060404	0.130428	0.204159	6231.740471	34059.320780	3751.998515	16251.652342
92.537500	0.127968	0.059949	0.133097	0.204073	6229.132989	34032.802376	3758.295381	16254.333670
93.035000	0.128729	0.059903	0.136819	0.204275	6233.552526	34014.929506	3766.394821	16248.058912
93.535500	0.129605	0.060346	0.138541	0.205439	6231.275438	33963.199624	3767.684167	16212.005593
94.036000	0.128568	0.058880	0.132515	0.204034	6234.190685	33958.811232	3757.051032	16255.547633
94.535500	0.129128	0.059540	0.137410	0.205908	6223.797321	33871.907232	3763.990574	16197.516447
95.036000	0.128739	0.058096	0.138939	0.204037	6235.518834	33902.409746	3771.856733	16255.441478
95.555500	0.127259	0.059604	0.136558	0.205869	6209.370942	33879.184299	3762.116166	16198.702136
96.042000	0.125092	0.057714	0.142452	0.208825	6169.315708	33534.509984	3768.900113	16107.678938
96.540000	0.126794	0.057313	0.137828	0.204934	6213.072179	33782.382242	3767.204522	16227.652366
97.034000	0.128563	0.057782	0.137309	0.205505	6222.514084	33775.085089	3764.685253	16209.961647
97.534500	0.129661	0.059344	0.134770	0.207286	6217.126686	33759.466208	3754.770156	16154.986591
98.036500	0.125116	0.058118	0.132836	0.212525	6140.861627	33302.121987	3738.523267	15994.584229
98.535500	0.128138	0.056348	0.137667	0.206162	6213.980948	33626.343768	3763.996357	16189.648166
