sample name	sample
index	1329
start time	 05-03-2021  11:24:24 AM
880	-0.041822
Peak Time (s)	92.036
Peak Height 	-0.04182
calc peak height	90,93
Baseline Time (s)	8.535
Baseline Value 	-0.005297
subtract baseline	10,4
Abs	0.002399
Peak Time (s)	90.535
Peak Height 	0.002399
calc peak height	90,93
Baseline Time (s)	8.535
Baseline Value 	0.001342
subtract baseline	10,3
PK_550	-0.004387
Peak Time (s)	90.535
Peak Height 	-0.004387
calc peak height	90,93
Baseline Time (s)	9.036
Baseline Value 	5.1184E-4
subtract baseline	10,2
PK_880	0.002124
Peak Time (s)	91.035
Peak Height 	0.002124
calc peak height	90,93
Baseline Time (s)	8.535
Baseline Value 	9.1709E-4
subtract baseline	10,1


Time (s)	A880-A510	A880-A775	A880-A975	A880	I510	I775	I975	I880	
0.035000	0.000010	-0.000692	0.000754	0.002256	6115.993612	42738.829690	3885.905428	22129.635060
0.535000	-0.003891	-0.000476	-0.007518	0.007749	6047.176631	42258.707260	3854.307901	21888.075464
1.036000	0.001786	-0.000110	0.000507	0.004946	6109.231176	42546.377887	3879.078585	22010.952483
1.539000	0.001328	-0.000272	-0.002139	0.001646	6130.298792	42833.205216	3880.594532	22156.621892
2.036500	-0.000364	0.000157	-0.002104	0.001491	6118.886378	42886.854679	3881.035256	22163.506538
2.537000	0.000764	-0.000267	0.003826	0.002534	6119.514755	42752.243452	3892.439482	22117.311779
3.037500	0.001168	-0.000375	0.001627	-0.001296	6151.057753	43094.556166	3896.274469	22287.439116
3.538000	-0.000352	-0.000008	0.001951	0.000995	6122.653575	42917.202065	3891.651419	22185.471863
4.035000	0.001664	-0.000380	-0.002555	0.000545	6141.001107	42924.428814	3882.184792	22205.475119
4.535500	-0.002604	-0.000168	-0.002665	0.000547	6109.301040	42943.724278	3881.925053	22205.398567
5.036000	0.001366	0.000005	-0.003547	0.000652	6137.983338	42949.975982	3879.632162	22200.700392
5.535500	-0.000355	-0.001462	-0.004422	-0.000544	6134.068953	42925.009006	3880.377174	22253.889350
6.036000	-0.000053	-0.000267	0.000538	-0.000030	6132.494454	42987.744174	3890.743736	22231.053342
6.536500	-0.001093	0.000089	0.003194	0.000262	6122.600313	42993.654403	3896.296261	22218.058026
7.036000	-0.000031	-0.000584	-0.004121	-0.000335	6134.932366	42986.671132	3880.592432	22244.611400
7.537000	0.001961	-0.000233	0.004824	0.000002	6147.280872	42987.886118	3900.758691	22229.619484
8.040000	-0.000112	-0.000554	-0.002454	-0.000376	6134.629937	42993.166790	3884.561532	22246.430256
8.535000	0.000000	-0.000397	0.000000	0.000000	6132.664666	42972.970166	3889.412010	22229.697907
9.035500	-0.000711	0.000000	-0.002476	-0.000355	6130.012717	43042.254240	3884.459506	22245.484190
9.535500	0.001586	0.000037	-0.000596	0.000358	6141.820744	42980.013406	3887.182758	22213.787841
10.035500	-0.001456	0.000930	0.003411	0.000537	6117.862092	43045.752055	3896.158844	22205.815544
10.536000	0.001816	0.000934	0.000950	0.000791	6140.304201	43022.728300	3889.782726	22194.534525
11.036500	0.000896	-0.000402	0.002512	-0.000548	6143.427013	43022.954382	3896.597176	22254.068209
11.537000	-0.000448	-0.000127	-0.002474	-0.000302	6131.578520	43025.679102	3884.343726	22243.142050
12.037000	0.001765	-0.000379	-0.003309	-0.000381	6148.673894	43009.746028	3882.583514	22246.639046
12.537500	-0.001021	0.000924	0.002088	0.000877	6118.564878	43013.905244	3892.250527	22190.725592
13.037500	0.003032	-0.000192	0.000793	-0.001294	6165.023398	43111.212804	3894.307056	22287.326613
13.535000	0.001214	-0.000751	-0.000070	-0.000754	6147.351131	43009.863437	3891.014974	22263.283829
14.035000	-0.001058	0.000617	0.001141	0.000362	6122.116456	43033.091723	3891.236911	22213.605402
14.535000	-0.001160	0.000533	0.001498	0.002671	6104.274224	42813.007237	3886.671182	22111.253449
15.035500	0.001061	0.000040	0.000832	0.000681	6135.496117	42950.481211	3889.766338	22199.429788
15.557000	0.002243	0.000653	-0.001542	0.000183	6148.037168	43052.880585	3885.383403	22221.569397
16.036500	-0.000003	0.000358	0.003096	-0.000080	6133.244672	43049.984092	3896.871856	22233.278284
16.537000	0.001059	0.000082	0.003219	-0.000271	6142.584105	43042.144156	3897.612668	22241.770437
17.037000	0.002132	-0.000282	0.001186	0.000793	6142.647447	42910.594273	3890.332018	22194.449457
17.537500	0.004109	-0.000224	0.000051	-0.003382	6188.908185	43301.585668	3897.476903	22380.716797
18.037500	-0.000875	0.000158	0.003107	0.000622	6121.546678	42966.885674	3895.243209	22202.065932
18.535000	0.001120	0.000443	-0.005354	0.001110	6132.739718	42948.115086	3874.400002	22180.402468
19.035500	0.000595	0.000292	0.003069	0.001385	6126.789705	42908.956822	3893.361055	22168.195326
19.536000	-0.002503	0.000021	-0.001642	0.001021	6106.547902	42917.564470	3883.201334	22184.358189
20.038500	-0.001628	0.000506	-0.002617	0.001445	6109.870225	42923.055733	3879.950565	22165.525248
20.536500	-0.001864	-0.000053	0.001860	0.001030	6111.201042	42909.897148	3891.355996	22183.954357
21.039000	0.000838	-0.000293	-0.003334	0.000953	6131.811185	42894.897535	3879.429676	22187.368630
21.537000	0.000556	0.000017	0.004907	0.001260	6127.432904	42895.191422	3897.982316	22173.739697
22.040000	-0.002202	-0.000210	0.002275	0.000905	6109.617254	42906.916957	3892.621380	22189.481704
22.534500	0.001915	0.000056	0.001797	0.001009	6139.420284	42921.899249	3891.259822	22184.893022
23.034500	-0.000393	-0.000230	0.003620	0.001091	6121.636502	42888.036505	3895.346285	22181.229563
23.535000	-0.000412	-0.000991	0.003135	0.000651	6124.760500	42858.563967	3895.240576	22200.770872
24.035500	-0.000159	0.001122	0.003477	0.002095	6115.932791	42920.027275	3892.650609	22136.741457
24.535500	-0.000181	0.000142	0.002631	0.001258	6121.967193	42906.771186	3892.629643	22173.806625
25.036000	-0.001506	0.000340	-0.007139	0.001381	6111.251389	42913.741311	3869.669280	22168.379721
25.536000	0.001219	0.001352	0.001196	0.002112	6126.021749	42939.544261	3887.269756	22135.981199
26.036500	0.001391	-0.000488	0.001035	0.001206	6134.044052	42853.736924	3889.011188	22176.122623
26.537000	0.001266	0.000542	-0.003891	0.002141	6126.165726	42862.481006	3875.395733	22134.726626
27.034500	0.001892	0.000070	0.003410	0.001537	6135.303276	42874.563271	3893.803742	22161.437923
27.534000	-0.001927	-0.000102	0.003316	-0.000753	6123.936318	43069.599498	3898.977599	22263.223820
28.048500	-0.001785	0.000000	0.003382	0.002385	6101.780629	42790.419624	3891.747505	22123.916582
28.553500	-0.000286	0.000103	0.004805	-0.000263	6132.490106	43043.281762	3901.339534	22241.379719
29.080500	0.001111	0.000395	0.000078	-0.000328	6143.388771	43076.197714	3890.362968	22244.284425
29.558000	0.000434	-0.000157	0.000604	-0.000044	6136.225385	42999.154858	3890.929473	22231.657930
30.036000	0.000758	0.000363	-0.005303	0.002249	6121.586698	42836.184931	3871.895158	22129.945942
30.536000	0.001542	0.000643	0.002622	0.000083	6143.545198	43061.152196	3895.370333	22226.010084
31.036500	0.000924	0.000695	0.001493	0.000011	6139.469050	43072.668221	3892.884803	22229.206808
31.534000	-0.000274	0.000412	0.001815	0.000021	6130.476564	43045.651548	3893.619142	22228.783996
32.047000	-0.002606	0.000514	0.002578	0.003787	6085.434040	42709.139218	3886.587110	22061.998765
32.662000	-0.001155	-0.000200	-0.001131	0.002769	6103.590658	42736.980660	3880.327289	22106.950598
33.038000	0.001329	0.000953	-0.000762	0.001168	6133.866379	42989.746611	3884.905566	22177.832887
33.535000	0.001347	0.000301	0.001241	-0.000394	6145.653605	43073.635922	3893.246636	22247.238944
34.035000	-0.002457	0.000215	0.001159	0.002444	6096.387598	42804.676410	3886.409275	22121.283775
34.536000	0.000847	0.000463	0.001090	0.000329	6136.522824	43021.948100	3891.195133	22215.081397
35.038500	-0.000485	-0.000051	-0.001992	0.000060	6128.610752	42999.280286	3884.621108	22227.028853
35.536000	-0.001070	0.000419	-0.002095	0.001866	6110.883148	42876.378628	3880.184982	22146.859257
36.037000	-0.001651	-0.000714	0.000380	0.001743	6107.500942	42783.751992	3886.226619	22152.307852
36.537000	-0.000960	-0.000290	-0.001852	0.001729	6112.711952	42823.907511	3881.066517	22152.948267
37.035000	-0.001941	0.000441	0.000095	0.001835	6104.682387	42881.291456	3885.348321	22148.255027
37.538000	0.001097	0.000014	0.006592	0.002035	6125.689428	42823.759707	3900.132453	22139.410121
38.035500	-0.001878	0.000017	0.003847	0.002962	6096.843143	42739.102830	3891.484393	22098.408930
38.535500	-0.002410	0.000009	0.004473	0.001215	6105.797437	42898.537954	3897.065545	22175.736418
39.036000	-0.000858	0.000731	0.003694	0.002143	6110.404232	42879.690132	3893.049108	22134.623809
39.536000	-0.000567	0.000116	0.000747	0.001911	6114.269505	42844.445574	3886.691391	22144.873725
40.036500	-0.000855	-0.000496	-0.000184	0.002895	6104.870782	42698.295543	3882.232801	22101.363754
40.536500	-0.000275	0.000271	-0.001225	0.001714	6117.893911	42876.827734	3882.559174	22153.625443
41.040000	0.000375	-0.000189	0.000207	0.001808	6122.015218	42825.882409	3885.670563	22149.430878
41.536500	-0.000756	-0.000204	-0.001672	0.001691	6114.497475	42835.276465	3881.572085	22154.617441
42.035000	0.000401	-0.000172	-0.005736	0.001749	6122.644039	42832.897267	3872.046398	22152.057040
42.535500	-0.001712	-0.000651	0.003599	0.001240	6110.763530	42835.615780	3894.945755	22174.608369
43.035000	-0.001072	0.000288	-0.001550	0.001558	6113.147735	42892.673685	3882.165857	22160.514808
43.536000	-0.000644	0.000494	0.003162	0.002101	6112.298799	42861.776869	3891.899056	22136.482495
44.036000	-0.001800	0.000060	-0.002609	0.003126	6096.206565	42728.010680	3876.081392	22091.158205
44.536500	0.002423	0.000798	-0.000618	0.002585	6131.458063	42845.220811	3881.943989	22115.055974
45.037000	0.001211	0.000137	0.003498	-0.002142	6157.716481	43220.090240	3902.694103	22325.188470
45.539000	0.000304	-0.000594	-0.002301	-0.001558	6146.556544	43098.493492	3887.675175	22299.131727
46.037000	-0.003246	-0.000080	-0.002724	0.004950	6072.235017	42548.779845	3871.612955	22010.798050
46.537500	0.001796	0.000588	-0.000864	-0.000066	6146.547750	43069.776398	3887.545573	22232.611847
47.034500	0.001066	0.001137	-0.000769	0.001120	6132.257837	43011.080291	3885.001206	22179.932274
47.535500	-0.000537	0.000702	0.002856	0.000501	6124.948351	43028.030761	3894.937493	22207.414597
48.035500	-0.003937	-0.000509	-0.004433	0.004778	6068.442177	42525.310114	3868.083754	22018.331925
48.566000	0.000756	0.000817	0.004298	0.000756	6132.659133	43015.096830	3897.733474	22196.081779
49.036500	-0.003501	-0.001331	0.003479	0.001746	6093.844100	42726.932675	3893.473375	22152.175347
49.536000	-0.001228	-0.000070	0.002078	0.002091	6108.050660	42810.921926	3889.380389	22136.905246
50.046000	-0.004687	-0.000115	-0.002421	0.003564	6071.834166	42672.002984	3875.505126	22071.841328
50.540000	0.002209	0.000476	0.001272	-0.000105	6149.932525	43063.112244	3892.639334	22234.349186
51.034500	0.004236	0.000846	0.006243	0.001481	6153.230095	42951.033644	3900.615179	22163.918130
51.537500	0.001051	0.000025	0.000297	-0.002601	6159.965307	43252.236064	3896.217526	22345.741568
52.035000	-0.004093	-0.000684	-0.000114	0.005096	6064.989860	42480.455159	3877.291709	22004.348101
52.535500	0.000918	0.000495	-0.003040	0.004689	6104.713218	42624.935238	3871.486589	22022.249205
53.035500	0.036646	-0.029956	0.024919	0.586141	3812.294002	12677.456669	3152.282847	7922.624535
53.536000	0.011223	-0.022612	-0.007203	0.026231	6022.865499	38752.705687	3814.113697	21097.533648
54.035500	0.011069	-0.067378	-0.023060	-0.247758	8766.447075	63614.510221	4578.049417	37086.422106
54.536500	0.018384	-0.093806	-0.013792	-0.286420	9421.536941	65346.555323	4776.980656	40268.122696
55.039500	0.015461	-0.088872	-0.009047	-0.280924	9296.349561	65266.021993	4773.694496	39798.437823
55.537000	0.011679	-0.063621	-0.013241	-0.246831	8762.172997	64010.885340	4613.319656	37013.583040
56.034500	0.004019	-0.040805	-0.017063	-0.212615	8223.341169	62429.932503	4467.390406	34430.088765
56.535000	-0.003011	-0.045663	-0.019504	-0.222829	8262.500974	63167.492636	4496.179471	35180.103349
57.035500	-0.005373	-0.047309	-0.021252	-0.226958	8284.373750	63512.555905	4505.105156	35488.366105
57.535500	-0.003198	-0.046275	-0.022173	-0.224185	8276.961543	63270.637383	4491.279331	35280.990977
58.035500	-0.003412	-0.027734	-0.018875	-0.182731	7785.071400	60172.884086	4355.186356	32334.349288
58.536000	0.000199	-0.020102	-0.013511	-0.154062	7511.194471	57469.018000	4277.754499	30454.876794
59.036000	0.000162	-0.015755	-0.014129	-0.137216	7335.388230	55923.476386	4222.391780	29407.007567
59.537000	-0.000391	-0.013978	-0.007834	-0.126338	7220.163471	54825.708038	4208.228841	28751.627726
60.037000	0.000186	-0.008611	-0.015732	-0.100347	6974.627773	52421.752206	4108.011823	27250.643860
60.537500	0.000045	-0.008340	-0.010532	-0.086625	6846.626680	50914.307350	4084.018393	26493.726077
61.035000	-0.001719	-0.005943	-0.011687	-0.070321	6685.814718	49403.995242	4036.308898	25624.911304
61.535500	0.000175	-0.004468	-0.008071	-0.058777	6602.615875	48340.251706	4015.266597	25029.118985
62.035500	-0.005727	-0.005274	-0.015371	-0.052697	6501.867793	47626.860753	3980.616880	24721.671447
62.535500	-0.004910	-0.005636	-0.018700	-0.052070	6503.444268	47525.314144	3970.575485	24690.212583
63.035500	-0.006099	-0.004566	-0.016356	-0.047833	6458.714154	47201.830649	3965.803966	24478.815951
63.536000	-0.009324	-0.005913	-0.010286	-0.038694	6358.825482	46147.116401	3958.108429	24029.717079
64.036500	-0.008626	-0.003638	-0.017223	-0.047761	6437.478006	47288.970618	3963.443080	24475.215930
64.539500	-0.011731	-0.003933	-0.015542	-0.053153	6456.148027	47811.993247	3981.344385	24744.596379
65.037500	-0.013167	-0.003459	-0.021655	-0.057383	6479.105862	48300.088002	3976.549576	24958.281215
65.561000	-0.011697	-0.001499	-0.014173	-0.064032	6546.637334	49207.220745	4013.041924	25298.365905
66.035000	-0.012648	-0.002687	-0.016727	-0.068319	6574.750002	49538.137991	4017.599235	25520.410450
66.535000	-0.008664	-0.003072	-0.013662	-0.067747	6603.741548	49435.708257	4024.189561	25490.696022
67.035500	-0.009234	-0.003986	-0.017877	-0.063813	6565.521442	48920.162042	4002.792036	25287.070749
67.535500	-0.007315	-0.004660	-0.019165	-0.065178	6593.341563	48993.266950	4002.991131	25357.501111
68.036000	-0.011963	-0.003280	-0.014784	-0.057118	6486.843621	48291.091288	3993.461778	24944.809395
68.536000	-0.008353	-0.002477	-0.014874	-0.058949	6532.062335	48566.634368	3997.960183	25037.884152
69.036500	-0.012890	-0.003372	-0.013914	-0.057839	6485.149504	48356.805053	3997.572270	24981.420078
69.537000	-0.010099	-0.002879	-0.015283	-0.061026	6534.834890	48742.761397	4002.288723	25143.943060
70.034500	-0.014826	-0.004579	-0.019455	-0.058342	6473.338661	48283.280703	3984.604088	25006.994835
70.534500	-0.008433	-0.001991	-0.014161	-0.063206	6567.168967	49067.133728	4010.906504	25255.844107
71.034500	-0.007401	-0.001755	-0.017596	-0.062029	6565.945318	48967.417637	3998.889571	25195.372995
71.535500	-0.009778	-0.001580	-0.018743	-0.062531	6550.154327	49039.228071	3997.220352	25221.151340
72.035500	-0.009799	-0.001790	-0.018576	-0.055900	6494.670859	48319.539637	3980.614401	24883.138694
72.535500	-0.007903	-0.001744	-0.013665	-0.060292	6547.095746	48785.106049	4004.590634	25106.440942
73.036000	-0.009944	-0.001778	-0.012370	-0.060666	6533.114883	48820.919777	4008.946665	25125.523009
73.536500	-0.007561	-0.000810	-0.011083	-0.059732	6545.265657	48824.527640	4009.871543	25077.834444
74.039500	-0.013124	-0.001837	-0.018177	-0.055435	6463.434341	48266.089320	3980.443399	24859.601895
74.536500	-0.008718	-0.000862	-0.012049	-0.060346	6540.702045	48883.878572	4008.948472	25109.165431
75.034500	-0.008847	-0.001562	-0.015773	-0.059721	6534.389029	48744.017948	3997.631400	25077.253045
75.535000	-0.008305	-0.001819	-0.016031	-0.060417	6544.765248	48790.369710	3998.767629	25112.827027
76.035500	-0.014513	-0.003255	-0.017487	-0.055367	6451.506746	48111.480159	3982.031025	24856.181190
76.535500	-0.009655	-0.002028	-0.015459	-0.059091	6522.372646	48628.739612	3996.813436	25045.117219
77.036000	-0.012072	-0.001993	-0.017056	-0.057621	6490.105172	48478.211644	3988.906704	24970.342434
77.536000	-0.010137	-0.002091	-0.015711	-0.057819	6507.779069	48488.698097	3992.879642	24980.422390
78.036500	-0.013775	-0.002992	-0.019499	-0.053621	6443.270208	47957.549335	3972.476867	24768.106913
78.536000	-0.012919	-0.002571	-0.016330	-0.057016	6478.120707	48354.439680	3989.217980	24939.624970
79.037000	-0.010721	-0.002694	-0.013673	-0.056464	6491.709859	48284.068868	3994.641419	24911.668846
79.537500	-0.012332	-0.003255	-0.015574	-0.055532	6470.740715	48128.659219	3987.350562	24864.522607
80.034000	-0.014777	-0.002632	-0.016462	-0.048971	6397.457061	47515.571947	3968.401524	24535.355889
80.535000	-0.011763	-0.002915	-0.011014	-0.053336	6457.386104	47936.122344	3993.428641	24753.780624
81.035500	-0.010378	-0.002845	-0.012719	-0.052268	6459.987953	47832.956503	3986.299834	24700.161240
81.535000	-0.007692	-0.003086	-0.010150	-0.051989	6479.771592	47779.334413	3992.186392	24686.166020
82.036000	-0.010842	-0.002369	-0.015703	-0.046480	6409.101991	47287.757517	3964.041655	24411.704896
82.536000	-0.007444	-0.002592	-0.007383	-0.050838	6472.328505	47711.524258	3996.355498	24628.509185
83.036500	-0.008137	-0.003770	-0.009904	-0.051133	6469.062310	47620.709427	3990.615222	24643.271918
83.539500	-0.007210	-0.003642	-0.008704	-0.050492	6471.415783	47568.058060	3992.053932	24611.232800
84.037000	-0.008519	-0.003530	-0.012131	-0.045576	6420.588172	47077.700729	3970.763614	24367.009145
84.537000	-0.004908	-0.003466	-0.004889	-0.048623	6474.976007	47394.646286	3997.078132	24518.049932
85.035000	-0.005642	-0.003561	-0.002571	-0.047484	6459.589573	47268.646351	4000.134368	24461.465985
85.535000	-0.002410	-0.004417	-0.005208	-0.047712	6488.064010	47204.689074	3993.900694	24472.801361
86.035500	-0.005810	-0.004735	-0.009301	-0.043748	6427.741725	46770.864369	3973.301595	24276.909451
86.536000	-0.002660	-0.004173	-0.003080	-0.046663	6477.345390	47122.770797	3996.686157	24420.750533
87.036000	-0.003122	-0.004048	-0.000867	-0.044282	6454.003898	46894.132058	3996.254901	24303.188038
87.536000	-0.002011	-0.004340	-0.001588	-0.044864	6467.893009	46923.455675	3995.895994	24331.882400
88.042000	-0.000805	-0.004761	-0.001966	-0.044988	6478.833325	46893.446011	3995.238806	24337.995714
88.537000	0.000360	-0.004903	-0.001415	-0.044719	6486.217567	46851.909721	3995.965864	24324.709105
89.037000	-0.000930	-0.004996	-0.000938	-0.043826	6468.235854	46752.391440	3994.890864	24280.722111
89.534500	0.001753	-0.005056	-0.000880	-0.044199	6493.436092	46783.972838	3996.004027	24299.077640
90.035000	0.001539	-0.005722	-0.004178	-0.044883	6497.319596	46785.715172	3989.266971	24332.778927
90.535500	0.001860	-0.004387	0.002399	-0.043718	6490.350238	46802.918457	4003.262437	24275.439413
91.035500	0.002124	-0.004751	-0.004133	-0.043165	6487.954817	46710.604531	3984.977575	24248.260151
91.535500	0.000946	-0.005853	-0.000119	-0.044794	6491.678584	46763.557731	3999.517306	24328.411608
92.036000	0.001215	-0.004962	-0.004427	-0.041822	6469.397892	46554.364199	3980.794423	24182.375516
92.536500	0.001911	-0.005261	-0.002194	-0.044219	6494.909798	46765.314476	3992.663334	24300.065789
93.036500	0.002630	-0.005471	0.004895	-0.043506	6494.963801	46672.386043	4009.221500	24265.017406
93.537000	0.005166	-0.005497	0.003304	-0.043724	6517.823659	46691.634339	4005.635045	24275.710198
94.037000	0.002227	-0.005278	0.002598	-0.041553	6475.510903	46495.729122	3998.160035	24169.213104
94.537500	0.005374	-0.005349	0.000949	-0.043717	6519.506659	46705.893963	3999.494687	24275.382169
95.037500	0.004327	-0.005510	0.002693	-0.043955	6512.771250	46713.628265	4004.645701	24287.101489
95.535500	0.004688	-0.005180	0.000047	-0.043614	6512.927825	46712.505857	3996.890451	24270.297248
96.038000	0.004258	-0.005373	0.005797	-0.044012	6512.667986	46733.170648	4012.910961	24289.898207
96.538500	0.004900	-0.005247	0.004716	-0.043236	6511.547501	46667.719109	4008.047400	24251.722702
97.038500	0.005780	-0.005184	0.003521	-0.042823	6515.432389	46632.574728	4003.853127	24231.437709
97.536000	0.004011	-0.005892	-0.000921	-0.043516	6506.488570	46631.073619	3994.135335	24265.486906
98.039500	0.004128	-0.005428	0.004228	-0.041385	6489.807733	46463.879876	4001.953106	24160.987917
98.538000	0.005583	-0.005631	0.003368	-0.042579	6511.769889	46563.225835	4002.819682	24219.475665
99.037000	0.006098	-0.005736	0.003431	-0.042428	6514.794674	46537.425192	4002.589103	24212.042623
