sample name	sample
index	707
start time	 03-25-2021  10:49:22 AM
880	0.016921
Peak Time (s)	182.541
Peak Height 	0.01692
calc peak height	180,183
Baseline Time (s)	8.537
Baseline Value 	-0.002947
subtract baseline	10,4
Abs	0.009114
Peak Time (s)	182.541
Peak Height 	0.009114
calc peak height	180,183
Baseline Time (s)	11.536
Baseline Value 	0.004232
subtract baseline	10,3
PK_550	0.004047
Peak Time (s)	182.541
Peak Height 	0.004047
calc peak height	180,183
Baseline Time (s)	11.536
Baseline Value 	6.68E-4
subtract baseline	10,2
PK_880	0.004899
Peak Time (s)	180.537
Peak Height 	0.004899
calc peak height	180,183
Baseline Time (s)	8.537
Baseline Value 	0.002551
subtract baseline	10,1


Time (s)	A880-A510	A880-A775	A880-A975	A880	I510	I775	I975	I880	
0.037500	-0.004505	-0.001246	-0.006026	0.005480	7088.591036	43757.192389	3852.098548	23270.237810
0.541000	-0.004014	-0.000266	-0.004537	0.003984	7108.517514	43991.417040	3859.960421	23341.095406
1.038500	-0.003087	-0.000221	-0.001115	0.002919	7128.599431	44096.883655	3871.882385	23391.691862
1.535500	-0.001380	-0.000004	-0.006738	0.004305	7131.839736	43985.797053	3853.312394	23325.842391
2.035500	0.001480	0.000340	0.000840	0.001351	7191.015795	44299.981818	3881.327821	23466.416323
2.536500	0.000458	-0.000479	-0.003966	-0.000530	7199.824580	44401.643071	3873.478721	23556.396747
3.036000	-0.000390	-0.000015	-0.001169	-0.002032	7206.548280	44590.531066	3885.034118	23628.560294
3.547500	-0.002948	0.000796	-0.004131	0.005571	7103.288568	43941.644459	3856.843472	23265.919974
4.037000	0.000212	-0.000410	0.000672	0.000622	7185.490003	44297.927213	3882.838812	23501.228817
4.535000	0.000272	-0.000379	0.000610	0.000051	7191.954506	44355.542166	3884.212092	23528.562810
5.035000	-0.000244	-0.000295	0.002599	0.000212	7185.027144	44348.211412	3889.156110	23520.861236
5.535500	-0.000337	-0.000305	-0.000020	-0.000123	7187.495146	44379.267879	3882.981944	23536.888464
6.035500	-0.001368	0.000446	0.000542	-0.000073	7176.457298	44446.544974	3884.365587	23534.535408
6.535500	0.001316	0.000038	0.003430	0.000306	7200.056899	44371.148503	3891.158244	23516.381780
7.036500	-0.000543	-0.000219	-0.002704	-0.000178	7185.963039	44392.849733	3875.917379	23539.558785
7.536500	-0.000587	0.000240	-0.001213	0.000358	7180.019005	44385.437662	3878.478495	23513.865478
8.037000	0.000749	0.000022	-0.003143	-0.000070	7198.093308	44405.538576	3874.451919	23534.358925
8.537000	0.000000	0.000178	-0.004353	0.000000	7189.695452	44413.822931	3871.029477	23531.017660
9.036500	-0.000038	0.000282	0.000204	0.000262	7186.624569	44398.646839	3882.548880	23518.459239
9.534500	0.001222	-0.000130	-0.001132	-0.000134	7203.612232	44397.207693	3880.019472	23537.439426
10.038000	0.000925	0.000168	0.000919	0.000487	7194.183766	44366.201489	3883.868505	23507.686855
10.535500	0.001058	-0.000285	0.004581	-0.000389	7204.544372	44406.767350	3896.180103	23549.651649
11.035500	-0.000031	-0.000315	-0.003346	-0.000331	7192.775180	44398.322575	3874.608117	23546.888499
11.536000	-0.000207	0.000000	0.000000	0.000132	7186.221890	44384.132092	3882.350147	23524.699253
12.037500	-0.000006	0.000166	0.002387	0.000297	7186.588006	44384.229524	3888.351969	23516.789286
12.539000	0.000673	0.000446	-0.002973	0.000358	7192.925826	44405.244909	3873.760924	23513.889178
13.037000	0.002325	0.000405	-0.003771	-0.000885	7222.696444	44520.505649	3874.950275	23573.420907
13.534000	-0.000437	0.000126	0.000671	-0.000800	7193.415069	44485.617398	3886.678240	23569.359542
14.038000	0.000366	0.000480	-0.006439	0.003469	7158.017816	44111.224981	3856.300412	23365.534202
14.543000	-0.002661	-0.000086	-0.001943	0.002075	7141.446271	44190.129026	3871.923629	23431.863760
15.035000	0.000902	0.000392	0.000250	-0.000213	7201.138746	44454.880178	3883.956416	23541.242249
15.535500	-0.003080	-0.000165	0.000934	0.005527	7102.403910	43854.903736	3870.391759	23268.022553
16.035500	0.001468	0.000754	0.001416	0.000091	7203.824590	44460.378288	3886.284165	23526.673237
16.535500	0.000101	0.000565	-0.001826	0.004026	7149.667244	44066.342413	3867.035883	23339.090291
17.246000	-0.001497	-0.000378	0.000064	0.002526	7148.674134	44119.414065	3876.087175	23410.386944
17.545000	-0.001910	0.000250	0.001394	0.003098	7138.701582	44124.732933	3878.121464	23383.198838
18.037000	-0.000570	0.000327	0.001702	0.001472	7168.832239	44287.245221	3883.326203	23460.654111
18.537500	-0.000478	0.000209	0.001867	0.002772	7156.522865	44151.854325	3880.267178	23398.676103
19.035000	0.001372	0.000363	-0.001630	0.002638	7176.746633	44179.280810	3871.256458	23405.060841
19.538000	0.001037	0.000953	0.002114	0.002434	7175.415026	44255.133217	3881.842857	23414.781875
20.036500	-0.000481	0.000087	-0.000687	0.001738	7167.023445	44238.821607	3876.185828	23447.944954
20.535500	0.001556	0.001050	0.000096	0.003010	7174.821285	44209.322243	3874.876789	23387.340672
21.036000	0.000844	0.000901	-0.001201	0.002422	7173.564630	44251.276109	3872.980520	23415.355629
21.536500	-0.000944	-0.000208	-0.000027	0.001879	7160.877232	44197.274036	3877.580435	23441.245338
22.035500	0.000912	0.000777	0.000280	0.002776	7170.641429	44205.583880	3875.996115	23398.484581
22.542000	0.002237	0.000450	0.001450	0.002401	7188.012106	44210.162996	3880.145614	23416.347421
23.036500	-0.001367	0.000141	0.003583	0.002332	7151.974668	44187.381125	3886.084468	23419.648620
23.537000	0.000632	0.000161	-0.000647	0.002513	7170.469240	44171.981899	3874.220204	23411.022700
24.119500	0.001475	-0.000233	0.001767	0.002119	7183.106885	44172.036428	3881.757133	23429.800469
24.539500	-0.000527	0.000218	0.000735	0.002162	7162.231320	44210.869459	3878.864600	23427.730472
25.073000	0.001176	0.000497	-0.000162	0.002544	7175.700854	44201.064768	3875.433224	23409.522067
25.569000	0.001305	0.000869	0.004423	0.002909	7173.297182	44201.748269	3886.795896	23392.178807
26.038500	0.001615	0.000503	0.000710	0.002558	7180.043165	44200.252158	3877.734912	23408.863359
26.536000	-0.000314	0.000282	0.000505	0.002304	7162.957871	44203.503256	3877.867372	23420.977430
27.037500	-0.000370	0.001293	0.002005	0.003438	7150.865004	44191.778947	3878.851759	23367.038984
27.616000	0.000909	0.000926	-0.001099	-0.000080	7199.835351	44493.277231	3879.960343	23534.829266
28.045500	0.003185	0.000596	0.002396	-0.000065	7223.108017	44460.177219	3889.356720	23534.113017
28.534500	0.001696	0.000526	0.003678	0.000740	7199.496558	44376.283495	3890.653209	23495.613814
29.036000	0.002435	0.000297	0.000369	0.000910	7205.345530	44338.126385	3881.250738	23487.505849
29.535000	-0.002032	0.000758	0.002211	0.006814	7100.009971	43820.393601	3870.365611	23207.253276
30.034500	0.001016	0.001619	0.001812	0.001377	7186.000293	44420.021297	3883.880072	23465.192194
30.539000	0.002482	0.000748	0.006101	0.001535	7199.397839	44321.391853	3895.077836	23457.616327
31.036000	0.001077	0.000637	0.001661	0.004473	7155.053507	44030.763282	3875.150798	23317.920624
31.536500	0.000570	-0.000175	0.001146	0.003172	7163.121067	44077.300915	3877.258039	23379.671436
32.036000	0.003281	0.001379	0.002596	0.001807	7204.816217	44355.770738	3884.833285	23444.638761
32.534000	0.001208	0.001368	0.002163	0.001475	7186.957285	44386.520263	3884.561600	23460.493690
33.034500	0.002602	0.000997	0.004385	0.001230	7203.772810	44374.484874	3891.242471	23472.206335
33.534500	-0.001117	0.000614	-0.001714	0.006958	7107.747780	43793.124533	3859.560941	23200.430656
34.038000	0.000707	0.000094	0.000208	0.001235	7184.286857	44287.498549	3879.939600	23471.943341
34.538500	-0.000545	0.000251	0.000807	0.003480	7148.656199	44088.415790	3875.523838	23365.020633
35.038000	0.001778	0.001293	0.004947	0.004245	7164.503664	44114.840552	3884.600142	23328.717768
35.536000	-0.000040	0.000389	0.002148	0.004332	7145.136736	44020.581684	3876.832945	23324.578073
36.036000	0.001404	0.000348	0.002145	0.003798	7165.240640	44067.444899	3878.256937	23349.910471
36.536500	-0.000439	0.001403	0.002810	0.004590	7138.481270	44092.447343	3877.916052	23312.344793
37.037000	0.001426	0.000480	-0.001046	0.003827	7165.171518	44077.249865	3869.644784	23348.544603
37.534000	-0.000624	-0.000084	-0.004049	0.003595	7146.685395	44045.651457	3862.281646	23359.564400
38.034500	0.000276	-0.000005	0.006611	0.003426	7157.540778	44069.232223	3891.321809	23367.565308
38.535000	0.001522	0.000471	0.006410	0.004321	7161.114145	44029.408273	3888.350093	23325.087487
39.034500	0.003207	0.000620	0.002894	0.004105	7180.507506	44064.143960	3879.447562	23335.367450
39.537500	0.000564	0.000206	0.002121	0.004015	7154.489954	44033.303431	3877.611920	23339.629967
40.035500	0.001469	0.000674	-0.002929	0.004121	7162.607565	44067.654410	3863.855295	23334.573503
40.535500	0.000422	0.000897	-0.000275	0.004328	7149.870017	44069.214443	3870.365388	23324.780095
41.036000	0.000005	0.000325	-0.003808	0.003953	7149.446290	44050.558938	3861.972470	23342.581751
41.536000	-0.000842	0.000508	-0.000733	0.004312	7137.218488	44033.821367	3869.186399	23325.544385
42.039000	-0.001308	0.000470	-0.000138	0.003758	7138.112930	44082.849819	3872.252568	23351.830823
42.546500	0.000433	0.000882	0.003150	0.004525	7147.978216	44049.096153	3879.004875	23315.434704
43.043000	0.001601	0.000748	0.004193	0.004324	7161.890846	44055.455415	3882.353986	23324.977665
43.541000	0.000463	0.001196	0.003822	0.004994	7143.529381	44034.388906	3879.553340	23293.240915
44.040500	0.001334	0.001618	0.007065	0.005083	7151.457905	44066.051676	3888.060299	23289.015822
44.548500	-0.000072	0.000951	0.006186	0.002941	7158.934294	44206.431738	3891.484772	23390.638198
45.036500	0.002312	0.000347	0.006792	0.001929	7193.619966	44245.432677	3895.888674	23438.858952
45.540000	0.001849	-0.000408	0.004912	0.001294	7195.377721	44233.923354	3892.499438	23469.131554
46.041500	0.000722	0.001249	0.006153	0.002132	7175.269024	44312.180685	3893.593820	23429.147780
46.562500	0.000099	0.000491	0.000798	0.007758	7111.934306	43706.155017	3864.095117	23162.795192
47.038000	0.001816	0.001501	0.001469	0.002191	7185.858441	44330.748280	3880.761179	23426.355606
47.543500	0.000930	0.000859	-0.000171	0.003281	7165.681314	44165.318258	3873.437925	23374.489295
48.040500	0.000857	0.000933	0.001454	0.005155	7145.878011	43994.032592	3872.770598	23285.574504
48.546000	-0.000364	0.000968	0.006345	0.007000	7114.899505	43822.659126	3880.939909	23198.455716
49.065500	0.002686	0.001196	0.005377	0.002425	7192.366523	44279.156589	3890.689496	23415.210705
49.539500	0.003307	0.001085	0.000199	0.003930	7183.320329	44124.999811	3872.691639	23343.653883
50.045000	0.002289	0.000962	0.006517	0.002289	7189.688387	44269.756253	3894.157158	23421.671149
50.542000	0.000866	0.000700	-0.005557	0.008093	7116.284424	43694.290943	3846.485999	23147.033633
51.043000	0.003926	0.001334	0.006251	0.001124	7218.490402	44416.918589	3896.608967	23477.265472
51.543000	-0.000322	0.000591	0.003822	0.005264	7132.836749	43951.256430	3878.825387	23280.420102
52.102500	-0.000722	-0.000725	0.009781	0.003347	7148.208559	44008.322978	3900.177984	23371.327820
52.534000	-0.043528	-0.014887	-0.000438	0.008270	6689.537299	42235.572688	3859.468004	23138.706384
53.040500	-0.035789	-0.014806	0.009148	-0.007508	6909.238898	43703.199619	3928.472998	23893.702317
53.560000	-0.016482	-0.012128	0.010228	-0.071981	7796.101689	50547.160322	4126.663786	27280.415289
54.048500	-0.039144	-0.018329	-0.012523	-0.101772	7879.765712	53213.973596	4149.781328	29023.440036
54.539500	-0.042422	-0.019216	-0.026601	-0.128503	8164.891069	56306.603327	4192.286239	30692.531956
55.054500	-0.008309	-0.026767	-0.014116	-0.179160	9333.921428	61892.643768	4423.926808	34151.702271
55.547000	0.012359	-0.026916	-0.011228	-0.183560	9725.678672	62474.261410	4452.896721	34471.694154
56.036000	0.019331	-0.019268	-0.001331	-0.165833	9554.835214	61104.690854	4421.792817	33202.240100
56.537000	0.016799	-0.012264	-0.000955	-0.139509	9116.809572	58566.688093	4322.632467	31410.168923
57.082000	0.002927	-0.011446	0.004616	-0.114969	8577.140716	55600.975680	4253.801935	29834.664544
57.548500	-0.006711	-0.008844	-0.001578	-0.092294	8158.677264	53214.712816	4154.647815	28455.883622
58.038000	0.000351	-0.005839	-0.002254	-0.087711	8189.690801	53031.830356	4137.284011	28185.855936
58.538000	0.004912	-0.003132	-0.000770	-0.057435	7876.431482	49940.599982	4045.859683	26471.813031
59.046500	-0.002116	-0.000906	0.005997	-0.014873	7322.307490	45757.184113	3940.335746	24255.644222
59.567500	0.001429	-0.000613	0.002962	-0.030179	7525.533199	47329.067397	3975.533257	25027.716174
60.088500	-0.000186	-0.002969	0.000047	-0.033547	7544.885551	47433.024314	3976.852745	25201.296773
60.536500	-0.002079	-0.000935	-0.001652	-0.002237	7191.310071	44521.705640	3884.281584	23638.412511
61.046000	-0.005216	-0.000413	0.002250	0.017131	6966.585362	42748.928506	3843.274908	22726.583014
61.543000	-0.005111	0.001921	0.010110	0.027167	6871.054268	42046.130464	3837.619599	22269.807352
62.067500	-0.005039	0.001959	0.010005	0.031112	6834.394777	41694.450429	3827.173164	22093.156913
62.535500	-0.001470	0.002608	0.003748	0.033578	6844.797184	41531.988513	3804.997336	21983.527374
63.040000	0.009385	0.004719	0.007735	0.026303	7019.736158	42378.712754	3833.709405	22308.714152
63.538000	0.004738	0.004665	0.012203	0.022843	7008.048292	42690.466336	3854.373864	22465.287219
64.044000	0.006506	0.005106	0.009948	0.022979	7024.117255	42718.545670	3848.102767	22459.124117
64.541000	0.007088	0.006033	0.010515	0.020890	7050.542427	42996.900868	3855.071091	22554.226368
65.039000	0.007866	0.005392	0.007643	0.018182	7085.267527	43188.832887	3854.638405	22678.215045
65.536500	0.007285	0.005823	0.012951	0.019269	7068.614902	43127.870321	3865.799504	22628.369673
66.039500	0.008495	0.006344	0.012241	0.018266	7090.724789	43269.703261	3866.577945	22674.381182
66.554500	0.007829	0.005880	0.009366	0.020576	7061.022207	43011.778642	3852.873547	22568.561355
67.038000	0.009624	0.005803	0.008112	0.018010	7104.618940	43243.060345	3856.327386	22686.115541
67.546500	0.008861	0.005359	0.012282	0.019030	7086.736440	43106.923491	3864.655994	22639.312674
68.046500	0.010622	0.007800	0.012375	0.019199	7102.701793	43318.502409	3864.453800	22631.559874
68.547500	0.009182	0.006347	0.010801	0.019950	7080.753175	43113.269588	3858.304577	22597.217812
69.063500	0.009227	0.006994	0.010909	0.019214	7088.562527	43241.899522	3860.532710	22630.899693
69.536000	0.008074	0.007034	0.008540	0.020834	7060.894535	43094.919358	3850.029694	22556.788305
70.053000	0.008800	0.007698	0.012265	0.019550	7080.939643	43276.295472	3863.234394	22615.520641
70.545000	0.010523	0.007054	0.012405	0.021496	7078.703861	43035.415037	3858.453786	22526.591689
71.043500	0.008146	0.006954	0.007686	0.018572	7084.175798	43298.081718	3853.726144	22660.323784
71.539500	0.010337	0.008139	0.009404	0.020000	7091.808712	43275.354230	3854.488663	22594.909879
72.042500	0.009509	0.007500	0.006672	0.019797	7085.551329	43234.722743	3847.855285	22604.186983
72.535500	0.005801	0.007089	0.007078	0.022291	7023.950007	42964.996434	3842.406972	22490.390734
73.049500	0.010717	0.007464	0.013879	0.020184	7093.770030	43195.380694	3865.833312	22586.503153
73.547000	0.008936	0.008129	0.012503	0.020995	7067.871552	43181.793035	3860.037125	22549.446135
74.103000	0.009111	0.008347	0.011757	0.020540	7074.152750	43244.503153	3859.270028	22570.240183
74.538500	0.009754	0.008134	0.011852	0.023651	7049.604605	42935.850668	3851.330246	22428.636591
75.087000	0.011325	0.007565	0.009188	0.020851	7093.185923	43142.706310	3851.687277	22556.031629
75.537500	0.009779	0.007252	0.008805	0.021200	7074.230321	43081.249979	3849.766960	22540.102102
76.048500	0.009294	0.007678	0.010733	0.020387	7077.507386	43196.389832	3856.970217	22577.197623
76.538000	0.008790	0.007675	0.011739	0.020702	7069.344418	43166.863607	3858.793534	22562.850247
77.041000	0.010981	0.007654	0.010221	0.020632	7091.935741	43171.391178	3854.977172	22566.047635
77.544000	0.009481	0.008225	0.014314	0.021118	7072.078682	43179.291247	3864.508127	22543.845184
78.038000	0.011086	0.008868	0.012811	0.022041	7078.888105	43153.199537	3858.088871	22501.793459
78.544500	0.009861	0.007640	0.011618	0.020911	7077.934324	43144.077194	3857.921777	22553.266737
79.049500	0.008442	0.008300	0.013886	0.021580	7057.133070	43143.206320	3862.148807	22522.760347
79.536000	0.008598	0.007156	0.010235	0.020844	7066.005938	43105.324108	3854.456352	22556.345520
80.039000	0.009812	0.008122	0.016133	0.021150	7075.059395	43166.686835	3869.259437	22542.371564
80.543500	0.010281	0.007496	0.004196	0.021033	7080.918496	43119.410824	3838.189701	22547.737015
81.066500	0.009389	0.007648	0.009280	0.020856	7073.777097	43149.922091	3851.913190	22555.789478
81.558500	0.009257	0.008367	0.009257	0.021299	7068.039689	43175.604117	3850.691168	22535.578516
82.042000	0.008741	0.007184	0.010084	0.020849	7067.389078	43107.567203	3854.047268	22556.136127
82.538000	0.007556	0.007425	0.011454	0.020510	7058.965036	43161.357769	3858.548754	22571.597092
83.038500	0.010674	0.008204	0.013219	0.022179	7073.397789	43078.781242	3858.801883	22495.520412
83.562000	0.009711	0.007910	0.013278	0.021477	7070.799349	43116.656257	3860.813397	22527.487247
84.064000	0.009932	0.008012	0.007076	0.021300	7074.760918	43142.533164	3844.984923	22535.548981
84.536500	0.010270	0.006938	0.007488	0.020607	7085.053242	43107.110663	3847.871586	22567.147805
85.043000	0.006890	0.007720	0.008927	0.022288	7034.735774	43023.718999	3847.240702	22490.556570
85.547500	0.010100	0.007997	0.016444	0.021877	7070.676519	43087.542407	3868.151146	22509.240219
86.064500	0.011921	0.007928	0.006888	0.021332	7094.341439	43131.778387	3844.413547	22534.103690
86.535500	0.009422	0.008646	0.013121	0.023529	7047.515566	42994.482138	3854.983266	22434.150519
87.046500	0.008458	0.007609	0.006338	0.023576	7037.495829	42894.251736	3837.148148	22432.009683
87.544000	0.008081	0.007528	0.008994	0.021513	7054.214315	43077.756393	3849.442687	22525.831821
88.044500	0.007957	0.007716	0.008843	0.021098	7057.103573	43133.799099	3850.134509	22544.760325
88.560500	0.010524	0.007739	0.008539	0.022255	7071.138883	43028.536520	3846.310642	22492.035544
89.042000	0.008438	0.007269	0.007557	0.023382	7039.226409	42880.780497	3840.817470	22440.838885
89.541500	0.009347	0.007852	0.007694	0.021796	7063.986220	43081.530773	3845.303636	22512.919381
90.039500	0.007956	0.007821	0.005981	0.021193	7056.152510	43134.758872	3842.411929	22540.422188
90.552500	0.008439	0.007672	0.011793	0.023429	7038.772840	42913.682534	3851.756769	22438.704335
91.078500	0.008508	0.007905	0.010269	0.026176	7012.350188	42682.046867	3840.603795	22314.452725
91.537500	0.009093	0.007418	0.009334	0.021247	7066.925281	43092.307614	3851.032189	22537.971730
92.035000	0.010244	0.007992	0.011719	0.021588	7074.998178	43113.911834	3856.401612	22522.397788
92.560500	0.008171	0.008459	0.008291	0.022719	7043.138521	43052.250955	3844.453431	22470.926733
93.038500	0.010204	0.007256	0.010388	0.020798	7082.496404	43118.965563	3854.979582	22558.452667
93.583000	0.009057	0.007701	0.010210	0.021249	7066.552939	43118.404836	3853.325236	22537.882721
94.116000	0.008604	0.007547	0.008716	0.022030	7054.271826	43031.608796	3847.360613	22502.269123
94.536500	0.007644	0.008077	0.005954	0.023578	7029.439435	42937.399403	3836.152710	22431.948528
95.034500	0.006231	0.006770	0.006518	0.023484	7016.439725	42825.405251	3837.857390	22436.225328
95.553500	0.008494	0.007919	0.003667	0.021358	7059.862837	43128.546809	3835.979230	22532.911837
96.037500	0.007547	0.007359	0.008459	0.020735	7056.639726	43134.358802	3850.078684	22561.314869
96.546500	0.008508	0.007516	0.008608	0.022291	7050.735219	43004.546089	3846.399069	22490.405925
97.038000	0.004449	0.006693	0.005627	0.024077	6993.116762	42763.581296	3834.013985	22409.311290
97.538000	0.008676	0.008007	0.014534	0.022065	7054.640216	43070.958023	3862.580598	22500.682008
98.039000	0.009855	0.007290	0.008577	0.021160	7075.384255	43088.442194	3849.274767	22541.908532
98.536500	0.006508	0.008240	0.007461	0.023854	7015.520925	42926.935564	3839.342542	22419.431947
99.040000	0.007163	0.007334	0.007635	0.025129	7009.420711	42725.678046	3836.486296	22361.693114
99.540000	0.008225	0.007208	0.007378	0.021603	7054.746296	43039.717131	3844.982582	22521.712999
100.034000	0.007469	0.007363	0.005590	0.021122	7052.016824	43098.749476	3841.577733	22543.641870
100.535000	0.008890	0.007477	0.007196	0.021563	7061.760616	43068.445340	3844.613846	22523.570570
101.035000	0.005629	0.007003	0.006854	0.024664	6998.926504	42738.074778	3835.668332	22382.729611
101.535500	0.006640	0.007759	0.012728	0.021224	7042.793353	43126.058974	3860.026160	22539.002505
102.038000	0.008300	0.007127	0.014963	0.020885	7062.634059	43098.871773	3866.849406	22554.463043
102.536000	0.007449	0.007055	0.005122	0.022859	7034.616205	42909.265137	3835.856840	22464.565701
103.039000	0.004425	0.006057	0.005416	0.024620	6987.572936	42655.161536	3832.069707	22384.737285
103.539500	0.007285	0.006758	0.010328	0.020527	7056.106757	43097.902003	3855.534434	22570.828227
104.034500	0.007859	0.006324	0.012076	0.020326	7063.807855	43076.243473	3860.676806	22580.008447
104.534500	0.005665	0.006521	0.005465	0.022246	7023.054875	42916.609257	3838.334642	22492.458356
105.042500	0.004614	0.007041	0.006521	0.025338	6982.404120	42679.602153	3833.066711	22352.271018
105.535000	0.006844	0.006630	0.009369	0.020265	7054.317727	43110.215256	3853.700668	22582.773576
106.041500	0.007813	0.006648	0.007981	0.020673	7059.897621	43074.022132	3848.987830	22564.137242
106.538500	0.009174	0.006594	0.012126	0.020639	7073.796169	43072.170409	3859.982885	22565.697556
107.035000	0.004019	0.007200	0.008158	0.025384	6976.148170	42689.968671	3837.182025	22350.175932
107.536500	0.006999	0.007209	0.010036	0.020570	7052.836362	43135.747007	3854.653054	22568.878882
108.036000	0.006189	0.007066	0.007436	0.020238	7048.091471	43153.321139	3848.702478	22584.027369
108.537000	0.008024	0.007149	0.005636	0.020828	7060.451292	43106.172277	3842.463467	22557.057317
109.036500	0.004482	0.006215	0.004110	0.024482	6989.476792	42682.388343	3829.060500	22390.986953
109.537500	0.008149	0.006755	0.004806	0.020286	7067.099150	43120.008283	3841.714479	22581.854493
110.034500	0.006942	0.006118	0.005046	0.019583	7062.081079	43126.130092	3844.169662	22614.005212
110.535000	0.007333	0.006566	0.009298	0.019998	7061.836656	43129.127679	3854.215859	22594.992090
111.035000	0.005204	0.006295	0.007481	0.025604	6985.569324	42586.661910	3834.860438	22340.244031
111.536000	0.008287	0.007256	0.010906	0.020845	7062.904026	43114.630638	3856.220024	22556.320522
112.038500	0.006841	0.007270	0.008968	0.020975	7047.245154	43103.770868	3850.782005	22550.353218
112.536500	0.007937	0.006785	0.009405	0.020455	7063.302357	43106.995928	3853.294957	22574.090260
113.036000	0.006660	0.006545	0.013478	0.020563	7049.537755	43074.739288	3863.763407	22569.170334
113.539500	0.007631	0.005487	0.011926	0.019417	7070.594798	43082.947470	3862.687513	22621.598072
114.042500	0.008287	0.006639	0.004843	0.020116	7070.162918	43124.976648	3842.253322	22589.613281
114.539000	0.006599	0.006346	0.005652	0.020091	7053.623044	43100.070811	3844.425252	22590.766510
115.040500	0.003042	0.005633	0.007677	0.025258	6967.858321	42557.843558	3836.263533	22355.899313
115.538000	0.008865	0.006010	0.005950	0.019890	7078.187938	43087.562200	3845.726785	22599.951359
116.041000	0.006488	0.006589	0.008550	0.020386	7049.581778	43095.168127	3851.232110	22577.245358
116.536000	0.007256	0.007017	0.009610	0.021511	7046.048382	43030.597826	3851.062468	22525.932860
117.041500	0.001939	0.005533	0.004485	0.025778	6952.095790	42500.994028	3826.695396	22332.408210
117.536500	0.006010	0.005222	0.005401	0.019245	7056.172915	43074.319497	3845.978778	22629.491984
118.039500	0.007298	0.006070	0.006680	0.019766	7063.796343	43104.620959	3847.957913	22605.617618
118.537000	0.007499	0.006195	0.009676	0.022235	7041.288668	42887.528403	3849.337804	22492.959079
119.037000	0.006201	0.006393	0.007345	0.019983	7050.741889	43114.438541	3849.131187	22595.691760
119.535000	0.005021	0.006420	0.008402	0.019541	7043.425436	43157.993383	3853.062347	22615.899627
120.034500	0.007545	0.005759	0.007366	0.019451	7069.401337	43105.082700	3850.579519	22620.056141
120.535500	0.004920	0.006000	0.009365	0.020954	7028.444991	42987.964726	3851.878935	22551.304637
121.038000	0.004159	0.006248	0.004685	0.025653	6974.894974	42577.974500	3827.529369	22338.050885
121.535500	0.006616	0.006026	0.004189	0.019583	7058.836080	43117.557234	3841.938293	22613.991915
122.038500	0.007707	0.006589	0.006682	0.019819	7067.344611	43147.879425	3847.823956	22603.174890
122.539000	0.005733	0.005668	0.004879	0.020766	7038.348866	42974.685071	3840.657209	22559.926080
123.036000	0.003368	0.006068	0.005205	0.025961	6964.196562	42533.283719	3828.074082	22324.163080
123.537000	0.007512	0.005861	0.009929	0.019792	7065.670406	43082.727980	3856.417621	22604.407474
124.037500	0.007933	0.005706	0.009886	0.019372	7074.050524	43107.373750	3857.412214	22623.638053
124.535000	0.007086	0.005765	0.009397	0.020998	7049.442990	42962.108840	3851.848208	22549.295161
125.040500	0.004946	0.004965	0.004371	0.025223	6986.767133	42499.818519	3827.824413	22357.442061
125.535500	0.006462	0.005913	0.004204	0.019326	7059.853746	43130.920459	3842.644247	22625.743153
126.038000	0.005611	0.005588	0.007696	0.019026	7054.377313	43128.534980	3852.559636	22639.496588
126.536000	0.008111	0.005952	0.009187	0.019464	7074.911120	43121.722419	3855.328867	22619.436928
127.036500	0.003893	0.005399	0.004343	0.024438	6984.156638	42611.474912	3829.773804	22392.980215
127.537000	0.005729	0.005178	0.005235	0.018516	7060.621800	43137.864216	3847.447164	22662.884575
128.037000	0.007795	0.005973	0.008634	0.019490	7071.495020	43121.206644	3853.806532	22618.245526
128.537000	0.007871	0.005947	0.005107	0.019489	7072.269102	43118.877800	3844.572068	22618.275397
129.040000	0.007695	0.005986	0.004414	0.019627	7069.135865	43109.737146	3842.407730	22611.964178
129.535000	0.006588	0.005361	0.010277	0.018984	7064.521609	43111.421491	3859.470930	22641.447919
130.037500	0.004960	0.005758	0.008374	0.019060	7047.586714	43141.184162	3854.252077	22637.934769
130.535500	0.005723	0.005628	0.011036	0.019065	7055.113005	43128.659822	3861.261042	22637.717348
131.038000	0.004371	0.005065	0.003264	0.024477	6988.442129	42577.234639	3826.899156	22391.186868
131.536500	0.006059	0.005311	0.010958	0.019125	7057.849443	43093.601502	3860.896643	22634.949539
132.036000	0.005703	0.005564	0.008069	0.018544	7060.091648	43171.228964	3854.809028	22661.628559
132.537000	0.005366	0.005117	0.005592	0.018530	7056.881383	43130.968470	3848.344999	22662.260855
133.034500	0.003115	0.005352	0.008637	0.024794	6973.090380	42574.532477	3839.954647	22376.866805
133.537000	0.007442	0.005918	0.007835	0.018965	7073.217448	43164.938422	3853.086842	22642.318510
134.038000	0.005222	0.004850	0.003548	0.018451	7056.226128	43113.465915	3843.214126	22665.873960
134.535000	0.006879	0.004998	0.005872	0.018318	7074.051808	43139.521442	3849.633295	22671.970401
135.035000	0.003882	0.004703	0.000989	0.023879	6989.509302	42598.901481	3822.603684	22418.284942
135.535500	0.003499	0.006061	0.010181	0.019246	7031.289781	43152.172455	3858.526290	22629.444212
136.036000	0.004889	0.005322	0.007788	0.018741	7050.039498	43130.285555	3853.548980	22652.563973
136.539000	0.004663	0.005296	0.008418	0.019700	7038.304595	43038.910545	3852.686312	22608.627097
137.039500	0.002787	0.004808	0.003440	0.023999	6977.644999	42597.532557	3828.580029	22412.862070
137.537000	0.004846	0.005201	0.004978	0.017924	7057.733036	43195.090323	3848.323672	22690.088080
138.036500	0.004429	0.005147	0.007871	0.018343	7049.436270	43151.112853	3854.817067	22670.839489
138.537500	0.007290	0.005424	0.009201	0.018617	7075.169477	43151.385755	3857.597504	22658.267290
139.035000	0.001779	0.004473	0.001792	0.022305	6984.336238	42722.399263	3828.699406	22489.786055
139.535000	0.007754	0.005146	0.002662	0.018036	7085.612546	43179.493470	3841.989762	22684.921435
140.038000	0.005299	0.005129	0.007351	0.018242	7059.073389	43158.791820	3853.713906	22675.480596
140.536000	0.002858	0.004115	0.002657	0.018762	7029.740629	43016.434334	3840.091685	22651.630089
141.039000	-0.000160	0.003850	0.003294	0.020710	6980.972164	42811.865732	3836.688781	22562.460521
141.536500	0.004352	0.005250	0.004630	0.018307	7049.023364	43163.993353	3846.414613	22672.506014
142.036500	0.005229	0.004606	0.007028	0.017666	7064.109395	43163.699448	3854.379493	22701.946137
142.537000	0.005633	0.004420	0.011251	0.019231	7052.569804	43001.190987	3861.390420	22630.105715
143.037000	0.004452	0.004896	0.002838	0.022111	7012.442137	42779.138104	3831.890375	22498.585149
143.535000	0.006278	0.005184	0.010907	0.018210	7069.133197	43166.843520	3863.184129	22676.928890
144.038000	0.007028	0.005619	0.004697	0.018179	7076.928121	43210.312429	3846.924536	22678.378085
144.535500	0.004692	0.004631	0.003687	0.019681	7038.778373	42979.056288	3840.375764	22609.491402
145.036000	0.003990	0.004784	0.003260	0.021123	7017.616585	42859.924817	3835.534219	22543.628573
145.536500	0.003077	0.004953	0.006389	0.017543	7043.955588	43207.419488	3853.021637	22707.592844
146.050000	0.005207	0.004023	0.007768	0.017268	7067.848577	43146.453041	3857.375257	22720.235699
146.551500	0.005307	0.004464	0.009895	0.018245	7059.124823	43096.788604	3860.413849	22675.361510
147.056000	0.000976	0.004113	0.006938	0.021537	6983.989687	42759.844435	3844.006768	22524.716283
147.539000	0.003234	0.004424	0.005560	0.017375	7047.176674	43173.798190	3851.285232	22715.310717
148.037000	0.003639	0.004567	0.008659	0.017730	7047.683456	43154.190933	3858.508560	22699.025216
148.549000	0.004755	0.005324	0.009026	0.017812	7057.946432	43217.010823	3859.260716	22695.240533
149.034500	0.003190	0.004333	-0.000589	0.021866	7002.442261	42749.816098	3823.716089	22509.735466
149.535500	0.004431	0.004787	0.000940	0.017677	7056.062043	43179.487959	3838.447030	22701.421049
150.038500	0.004469	0.005494	0.010357	0.018458	7048.692377	43172.689808	3861.071552	22665.572762
150.539000	0.002856	0.004024	0.001338	0.018510	7032.209915	43031.395366	3837.322300	22663.188721
151.050500	0.004559	0.004299	0.005559	0.017242	7061.654338	43174.595822	3851.632416	22721.440971
151.537500	0.004683	0.004105	0.009299	0.016857	7066.728290	43192.400154	3862.508696	22739.183695
152.036500	0.004527	0.004923	0.007252	0.017427	7059.507541	43215.532675	3855.597763	22712.960580
152.537500	0.003734	0.003965	0.008993	0.016852	7057.333470	43179.822184	3861.712283	22739.396700
153.034000	0.005613	0.004962	0.009377	0.017863	7065.974218	43178.516028	3860.053134	22692.885576
153.534000	0.004531	0.005338	0.006925	0.017413	7059.676617	43255.390225	3854.772363	22713.572660
154.035000	0.005841	0.005083	0.005531	0.017998	7066.904382	43177.219522	3849.579657	22686.700010
154.535500	0.004095	0.004841	0.003864	0.018894	7040.651546	43071.445160	3842.883380	22645.536114
155.041500	0.005598	0.004861	0.007032	0.017167	7072.757949	43233.924800	3855.704454	22724.919584
155.550500	0.005055	0.004121	0.008510	0.016931	7069.702580	43186.987097	3860.226391	22735.793311
156.036500	0.005160	0.004299	0.009766	0.017394	7066.127631	43160.491564	3862.323940	22714.460129
156.537500	0.004112	0.003703	0.005485	0.018008	7049.607619	43048.037466	3849.430517	22686.207139
157.037000	0.003422	0.004237	0.007937	0.019212	7030.863436	42985.984371	3852.705092	22630.975764
157.537500	0.001949	0.004589	0.006801	0.016813	7040.015116	43241.586482	3856.027677	22741.204604
158.035000	0.005237	0.003381	0.011184	0.016408	7076.733501	43166.868972	3868.710060	22759.892407
158.535500	0.003706	0.003061	0.003695	0.015395	7071.552531	43231.281471	3851.586972	22806.627956
159.040500	0.002509	0.004011	0.001872	0.019065	7023.300978	42978.633586	3837.265270	22637.702790
159.538500	0.005773	0.003896	0.003981	0.017003	7076.149247	43159.425296	3848.128020	22732.476081
160.041000	0.005079	0.004883	0.005757	0.017156	7067.695362	43236.997478	3852.380372	22725.412273
160.536500	0.003826	0.004070	0.002712	0.017290	7053.899484	43148.831470	3844.061095	22719.228930
161.039000	0.004038	0.004413	0.003282	0.019012	7038.933121	43020.817343	3841.063455	22640.152073
161.537000	0.004256	0.004355	0.002467	0.016881	7062.233652	43213.392652	3844.489649	22738.067706
162.039500	0.002286	0.003889	0.003373	0.015898	7052.431707	43261.654455	3849.427057	22783.420569
162.537500	0.003519	0.005222	0.008336	0.017046	7053.269526	43278.827070	3859.462599	22730.468767
163.040500	0.004188	0.004679	0.004912	0.018401	7046.468947	43102.222499	3846.906290	22668.196785
163.535500	0.005004	0.003944	0.003730	0.016141	7077.069380	43244.153767	3849.727437	22772.211022
164.041000	0.003655	0.004363	0.006263	0.016444	7060.604507	43254.859820	3855.581617	22758.224013
164.535500	0.004148	0.004108	0.007992	0.016821	7061.760764	43196.031840	3859.146726	22740.830703
165.036500	0.003601	0.004540	0.003649	0.018374	7040.919686	43091.823846	3843.678364	22669.404134
165.536500	0.004280	0.004540	0.006164	0.017044	7060.857133	43215.484372	3853.744322	22730.586294
166.039500	0.006098	0.003967	0.007061	0.016793	7081.486595	43185.522719	3856.766010	22742.140352
166.536500	0.004634	0.003713	0.005056	0.016593	7068.873555	43180.484170	3852.018607	22751.356545
167.040000	0.005488	0.004622	0.005681	0.016678	7076.533447	43257.241307	3853.434853	22747.421460
167.535000	0.002550	0.003831	0.007385	0.016482	7049.254003	43201.727120	3858.438311	22756.446461
168.038000	0.002259	0.003652	0.004686	0.016011	7051.038438	43228.919539	3852.572788	22778.175142
168.535500	0.003164	0.003662	0.004900	0.017245	7047.779852	43115.128378	3849.898663	22721.314873
169.035500	0.002179	0.004434	0.003698	0.017770	7032.821246	43138.041702	3845.380720	22697.146442
169.536500	0.004455	0.004253	0.005966	0.016483	7068.183221	43240.992850	3854.698808	22756.434004
170.040500	0.003368	0.003598	0.001545	0.016013	7062.036809	43223.712751	3844.347945	22778.089830
170.537000	0.002500	0.003531	0.001071	0.017405	7039.612833	43088.132651	3839.496330	22713.956878
171.037000	0.003447	0.004000	0.003482	0.017408	7048.955724	43131.345029	3845.762693	22713.789148
171.537500	0.006581	0.004166	0.009493	0.016422	7090.024276	43238.553538	3864.176641	22759.238993
172.037500	0.004779	0.003016	0.004189	0.015438	7081.843274	43223.182566	3852.775050	22804.676473
172.535000	0.002612	0.002650	0.005654	0.016341	7051.265075	43105.113480	3854.250803	22762.967548
173.035500	0.002775	0.003603	0.003834	0.016561	7050.702757	43173.230742	3848.898130	22752.830646
173.536000	0.003949	0.003786	0.006212	0.015790	7070.047698	43262.119748	3857.170069	22788.404177
174.036000	0.004630	0.003377	0.009544	0.015447	7080.262204	43255.902302	3866.900720	22804.235911
174.536500	0.001785	0.002945	0.010797	0.016001	7046.432632	43164.046051	3868.761976	22778.641328
175.036500	0.002349	0.003602	0.005168	0.016346	7048.607789	43193.128791	3852.957464	22762.715712
175.537000	0.004734	0.003716	0.012608	0.016082	7074.962752	43228.282035	3873.376764	22774.898728
176.037000	0.004647	0.003382	0.007005	0.015626	7078.649166	43239.734522	3859.697687	22795.990484
176.534500	0.004459	0.003682	0.004444	0.016533	7067.727477	43183.178073	3850.567951	22754.109766
177.037500	0.003288	0.003148	0.007292	0.016896	7052.466837	43099.758193	3857.102969	22737.380724
177.535500	0.004253	0.003025	0.004122	0.015393	7077.038450	43228.208005	3852.716144	22806.758774
178.038500	0.002829	0.002744	0.007670	0.015023	7066.520626	43236.352192	3863.051601	22823.825139
178.535500	0.003707	0.004156	0.004616	0.016456	7061.002789	43234.436895	3851.222350	22757.663220
179.035500	0.003774	0.002864	0.002856	0.016331	7062.913710	43125.884894	3846.942198	22763.424805
179.536500	0.004233	0.003384	0.003528	0.015481	7075.954725	43253.384125	3850.924001	22802.661643
180.037000	0.003045	0.003645	0.004170	0.015590	7063.038961	43267.594421	3852.324616	22797.641786
180.536500	0.004899	0.003188	0.004572	0.015949	7077.937734	43191.534151	3852.437315	22781.048893
181.037000	0.002292	0.002845	0.006201	0.015183	7059.594846	43231.008769	3858.743872	22816.467296
181.534500	0.002605	0.002364	0.000408	0.014967	7064.850274	43206.190622	3844.110378	22826.420406
182.035000	0.003392	0.002568	0.007700	0.014591	7076.447377	43260.285878	3864.278736	22843.853301
182.541000	0.003874	0.004047	0.009114	0.016921	7058.037145	43181.005108	3861.849632	22736.218651
183.035000	0.003077	0.003759	0.007686	0.016248	7056.807171	43216.803986	3859.851027	22767.241253
183.536000	0.004052	0.002610	0.004470	0.014696	7081.996292	43254.477712	3855.464116	22838.989779
184.036500	0.004449	0.003555	0.005578	0.015685	7076.082495	43250.300497	3855.775237	22793.239486
184.548000	0.003376	0.003265	0.006833	0.016518	7057.104413	43145.839304	3856.888400	22754.822525
185.156500	0.005025	0.002800	0.004626	0.014993	7088.751218	43244.375876	3855.090026	22825.214745
185.596500	0.002076	0.002528	0.004369	0.014556	7063.681419	43259.770817	3855.566589	22845.457502
186.034000	0.003907	0.002975	0.006032	0.015105	7076.463385	43250.375901	3858.504652	22820.072793
186.537500	0.004002	0.003538	0.005589	0.016790	7060.613846	43145.859409	3852.898558	22742.255741
187.036000	0.001750	0.002918	0.003480	0.015615	7049.919633	43197.490084	3850.447438	22796.471441
187.535000	0.002348	0.003242	0.002859	0.015327	7058.712312	43254.526712	3849.574924	22809.775020
