sample name	sample
index	961
start time	 04-12-2021  04:09:50 PM
880	0.549966
Peak Time (s)	122.038
Peak Height 	0.55
calc peak height	120,123
Baseline Time (s)	9.036
Baseline Value 	-0.004675
subtract baseline	10,4
Abs	0.377039
Peak Time (s)	122.535
Peak Height 	0.377
calc peak height	120,123
Baseline Time (s)	9.036
Baseline Value 	-4.3209E-4
subtract baseline	10,3
PK_550	0.203017
Peak Time (s)	121.537
Peak Height 	0.203
calc peak height	120,123
Baseline Time (s)	9.036
Baseline Value 	4.2796E-4
subtract baseline	10,2
PK_880	0.355362
Peak Time (s)	120.537
Peak Height 	0.3554
calc peak height	120,123
Baseline Time (s)	11.537
Baseline Value 	0.001006
subtract baseline	10,1


Time (s)	A880-A510	A880-A775	A880-A975	A880	I510	I775	I975	I880	
0.038500	0.002221	0.000382	0.005402	0.002471	7134.770646	43012.426053	3940.665132	23086.529732
0.536500	-0.004356	-0.000618	-0.005492	0.006983	7027.788253	42507.488826	3902.576895	22877.830843
1.037000	-0.002512	0.000280	-0.000972	0.003931	7074.685620	42868.660421	3921.128708	23018.775734
1.537500	-0.000460	-0.000167	0.003440	0.001307	7119.969010	43069.101612	3938.658041	23140.714867
2.037000	0.000517	-0.000889	0.004518	0.000957	7132.916297	43034.826476	3942.254634	23157.070184
2.534500	-0.002291	-0.000059	-0.001874	0.006338	7053.673045	42617.173305	3912.980725	22907.506045
3.035000	0.001667	0.000268	0.004806	-0.000857	7161.970739	43309.802457	3947.564032	23241.885316
3.536000	0.000178	0.000494	0.003821	0.000342	7135.612368	43219.485896	3942.047122	23185.775919
4.035500	0.001589	-0.000384	0.005420	0.000092	7151.881781	43161.405633	3946.714497	23197.457188
4.536000	0.000836	0.000613	0.003534	0.000736	7138.190106	43194.057693	3940.331322	23167.360526
5.036500	0.001059	0.000145	0.003492	0.000188	7145.732997	43201.376965	3941.605572	23192.953697
5.536500	0.001028	0.000578	0.003994	0.000202	7145.299241	43240.302135	3942.833912	23192.312647
6.037000	-0.001512	-0.000461	0.000181	-0.000551	7127.826485	43213.735794	3935.144917	23227.516883
6.540000	-0.000607	-0.000152	0.002199	-0.000186	7133.099503	43208.612704	3939.292317	23210.460233
7.037500	-0.000418	-0.000024	0.000378	0.000007	7133.063089	43202.522811	3934.241900	23201.420913
7.535000	-0.001190	0.000516	0.002349	0.000454	7121.168499	43211.196176	3938.061411	23180.539872
8.035000	-0.000783	-0.000532	-0.000355	-0.000036	7129.914585	43159.459794	3932.516701	23203.429488
8.536000	0.000023	-0.000640	0.002552	-0.000218	7139.565489	43166.357573	3940.260918	23211.941796
9.036000	-0.001756	0.000000	0.000000	0.000000	7120.081513	43205.427049	3933.314611	23201.755136
9.536500	-0.001220	-0.000284	0.004466	-0.000365	7128.869251	43212.948087	3945.460165	23218.853479
10.036500	0.000309	-0.000327	-0.001270	-0.000374	7143.899055	43209.755931	3931.078284	23219.262093
10.537000	-0.001582	0.000114	-0.003969	0.004259	7080.486024	42823.308312	3912.941065	23003.548618
11.037000	0.000331	0.000406	-0.000208	0.000658	7134.018698	43182.100801	3931.152527	23171.015446
11.537500	0.000000	0.000529	0.002677	0.001124	7126.238102	43150.348217	3937.203322	23149.254305
12.034000	0.001048	0.000387	0.008853	0.001586	7131.963109	43094.547267	3951.633504	23127.724638
12.537500	-0.001513	-0.000144	0.001460	0.000758	7115.068482	43121.912979	3935.071517	23166.334601
13.035500	-0.000340	-0.000338	0.005272	-0.001032	7143.989373	43269.803732	3949.186584	23250.074523
13.535500	0.000967	0.000694	0.005388	0.001677	7130.272599	43114.401774	3942.628792	23123.467055
14.035500	-0.001696	0.000336	0.002799	0.002260	7098.711912	43027.660885	3934.664291	23096.355837
14.536500	-0.000648	0.000268	0.003542	0.003857	7093.396601	42874.391058	3932.529026	23022.193881
15.036000	-0.001754	-0.000331	0.002771	0.001320	7107.264318	43052.838251	3936.948851	23140.133377
15.595000	-0.000319	0.000660	0.002364	0.001174	7122.642649	43157.867717	3936.292042	23146.924262
16.039500	0.000036	-0.000024	0.005785	0.001634	7121.621080	43052.123201	3943.738874	23125.478998
16.537500	-0.001512	-0.000038	-0.001847	0.004543	7078.421640	42783.237975	3917.457958	22990.395592
17.035500	-0.002484	0.000474	0.004253	0.001159	7101.745295	43142.027735	3941.076179	23147.611122
17.535500	-0.001318	-0.000373	0.005655	0.000415	7120.305382	43132.433763	3946.490529	23182.338968
18.035500	-0.002639	0.000584	0.001827	0.002708	7085.257299	43009.175138	3931.114054	23075.520278
18.536000	-0.004398	-0.001381	-0.001204	0.001705	7077.953198	42920.581668	3926.065669	23122.166008
19.036000	-0.000689	-0.000336	0.000901	0.002134	7109.702823	42977.334004	3930.238682	23102.220270
19.536500	-0.001381	-0.000108	0.006818	0.002361	7100.783411	42977.362386	3944.512444	23091.642264
20.037000	-0.000800	0.000698	0.002903	0.002727	7102.866422	43017.906128	3933.754130	23074.613469
20.539500	0.000495	0.001061	0.000712	0.003148	7111.353707	43012.552086	3927.244123	23055.087351
21.034500	-0.002639	-0.000719	-0.002580	0.001871	7093.342251	42966.212922	3922.245555	23114.435708
21.535000	-0.001418	-0.000044	0.001653	0.002462	7099.445974	42973.944588	3931.295642	23086.961839
22.035000	-0.000957	0.000686	0.002783	0.003305	7095.752396	42963.544525	3932.010461	23047.795444
22.535500	-0.000564	0.000404	-0.000389	0.002620	7106.197145	43000.624509	3925.818634	23079.584383
23.035500	-0.002245	-0.000227	0.000091	0.002192	7094.047903	42981.971477	3928.075841	23099.494239
23.536000	-0.003100	0.000524	0.003020	0.002627	7081.587437	43011.111456	3934.296811	23079.269682
24.036500	-0.000743	-0.000431	0.000818	0.002233	7108.212022	42959.405817	3929.781502	23097.576452
24.536500	-0.002592	-0.000228	0.002368	0.002253	7090.099920	42976.173034	3933.601392	23096.644822
25.039500	-0.000089	0.000545	0.002751	0.002778	7109.281270	42999.129901	3933.249543	23072.280928
25.537000	-0.001414	-0.000336	0.001353	0.002128	7102.722248	42977.818450	3931.378596	23102.461092
26.037500	-0.001733	0.000309	0.001434	0.002595	7095.107764	42994.237617	3930.417344	23080.776328
26.534500	-0.000476	0.000163	0.000112	0.002673	7106.540879	42973.666064	3926.932020	23077.153539
27.035500	-0.000681	-0.000175	-0.001316	0.002660	7104.670423	42943.599143	3923.421083	23077.729012
27.536000	0.000205	0.000218	-0.000595	0.003194	7108.084350	42930.670614	3923.884047	23052.931049
28.035500	0.000299	0.000682	0.008367	-0.000699	7146.985551	43333.594748	3956.214037	23234.473116
28.536500	-0.001558	-0.000191	0.005335	0.001057	7111.720911	43089.919041	3944.059842	23152.361996
29.036000	-0.000723	0.000219	0.000554	0.001427	7116.245836	43093.700618	3931.135692	23135.145834
29.537000	-0.000649	-0.000141	0.005291	0.001061	7120.526979	43094.253069	3943.939862	23152.214209
30.037000	-0.000133	0.000310	0.003649	0.001496	7121.309708	43095.646878	3938.709802	23131.897091
30.537000	-0.000527	-0.000059	0.003139	0.001851	7114.032979	43028.872631	3936.538475	23115.389900
31.034500	-0.000908	0.000004	-0.000534	0.001367	7115.032216	43079.388149	3928.572613	23137.940803
31.548500	-0.001995	-0.000756	0.005670	0.001271	7105.400779	43018.049262	3944.365558	23142.391954
32.035500	-0.002892	-0.001096	0.001575	0.003988	7070.470832	42737.181711	3927.299277	23016.092542
32.535500	-0.001102	-0.000867	0.002278	0.001707	7109.834743	42967.674901	3934.741598	23122.075257
33.063500	-0.000429	0.000136	-0.000510	0.001750	7115.966085	43056.209705	3927.681853	23120.101846
33.536500	-0.000512	-0.000228	0.002313	0.001521	7117.382230	43043.727022	3935.296536	23130.760284
34.037000	0.001004	-0.000226	0.009058	0.002064	7126.871025	42993.883067	3950.938980	23105.482662
34.537000	-0.000727	-0.000376	0.001800	0.003179	7099.203131	42877.487669	3929.874594	23053.653798
35.037000	-0.001990	-0.001108	-0.001476	0.001888	7099.468158	42928.787928	3924.936273	23113.639056
35.537500	-0.001480	0.000074	-0.000429	0.003264	7091.079048	42910.995533	3924.121683	23049.681863
36.034500	-0.002938	-0.000743	0.006312	0.002997	7079.583183	42860.529655	3941.634559	23062.097009
36.535500	-0.002157	0.000348	0.005004	0.003829	7079.089543	42884.306749	3936.256651	23023.493217
37.035500	0.000486	0.000757	-0.003097	0.004383	7099.274872	42870.945135	3914.775502	22997.799276
37.535500	-0.001521	-0.000100	0.001491	0.003149	7091.790184	42905.574693	3929.178108	23055.005926
38.036000	-0.000742	-0.000641	0.000873	0.003114	7099.681158	42859.138337	3927.728725	23056.668333
38.536000	-0.002034	-0.000674	0.002703	0.003012	7088.159898	42865.455136	3932.541041	23061.383257
39.037000	-0.000578	0.000130	-0.000475	0.003492	7097.600123	42895.219016	3923.441739	23039.097365
39.537000	-0.001377	-0.000242	0.002662	0.003368	7091.071044	42872.340940	3931.549442	23044.848479
40.037500	-0.001170	0.000244	0.007262	0.003793	7088.967577	42878.002217	3942.019545	23025.139111
40.534500	-0.002004	-0.000038	0.004006	0.003290	7085.769615	42898.291035	3935.104946	23048.481616
41.037500	-0.001267	-0.000755	-0.000817	0.002525	7100.300938	42902.718557	3924.992253	23084.012492
41.535000	-0.002374	-0.000748	-0.001481	0.002444	7090.370185	42910.831249	3923.546847	23087.779822
42.035500	-0.000387	0.000163	0.003321	0.003526	7099.129167	42895.076797	3932.800849	23037.521347
42.536000	-0.002598	-0.000050	0.004696	0.002758	7085.163374	42946.156485	3938.168102	23073.168246
43.036500	-0.001829	-0.000602	0.002126	0.002435	7095.725369	42925.073112	3932.540817	23088.179713
43.539000	0.000972	0.000288	0.007644	0.003350	7114.023888	42922.773090	3944.100570	23045.697294
44.037000	-0.001180	-0.000732	0.003796	0.002475	7101.631359	42909.463808	3936.621565	23086.346872
44.537000	0.000402	-0.001006	0.001260	0.001960	7122.010122	42931.664737	3931.568309	23110.319116
45.035000	-0.000287	0.000287	0.005504	0.001518	7119.608031	43091.574363	3943.325726	23130.909034
45.537500	0.003419	0.000486	0.004154	0.000075	7170.036224	43243.514762	3943.559317	23198.262867
46.035000	0.000831	0.000089	0.006662	0.003189	7114.228242	42919.351923	3942.031044	23053.190438
46.535500	0.001045	0.000111	0.004880	0.001511	7132.654234	43075.878743	3941.766727	23131.201600
47.036000	0.000802	0.000045	0.001697	0.001111	7134.195976	43106.812583	3934.781878	23149.881217
47.536500	0.001257	0.000065	0.004739	0.001483	7135.009980	43074.310708	3941.485127	23132.521055
48.039000	0.002376	-0.000196	0.006940	0.002609	7134.933792	42946.450316	3944.194557	23080.109952
48.539000	0.000051	-0.000065	0.006422	0.001868	7119.481743	43026.799514	3944.758049	23114.585780
49.034000	0.000485	-0.000082	0.006243	0.003002	7112.674543	42920.751389	3941.446430	23061.836391
49.537500	0.001181	0.000739	0.002902	0.004155	7108.230303	42890.212144	3930.186989	23008.368888
50.041000	-0.000108	-0.000270	0.000588	0.002897	7107.929257	42913.082584	3927.557879	23066.724131
50.537000	0.001063	0.000611	0.009502	0.002291	7125.232838	43050.135357	3951.491732	23094.916120
51.035000	0.002693	0.000400	0.010114	0.002061	7143.398843	43051.833087	3953.632041	23105.605360
51.536000	0.004648	0.000384	0.006002	-0.000853	7191.337542	43320.170824	3950.583602	23241.663077
52.036000	0.001911	0.000095	0.006754	0.001789	7138.404933	43048.820504	3945.797434	23118.258083
52.536000	-0.002921	-0.000602	0.014624	0.021559	6904.487683	41204.049353	3916.116764	22218.177387
53.036500	-0.047752	-0.006850	0.008583	0.165503	5489.613861	30027.310179	3604.113109	16766.069519
53.537000	-0.042022	-0.010052	-0.007400	0.001585	6731.551282	42141.786766	3911.084301	23127.753814
54.036000	-0.028442	-0.122251	-0.010164	-0.313996	11086.200084	65535.000000	5032.958621	44742.194415
54.534500	-0.020239	-0.146759	-0.002314	-0.338503	11727.299107	65535.000000	5201.991366	47171.721591
55.037500	-0.035095	-0.123155	-0.008115	-0.314899	10978.410062	65535.000000	5047.866726	44829.379833
55.535000	-0.028735	-0.114434	-0.002389	-0.306178	10934.564754	65535.000000	5032.743810	43995.619308
56.035500	-0.014659	-0.083815	-0.003770	-0.275560	10633.948663	65535.000000	4877.537646	41197.571829
56.536000	-0.008031	-0.077203	-0.004198	-0.268899	10633.351166	65527.897233	4844.672015	40614.536257
57.039000	0.002505	-0.086531	0.001928	-0.278276	10996.609764	65535.000000	4917.245130	41437.859559
57.536000	0.003023	-0.065365	0.004757	-0.253722	10560.214453	65048.942236	4816.271378	39319.090713
58.036500	0.000544	-0.037608	0.004274	-0.211423	9808.866744	63004.895020	4631.595585	35938.531816
58.537000	0.000682	-0.025383	0.006192	-0.183822	9384.947611	60916.806118	4529.160349	33903.659731
59.034500	0.003630	-0.015084	0.008675	-0.144060	8857.146664	57116.274573	4390.850894	31190.480771
59.534500	0.006226	-0.011105	0.009582	-0.115595	8512.146170	54148.325657	4295.974672	29395.235815
60.035000	0.005682	-0.007901	0.015420	-0.091266	8199.255734	51718.695911	4235.606102	27951.366703
60.535000	0.006145	-0.005030	0.010476	-0.063428	7874.971808	48995.523759	4134.699071	26395.459494
61.035500	0.009356	-0.002717	0.013314	-0.038580	7632.752356	46668.511852	4071.099717	25088.474804
61.536000	0.011048	-0.001243	0.012450	-0.023484	7488.635659	45319.280852	4026.958052	24330.191993
62.039000	0.011770	0.000618	0.020027	-0.000830	7262.219155	43339.776378	3986.723206	23240.611337
62.536000	0.017149	0.002459	0.025126	0.014004	7168.079699	42150.059970	3961.474221	22557.316553
63.036500	0.020927	0.005026	0.028106	0.028631	7062.551250	41077.183781	3932.002715	21906.029841
63.537000	0.030057	0.008455	0.044652	0.041647	7025.393525	40245.373735	3940.853416	21344.634423
64.037500	0.040617	0.012357	0.047632	0.065919	6896.892467	38537.608719	3888.551150	20341.643082
64.535000	0.050854	0.019183	0.060637	0.082390	6839.798382	37756.542946	3880.279124	19692.247509
65.035500	0.063670	0.025802	0.077428	0.098803	6807.226107	36980.923153	3881.177115	19069.180396
65.535000	0.078827	0.034548	0.092770	0.122368	6732.146951	35840.197257	3861.796132	18214.827998
66.035000	0.093786	0.042381	0.100681	0.144228	6671.583207	34795.691505	3829.739772	17462.644723
66.538500	0.105392	0.050830	0.125450	0.165947	6584.561385	33838.080854	3836.661136	16751.900100
67.036000	0.124592	0.060291	0.137743	0.183128	6601.781465	33294.375105	3825.594180	16214.311905
67.536500	0.138474	0.069302	0.158400	0.206260	6523.577570	32324.380630	3820.037678	15523.305918
68.036500	0.153891	0.075355	0.160520	0.221065	6528.701819	31738.870192	3792.047108	15099.964310
68.537000	0.163976	0.080851	0.174700	0.234601	6499.911119	31211.310140	3793.450736	14725.355690
69.034500	0.170007	0.084986	0.177415	0.246267	6453.384958	30725.858350	3774.155942	14411.715514
69.569500	0.177691	0.090481	0.185331	0.258214	6418.586042	30316.710708	3765.598787	14099.157034
70.035500	0.186743	0.094667	0.194573	0.270853	6389.566680	29789.628565	3758.446019	13777.706631
70.535000	0.195375	0.099514	0.202452	0.280633	6380.329028	29486.785599	3754.468347	13535.307728
71.036000	0.200377	0.103386	0.215696	0.291190	6335.985239	29081.829656	3760.095097	13279.713685
71.536000	0.206600	0.107308	0.220995	0.301281	6305.441329	28713.643625	3750.084740	13041.140526
72.036500	0.211630	0.112336	0.228684	0.314336	6242.920862	28242.281041	3739.003582	12740.596071
72.537000	0.221352	0.116949	0.234639	0.322507	6254.909477	28036.111811	3734.466170	12557.035385
73.040000	0.228597	0.120980	0.246306	0.332347	6234.873559	27703.181874	3738.205896	12340.520202
73.540000	0.233236	0.123256	0.250790	0.341652	6199.140181	27306.193548	3728.376076	12140.244162
74.037500	0.235765	0.126841	0.251066	0.353698	6127.438932	26836.783249	3704.828999	11887.264037
74.535000	0.240010	0.130270	0.262987	0.359609	6115.046403	26700.816629	3716.773359	11765.664213
75.035500	0.249253	0.134626	0.264571	0.368409	6118.327766	26459.209186	3702.451812	11587.663571
75.536000	0.255824	0.136357	0.270746	0.375427	6115.009050	26175.086802	3700.795210	11448.282545
76.036000	0.259401	0.140141	0.274061	0.385188	6069.425998	25857.984908	3688.225613	11258.120248
76.536000	0.264645	0.142003	0.280924	0.387828	6088.546773	25817.034504	3696.438199	11207.426024
77.036500	0.268701	0.144600	0.288843	0.393501	6076.660383	25655.844101	3700.840293	11099.519023
77.537000	0.275421	0.148123	0.290122	0.400643	6073.570676	25467.627649	3689.400452	10965.655958
78.037500	0.279152	0.151244	0.291890	0.410702	6027.524814	25111.167263	3673.483017	10780.801144
78.534500	0.283099	0.152260	0.296170	0.411219	6052.395497	25136.593911	3680.668544	10771.414754
79.034500	0.285732	0.156482	0.301201	0.418056	6021.942351	25003.545866	3677.213947	10648.349551
79.535000	0.291371	0.158347	0.307281	0.422659	6029.420073	24865.097105	3680.039001	10566.575304
80.035500	0.293377	0.161053	0.304266	0.432506	5973.263612	24508.130942	3655.750373	10394.533335
80.538500	0.298318	0.163513	0.315963	0.434329	5995.472613	24539.760643	3674.331862	10363.105908
81.036000	0.299717	0.164471	0.316994	0.438107	5978.517016	24400.158768	3669.119619	10298.397514
81.536000	0.304588	0.165944	0.321314	0.442177	5984.218553	24272.456160	3669.594909	10229.322617
82.036500	0.305280	0.168522	0.323776	0.451506	5923.307567	23943.951877	3656.699609	10073.389094
82.536500	0.309937	0.170044	0.330968	0.452559	5948.571442	23966.591640	3668.215844	10055.998130
83.037000	0.311205	0.170183	0.327661	0.454960	5940.604576	23857.563872	3657.503819	10016.505065
83.537500	0.314851	0.173736	0.329921	0.460223	5929.274872	23775.524764	3651.925232	9930.700524
84.035000	0.313296	0.173144	0.334236	0.466849	5872.579464	23432.656542	3647.656045	9824.123685
84.535500	0.319380	0.176954	0.341238	0.467741	5908.437055	23570.579895	3658.988972	9809.904965
85.038000	0.320016	0.178055	0.340685	0.470467	5893.951634	23493.696799	3652.887000	9766.622008
85.536000	0.318719	0.177145	0.346713	0.473237	5865.956261	23320.548534	3658.950499	9722.905593
86.036000	0.321550	0.180139	0.339333	0.480655	5834.699832	23114.359894	3631.773692	9607.229784
86.536500	0.324381	0.181056	0.339368	0.479039	5864.999368	23232.162926	3634.759764	9632.259182
87.037000	0.326294	0.181464	0.344569	0.481064	5864.230325	23156.893238	3640.537911	9600.910208
87.537000	0.328259	0.182853	0.345930	0.484066	5857.138483	23082.035852	3637.547551	9554.692797
88.037000	0.326501	0.183957	0.340722	0.491130	5797.495663	22808.052256	3615.541830	9447.210380
88.535000	0.328221	0.184154	0.355393	0.487838	5831.232890	22967.977153	3647.964688	9497.078075
89.035000	0.329321	0.185278	0.352877	0.489817	5825.287374	22928.682731	3639.725265	9467.056255
89.538000	0.334666	0.185354	0.353591	0.492327	5844.504297	22817.140138	3636.456405	9429.165283
90.036000	0.329877	0.187777	0.349383	0.499406	5764.886480	22605.568910	3616.222824	9323.473539
90.536000	0.330354	0.186571	0.351517	0.494635	5799.821418	22767.350492	3628.538416	9394.512430
91.036000	0.334982	0.189287	0.358027	0.497857	5809.258877	22744.297495	3634.471778	9346.451286
91.536500	0.335604	0.188380	0.353791	0.499138	5804.829310	22644.959830	3624.540827	9327.439669
92.037000	0.332585	0.189688	0.352919	0.505843	5740.314669	22402.095598	3611.106375	9228.861570
92.537000	0.339947	0.190914	0.363807	0.503005	5808.030681	22584.712315	3635.618456	9270.401986
93.037500	0.340057	0.191671	0.358533	0.504061	5801.678978	22571.188616	3624.217088	9254.909890
93.535000	0.338792	0.192494	0.363190	0.505008	5786.894091	22565.588038	3630.879161	9241.044976
94.035500	0.334278	0.190203	0.361446	0.510426	5721.419691	22220.938132	3618.071307	9162.343226
94.538000	0.341576	0.193540	0.362700	0.507427	5789.329286	22503.741396	3625.650616	9205.781006
95.036000	0.341429	0.193866	0.361775	0.508695	5779.904673	22461.493498	3621.732676	9187.382492
95.536000	0.344017	0.195348	0.361971	0.511314	5779.691574	22410.525853	3617.425550	9149.529089
96.036500	0.340347	0.194696	0.366950	0.512999	5744.291308	22306.219110	3623.286116	9125.299924
96.536000	0.340699	0.193957	0.362989	0.513422	5743.822767	22254.555677	3615.496523	9119.226617
97.037000	0.342421	0.195912	0.364319	0.516034	5737.990248	22225.418114	3613.234204	9081.899325
97.534500	0.342590	0.194778	0.366364	0.517428	5729.965624	22113.684084	3614.381932	9062.055916
98.035000	0.341117	0.195878	0.365384	0.523986	5677.947961	21874.658319	3601.189781	8969.589390
98.535000	0.342384	0.194864	0.368277	0.517665	5727.068510	22107.012167	3617.346504	9058.686376
99.034500	0.343553	0.196306	0.370379	0.520092	5718.864187	22063.663668	3616.770996	9024.322868
99.535500	0.342284	0.197405	0.365686	0.521910	5698.841412	22032.103804	3605.327024	8998.710054
100.036000	0.343831	0.196033	0.375283	0.521324	5712.663278	21997.654643	3623.300696	9006.954434
100.536000	0.347342	0.198193	0.372586	0.522813	5725.828012	22027.075124	3615.860456	8986.025474
101.036500	0.342263	0.196260	0.369991	0.521625	5700.551240	21994.454797	3613.376579	9002.724797
101.537000	0.344231	0.197253	0.371638	0.523956	5698.198954	21935.945697	3612.173181	8970.016386
102.037500	0.341591	0.195912	0.365182	0.528214	5653.964999	21693.072053	3593.543906	8910.719767
102.534500	0.343914	0.196261	0.374754	0.523045	5702.041350	21932.407086	3619.294552	8982.779175
103.035000	0.344420	0.197784	0.370551	0.524657	5694.892540	21928.491256	3609.030240	8960.208055
103.538000	0.345581	0.197430	0.370693	0.525331	5698.036696	21883.660416	3608.098217	8950.793811
104.035500	0.344660	0.198068	0.367882	0.531656	5651.588700	21637.720502	3592.269880	8863.205218
104.535000	0.345921	0.197463	0.373123	0.525242	5700.813698	21888.986571	3612.521794	8952.041647
105.036000	0.349291	0.198761	0.370025	0.527558	5707.636907	21844.687052	3603.047129	8919.806433
105.536000	0.348838	0.200612	0.377657	0.529464	5692.381257	21842.328802	3613.071843	8893.415825
106.036500	0.346935	0.199679	0.365238	0.533901	5651.781195	21610.467071	3583.934302	8832.409995
106.537000	0.352238	0.199782	0.373741	0.529392	5714.865758	21809.456611	3606.327575	8894.414591
107.036500	0.347741	0.199315	0.371605	0.529499	5685.085358	21784.533068	3602.419687	8892.931890
107.535000	0.349434	0.201208	0.367854	0.530808	5687.558547	21809.863841	3593.676590	8874.870578
108.037500	0.351565	0.198436	0.376574	0.529539	5709.542838	21744.809131	3611.034697	8892.382347
108.535500	0.353895	0.201943	0.385439	0.532981	5702.335083	21747.585781	3620.624918	8845.012814
109.036000	0.349678	0.200720	0.375900	0.531163	5686.847955	21773.317338	3607.005487	8869.984159
109.536000	0.348398	0.198623	0.375412	0.530721	5681.453046	21701.843033	3606.924341	8876.071305
110.036000	0.348799	0.199436	0.373104	0.531852	5676.770607	21688.130752	3600.936205	8860.508072
110.536500	0.349971	0.199566	0.371360	0.532095	5682.735294	21683.262290	3597.499045	8857.172489
111.036500	0.352011	0.201075	0.378587	0.533621	5686.042794	21682.527941	3607.406172	8836.250059
111.537000	0.349346	0.200468	0.374591	0.533613	5668.986305	21656.715121	3600.460915	8836.350410
112.037500	0.348209	0.199717	0.366562	0.538864	5628.430711	21400.339127	3577.792515	8764.920587
112.535500	0.352241	0.199320	0.376036	0.533593	5687.706970	21608.320108	3603.005730	8836.637287
113.035000	0.352705	0.201750	0.377738	0.536850	5669.776000	21572.849614	3600.305991	8792.217675
113.535500	0.352948	0.201667	0.373858	0.536271	5675.037902	21594.086925	3594.607339	8800.088331
114.035500	0.347649	0.199503	0.372363	0.540636	5613.769198	21316.267552	3584.597273	8741.003693
114.559000	0.351840	0.200319	0.371938	0.536563	5666.080297	21523.923408	3590.812391	8796.118320
115.036000	0.351093	0.202626	0.375946	0.538318	5650.137277	21547.534899	3594.678190	8772.309653
115.536500	0.353708	0.202083	0.375676	0.540165	5655.018635	21445.615228	3591.045293	8747.356959
116.037000	0.348324	0.199622	0.368343	0.542708	5605.026718	21234.012542	3574.332960	8713.168642
116.537500	0.353439	0.202277	0.371031	0.539111	5660.017831	21498.737967	3584.925230	8761.583744
117.037500	0.352050	0.200715	0.373705	0.538623	5654.281757	21452.969089	3590.311177	8768.176365
117.535000	0.352818	0.199683	0.369910	0.539571	5653.137358	21368.925987	3582.245769	8755.365146
118.035500	0.354363	0.202569	0.380165	0.541347	5651.666913	21416.008765	3596.727954	8731.440607
118.535500	0.354980	0.203282	0.373603	0.540953	5658.104439	21463.063345	3586.165740	8736.741628
119.036000	0.351781	0.202010	0.371256	0.541739	5632.825593	21375.651920	3580.856274	8726.170091
119.536500	0.351932	0.200661	0.374337	0.541753	5633.691328	21318.046434	3586.053042	8725.987414
120.036000	0.352508	0.201656	0.370754	0.542521	5632.481859	21327.636432	3578.692296	8715.679895
120.537000	0.355362	0.202413	0.376864	0.543719	5642.954227	21309.003449	3587.007975	8699.639127
121.037000	0.351383	0.201949	0.376285	0.543443	5619.588723	21301.049144	3586.491063	8703.325208
121.536500	0.352903	0.203017	0.374166	0.545837	5614.105076	21245.180902	3578.854140	8671.386411
122.037500	0.350298	0.202413	0.372983	0.549966	5572.203646	21047.151611	3569.965810	8616.697330
122.535500	0.351034	0.202115	0.377039	0.544459	5611.022088	21265.217930	3586.045605	8689.743414
123.035500	0.353170	0.202001	0.379302	0.545152	5620.081226	21231.278629	3588.719799	8680.509654
123.536000	0.356042	0.203026	0.374689	0.546342	5630.671483	21224.344687	3578.885537	8664.671962
124.036000	0.353098	0.204637	0.379703	0.553041	5570.506713	21011.780452	3576.053046	8576.308104
124.536000	0.353881	0.202894	0.383583	0.547488	5609.889103	21170.718643	3592.046446	8649.457150
125.036500	0.352752	0.201860	0.380583	0.546834	5606.911996	21154.774656	3588.036085	8658.129185
125.537000	0.351969	0.201742	0.380119	0.546487	5604.183859	21164.385638	3587.835183	8662.733959
126.037500	0.352120	0.203096	0.378102	0.551419	5574.479844	21015.145168	3576.088954	8597.579589
126.534500	0.354265	0.201647	0.375454	0.547466	5612.426721	21119.439423	3578.279596	8649.740842
127.035500	0.355901	0.204480	0.384996	0.550856	5601.460861	21096.199180	3588.702671	8604.980897
127.535500	0.357636	0.203240	0.380095	0.551027	5611.240325	21037.448764	3580.098936	8602.731950
128.035000	0.352890	0.202897	0.382243	0.552846	5570.423657	20947.743798	3580.654011	8578.862640
128.536000	0.353323	0.202668	0.382009	0.550160	5589.736778	21049.677624	3584.804561	8614.139426
129.036500	0.355616	0.202674	0.375991	0.550533	5601.698762	21034.459326	3574.037090	8609.235142
129.536500	0.356727	0.201834	0.381090	0.551928	5599.928359	20941.772119	3580.257992	8590.901419
130.050500	0.354537	0.203040	0.377397	0.554715	5569.053215	20876.449396	3569.408996	8554.439998
130.545000	0.354987	0.202384	0.377950	0.550796	5596.135618	21011.463183	3576.878446	8605.767535
131.040000	0.354630	0.202726	0.387900	0.551899	5587.056469	20979.897716	3591.885807	8591.282269
131.534000	0.354938	0.203195	0.379977	0.552619	5584.498544	20969.486612	3577.220760	8581.834213
132.035000	0.355629	0.202486	0.380282	0.555580	5570.457057	20818.066915	3572.773582	8543.176156
132.535500	0.354616	0.203177	0.378937	0.552532	5583.042131	20972.330041	3575.622461	8582.978002
133.036000	0.356640	0.202862	0.380304	0.553136	5591.858279	20934.254944	3576.902115	8575.061352
