sample name	sample
index	695
start time	 03-22-2021  12:37:45 PM


Wavelength (nm)	Absorbance
494.344910	NaN
494.563924	NaN
494.782919	NaN
495.001897	-1.083184
495.220856	0.111811
495.439797	0.095549
495.658719	0.036981
495.877624	-0.049432
496.096510	-0.188008
496.315378	-0.058195
496.534227	-0.067039
496.753059	-0.030291
496.971872	0.036330
497.190667	0.033361
497.409444	0.020561
497.628203	0.018805
497.846943	0.018104
498.065665	0.019785
498.284369	0.017881
498.503055	0.018462
498.721723	0.017300
498.940372	0.015519
499.159003	0.014990
499.377616	0.015337
499.596210	0.015294
499.814787	0.015561
500.033345	0.015606
500.251885	0.016114
500.470406	0.015994
500.688910	0.016684
500.907395	0.017761
501.125862	0.017952
501.344311	0.017989
501.562742	0.018129
501.781154	0.017908
501.999548	0.017442
502.217924	0.016897
502.436282	0.016133
502.654621	0.016016
502.872942	0.015984
503.091245	0.016090
503.309530	0.015889
503.527797	0.015990
503.746045	0.016711
503.964275	0.016707
504.182487	0.016441
504.400681	0.017114
504.618856	0.017310
504.837013	0.017247
505.055152	0.016890
505.273273	0.016386
505.491376	0.015611
505.709460	0.015485
505.927526	0.015603
506.145574	0.015846
506.363604	0.015297
506.581615	0.015131
506.799608	0.014934
507.017583	0.015010
507.235540	0.015181
507.453478	0.015713
507.671399	0.014992
507.889301	0.015252
508.107185	0.015256
508.325050	0.014431
508.542898	0.013908
508.760727	0.014168
508.978538	0.013009
509.196330	0.013228
509.414105	0.012615
509.631861	0.012470
509.849599	0.011634
510.067319	0.011666
510.285021	0.012705
510.502704	0.012295
510.720369	0.012205
510.938016	0.013658
511.155645	0.013464
511.373255	0.013882
511.590848	0.013623
511.808422	0.014224
512.025977	0.014152
512.243515	0.013830
512.461034	0.015022
512.678536	0.015872
512.896018	0.014742
513.113483	0.013525
513.330930	0.013467
513.548358	0.013638
513.765768	0.013594
513.983160	0.013217
514.200533	0.013104
514.417889	0.012103
514.635226	0.011013
514.852545	0.011488
515.069845	0.012069
515.287128	0.012108
515.504392	0.012158
515.721638	0.011925
515.938866	0.011728
516.156075	0.012430
516.373267	0.012623
516.590440	0.012271
516.807594	0.011498
517.024731	0.011951
517.241850	0.012404
517.458950	0.012212
517.676032	0.012288
517.893095	0.012576
518.110141	0.011943
518.327168	0.012332
518.544177	0.012704
518.761168	0.013317
518.978141	0.012910
519.195095	0.012376
519.412031	0.012943
519.628949	0.012676
519.845849	0.012961
520.062731	0.013667
520.279594	0.013381
520.496439	0.012801
520.713266	0.012580
520.930074	0.012771
521.146865	0.012833
521.363637	0.012179
521.580391	0.012155
521.797127	0.011786
522.013844	0.010894
522.230543	0.011446
522.447224	0.011879
522.663887	0.011982
522.880532	0.011968
523.097158	0.012077
523.313766	0.012340
523.530356	0.012657
523.746928	0.012741
523.963481	0.012796
524.180017	0.012141
524.396534	0.012092
524.613032	0.012230
524.829513	0.012279
525.045975	0.012062
525.262420	0.012245
525.478845	0.012152
525.695253	0.012073
525.911643	0.012197
526.128014	0.012293
526.344367	0.012364
526.560702	0.012054
526.777018	0.011799
526.993316	0.011811
527.209597	0.011221
527.425858	0.011146
527.642102	0.011322
527.858328	0.011134
528.074535	0.011162
528.290724	0.011174
528.506894	0.011741
528.723047	0.012367
528.939181	0.012387
529.155297	0.012807
529.371395	0.012396
529.587475	0.012157
529.803536	0.012529
530.019579	0.012423
530.235604	0.012445
530.451611	0.011811
530.667600	0.011496
530.883570	0.011419
531.099522	0.011536
531.315456	0.011852
531.531372	0.012169
531.747269	0.011654
531.963148	0.012008
532.179009	0.011794
532.394852	0.012019
532.610676	0.011896
532.826482	0.011395
533.042271	0.011103
533.258040	0.011207
533.473792	0.011086
533.689525	0.011344
533.905240	0.011005
534.120937	0.011469
534.336616	0.011824
534.552277	0.011774
534.767919	0.012120
534.983543	0.012166
535.199149	0.012050
535.414736	0.012271
535.630306	0.012548
535.845857	0.012928
536.061390	0.012643
536.276904	0.012071
536.492401	0.012356
536.707879	0.012280
536.923339	0.011549
537.138781	0.011066
537.354204	0.010796
537.569610	0.010646
537.784997	0.010402
538.000366	0.010349
538.215716	0.010507
538.431049	0.010454
538.646363	0.010922
538.861659	0.011471
539.076937	0.011702
539.292196	0.011488
539.507438	0.011496
539.722661	0.011538
539.937866	0.011626
540.153052	0.012063
540.368221	0.011891
540.583371	0.011922
540.798503	0.011974
541.013617	0.011992
541.228712	0.012487
541.443789	0.012605
541.658848	0.012493
541.873889	0.012544
542.088912	0.012075
542.303916	0.011887
542.518902	0.011549
542.733870	0.011925
542.948820	0.011917
543.163752	0.011533
543.378665	0.011184
543.593560	0.011191
543.808437	0.010857
544.023295	0.011120
544.238136	0.011330
544.452958	0.010991
544.667762	0.010391
544.882548	0.010495
545.097315	0.010286
545.312064	0.010289
545.526795	0.010210
545.741508	0.010108
545.956203	0.010202
546.170879	0.010416
546.385537	0.010786
546.600177	0.011141
546.814799	0.010728
547.029402	0.011241
547.243988	0.011354
547.458555	0.011257
547.673103	0.011383
547.887634	0.010706
548.102146	0.010253
548.316640	0.009830
548.531116	0.009857
548.745574	0.010140
548.960013	0.010023
549.174435	0.010013
549.388838	0.010007
549.603222	0.010057
549.817589	0.010340
550.031937	0.010420
550.246267	0.010802
550.460579	0.010403
550.674873	0.010243
550.889148	0.009714
551.103405	0.009693
551.317644	0.009852
551.531865	0.009871
551.746068	0.009993
551.960252	0.010009
552.174418	0.009900
552.388566	0.010201
552.602696	0.010476
552.816807	0.010800
553.030900	0.010812
553.244975	0.010730
553.459032	0.010882
553.673070	0.010939
553.887091	0.011493
554.101093	0.011538
554.315077	0.011846
554.529042	0.011875
554.742990	0.011749
554.956919	0.011751
555.170830	0.011772
555.384722	0.011782
555.598597	0.011619
555.812453	0.011106
556.026291	0.011283
556.240111	0.011175
556.453913	0.010936
556.667696	0.011006
556.881461	0.010996
557.095208	0.011090
557.308937	0.010896
557.522647	0.011031
557.736339	0.011130
557.950013	0.011267
558.163669	0.011221
558.377307	0.011526
558.590926	0.011449
558.804527	0.011334
559.018110	0.011230
559.231675	0.011174
559.445221	0.011011
559.658749	0.010669
559.872259	0.010538
560.085751	0.010174
560.299225	0.010353
560.512680	0.010486
560.726117	0.010551
560.939536	0.010636
561.152937	0.010688
561.366319	0.010616
561.579683	0.011027
561.793029	0.011033
562.006357	0.011236
562.219667	0.010921
562.432958	0.010909
562.646231	0.011006
562.859486	0.011058
563.072723	0.011230
563.285941	0.011369
563.499141	0.011475
563.712323	0.011288
563.925487	0.011682
564.138632	0.011901
564.351760	0.012014
564.564869	0.011918
564.777960	0.011802
564.991032	0.011823
565.204087	0.011624
565.417123	0.011553
565.630141	0.011769
565.843140	0.011467
566.056122	0.011346
566.269085	0.011293
566.482030	0.011369
566.694957	0.011466
566.907866	0.011608
567.120756	0.012027
567.333628	0.011861
567.546482	0.011711
567.759318	0.011706
567.972135	0.011715
568.184935	0.011791
568.397716	0.011879
568.610478	0.012048
568.823223	0.011887
569.035949	0.011592
569.248657	0.011404
569.461347	0.011468
569.674019	0.011162
569.886672	0.010864
570.099308	0.010735
570.311925	0.010683
570.524523	0.010502
570.737104	0.010448
570.949666	0.010600
571.162210	0.011082
571.374736	0.011077
571.587244	0.011423
571.799733	0.011629
572.012205	0.011849
572.224658	0.011560
572.437092	0.011281
572.649509	0.011174
572.861907	0.011220
573.074287	0.010944
573.286649	0.010944
573.498993	0.010983
573.711318	0.011049
573.923625	0.010911
574.135914	0.011258
574.348185	0.011646
574.560438	0.011703
574.772672	0.011830
574.984888	0.011814
575.197086	0.011470
575.409266	0.011300
575.621427	0.011082
575.833570	0.011035
576.045695	0.011055
576.257802	0.010519
576.469890	0.010530
576.681961	0.010134
576.894013	0.010208
577.106046	0.010415
577.318062	0.010582
577.530059	0.010463
577.742039	0.010257
577.954000	0.010049
578.165942	0.010354
578.377867	0.010374
578.589773	0.010486
578.801661	0.010355
579.013531	0.010384
579.225382	0.010336
579.437216	0.010607
579.649031	0.010695
579.860828	0.010701
580.072606	0.010983
580.284367	0.010999
580.496109	0.011203
580.707833	0.011275
580.919539	0.011490
581.131227	0.011314
581.342896	0.011274
581.554547	0.011540
581.766180	0.011948
581.977795	0.011766
582.189391	0.011646
582.400969	0.011607
582.612529	0.011782
582.824071	0.011924
583.035595	0.011998
583.247100	0.012040
583.458587	0.011781
583.670056	0.011481
583.881506	0.011322
584.092939	0.011530
584.304353	0.011571
584.515749	0.011212
584.727127	0.010887
584.938486	0.010952
585.149828	0.010960
585.361151	0.011461
585.572456	0.011556
585.783742	0.011788
585.995011	0.011787
586.206261	0.011786
586.417493	0.012108
586.628706	0.012024
586.839902	0.012207
587.051079	0.012174
587.262238	0.011665
587.473379	0.011312
587.684502	0.011048
587.895606	0.010828
588.106692	0.010986
588.317760	0.010794
588.528810	0.010923
588.739841	0.010610
588.950855	0.010915
589.161850	0.011117
589.372827	0.011595
589.583785	0.011821
589.794726	0.011851
590.005648	0.011651
590.216552	0.011882
590.427437	0.011900
590.638305	0.011986
590.849154	0.011778
591.059985	0.011764
591.270798	0.011606
591.481592	0.011563
591.692369	0.011738
591.903127	0.011652
592.113867	0.011682
592.324588	0.011723
592.535292	0.011545
592.745977	0.011542
592.956644	0.011722
593.167293	0.011720
593.377923	0.011561
593.588536	0.011463
593.799130	0.011528
594.009706	0.011812
594.220263	0.012058
594.430803	0.012389
594.641324	0.012290
594.851827	0.012051
595.062312	0.012241
595.272778	0.012647
595.483227	0.012993
595.693657	0.013043
595.904069	0.012633
596.114462	0.012330
596.324838	0.012347
596.535195	0.012574
596.745534	0.012556
596.955855	0.012470
597.166157	0.012195
597.376441	0.011797
597.586707	0.011786
597.796955	0.011836
598.007185	0.011832
598.217396	0.011807
598.427589	0.011586
598.637764	0.011771
598.847921	0.011905
599.058060	0.011808
599.268180	0.012046
599.478282	0.012218
599.688366	0.012319
599.898431	0.012511
600.108479	0.012377
600.318508	0.012547
600.528519	0.012377
600.738511	0.012206
600.948486	0.012252
601.158442	0.012242
601.368380	0.012026
601.578300	0.011998
601.788202	0.012094
601.998085	0.012265
602.207950	0.012096
602.417797	0.012334
602.627626	0.012212
602.837436	0.012169
603.047228	0.011926
603.257002	0.011916
603.466758	0.011764
603.676496	0.011637
603.886215	0.011518
604.095916	0.011855
604.305599	0.011636
604.515264	0.011835
604.724910	0.012029
604.934538	0.012436
605.144148	0.012600
605.353740	0.012908
605.563314	0.012755
605.772869	0.012927
605.982406	0.012667
606.191925	0.012844
606.401425	0.012718
606.610908	0.012970
606.820372	0.012746
607.029818	0.012444
607.239246	0.012155
607.448655	0.012243
607.658047	0.012009
607.867420	0.012033
608.076775	0.011926
608.286111	0.011856
608.495430	0.011637
608.704730	0.011598
608.914012	0.011689
609.123275	0.011925
609.332521	0.011964
609.541748	0.012283
609.750957	0.012528
609.960148	0.012532
610.169321	0.012609
610.378475	0.012594
610.587611	0.012598
610.796729	0.012956
611.005829	0.012877
611.214910	0.012830
611.423974	0.012687
611.633019	0.012660
611.842045	0.012698
612.051054	0.012870
612.260044	0.012896
612.469017	0.012952
612.677970	0.012668
612.886906	0.012655
613.095824	0.012591
613.304723	0.012521
613.513604	0.012505
613.722467	0.012447
613.931311	0.012370
614.140138	0.012237
614.348946	0.012206
614.557736	0.012227
614.766507	0.012039
614.975261	0.012076
615.183996	0.012088
615.392713	0.011901
615.601412	0.011914
615.810092	0.011662
616.018754	0.011906
616.227399	0.011768
616.436024	0.011658
616.644632	0.011678
616.853222	0.011791
617.061793	0.011942
617.270346	0.011995
617.478880	0.012032
617.687397	0.012261
617.895895	0.012405
618.104375	0.012282
618.312837	0.012484
618.521281	0.012755
618.729706	0.012831
618.938113	0.012800
619.146502	0.012938
619.354873	0.013277
619.563226	0.013468
619.771560	0.013119
619.979876	0.013335
620.188174	0.013406
620.396453	0.013516
620.604715	0.013493
620.812958	0.013435
621.021183	0.013487
621.229390	0.013099
621.437578	0.012926
621.645748	0.013183
621.853900	0.013422
622.062034	0.013139
622.270150	0.012915
622.478247	0.012785
622.686326	0.012835
622.894387	0.012909
623.102430	0.013103
623.310454	0.013208
623.518461	0.012970
623.726449	0.012755
623.934418	0.013059
624.142370	0.013210
624.350303	0.013228
624.558218	0.013259
624.766115	0.013222
624.973994	0.013119
625.181855	0.013126
625.389697	0.013325
625.597521	0.013390
625.805327	0.013431
626.013114	0.013161
626.220883	0.013190
626.428634	0.013206
626.636367	0.013233
626.844082	0.013103
627.051778	0.013053
627.259457	0.013049
627.467117	0.013376
627.674758	0.013501
627.882382	0.013689
628.089987	0.013765
628.297574	0.013729
628.505143	0.013727
628.712694	0.013945
628.920226	0.014030
629.127740	0.013954
629.335236	0.013650
629.542714	0.013410
629.750174	0.013413
629.957615	0.013655
630.165038	0.013699
630.372443	0.013592
630.579829	0.013580
630.787198	0.013495
630.994548	0.013540
631.201880	0.013580
631.409194	0.013474
631.616489	0.013539
631.823766	0.013203
632.031025	0.013221
632.238266	0.013355
632.445489	0.013522
632.652693	0.013673
632.859879	0.013763
633.067047	0.013701
633.274197	0.013753
633.481329	0.013866
633.688442	0.014204
633.895537	0.014076
634.102614	0.013799
634.309672	0.013667
634.516713	0.013307
634.723735	0.013109
634.930739	0.013077
635.137724	0.013295
635.344692	0.012965
635.551641	0.012544
635.758572	0.012699
635.965485	0.012734
636.172379	0.012872
636.379256	0.013196
636.586114	0.013414
636.792954	0.013530
636.999775	0.013367
637.206579	0.013701
637.413364	0.014025
637.620131	0.013899
637.826880	0.014022
638.033610	0.013759
638.240323	0.013571
638.447017	0.013545
638.653692	0.013622
638.860350	0.013728
639.066990	0.013551
639.273611	0.013319
639.480214	0.013375
639.686798	0.013380
639.893365	0.013371
640.099913	0.013501
640.306443	0.013501
640.512955	0.013564
640.719449	0.013587
640.925924	0.013712
641.132381	0.013896
641.338820	0.013821
641.545241	0.013786
641.751644	0.013829
641.958028	0.013772
642.164394	0.013733
642.370742	0.013435
642.577071	0.013413
642.783383	0.013430
642.989676	0.013444
643.195951	0.013524
643.402207	0.013442
643.608446	0.013575
643.814666	0.013545
644.020868	0.013527
644.227052	0.013753
644.433218	0.013745
644.639365	0.013580
644.845494	0.013521
645.051605	0.013509
645.257698	0.013781
645.463772	0.013852
645.669828	0.013992
645.875866	0.013986
646.081886	0.014023
646.287888	0.014135
646.493871	0.014289
646.699836	0.014354
646.905783	0.014404
647.111712	0.014395
647.317622	0.014295
647.523514	0.014492
647.729388	0.014524
647.935244	0.014633
648.141082	0.014539
648.346901	0.014502
648.552702	0.014449
648.758485	0.014445
648.964250	0.014266
649.169996	0.014242
649.375724	0.013804
649.581434	0.013854
649.787126	0.013577
649.992800	0.013498
650.198455	0.013299
650.404092	0.013220
650.609711	0.013308
650.815311	0.013521
651.020894	0.013726
651.226458	0.013949
651.432004	0.013899
651.637532	0.014028
651.843041	0.014020
652.048532	0.014168
652.254006	0.014318
652.459460	0.014370
652.664897	0.014229
652.870315	0.014075
653.075716	0.014093
653.281097	0.014112
653.486461	0.014126
653.691807	0.014103
653.897134	0.014109
654.102443	0.014064
654.307734	0.014070
654.513006	0.014215
654.718261	0.014423
654.923497	0.014382
655.128715	0.014497
655.333915	0.014669
655.539096	0.014808
655.744259	0.014850
655.949404	0.014987
656.154531	0.014939
656.359640	0.014757
656.564730	0.014693
656.769802	0.014685
656.974856	0.014535
657.179892	0.014384
657.384909	0.014445
657.589908	0.014451
657.794889	0.014487
657.999852	0.014507
658.204797	0.014551
658.409723	0.014497
658.614631	0.014636
658.819521	0.014797
659.024393	0.014812
659.229246	0.014717
659.434081	0.014810
659.638898	0.014670
659.843697	0.014550
660.048478	0.014635
660.253240	0.014541
660.457984	0.014535
660.662710	0.014408
660.867417	0.014108
661.072107	0.013963
661.276778	0.013957
661.481431	0.013983
661.686066	0.014019
661.890682	0.013941
662.095281	0.014027
662.299861	0.013923
662.504422	0.013993
662.708966	0.014151
662.913491	0.014225
663.117999	0.014077
663.322488	0.014025
663.526958	0.014048
663.731411	0.014065
663.935845	0.013918
664.140261	0.013889
664.344659	0.013863
664.549038	0.014199
664.753400	0.014277
664.957743	0.014572
665.162068	0.014550
665.366375	0.014542
665.570663	0.014782
665.774933	0.014919
665.979185	0.014856
666.183419	0.014830
666.387635	0.014663
666.591832	0.014711
666.796011	0.014354
667.000172	0.014382
667.204315	0.014606
667.408439	0.014417
667.612545	0.014538
667.816634	0.014608
668.020703	0.014825
668.224755	0.014836
668.428788	0.014894
668.632803	0.015082
668.836800	0.015204
669.040779	0.015059
669.244739	0.015164
669.448681	0.015192
669.652605	0.015342
669.856511	0.015154
670.060399	0.015345
670.264268	0.015581
670.468119	0.015658
670.671952	0.015647
670.875767	0.015759
671.079563	0.015911
671.283341	0.015928
671.487101	0.016154
671.690843	0.016259
671.894567	0.016227
672.098272	0.016192
672.301959	0.016340
672.505628	0.016484
672.709278	0.016708
672.912911	0.016515
673.116525	0.016527
673.320121	0.016367
673.523699	0.016335
673.727258	0.016270
673.930799	0.016111
674.134322	0.015877
674.337827	0.015747
674.541314	0.015344
674.744782	0.015366
674.948232	0.015269
675.151664	0.015198
675.355078	0.015290
675.558474	0.015368
675.761851	0.015343
675.965210	0.015489
676.168551	0.015346
676.371873	0.015445
676.575178	0.015544
676.778464	0.015627
676.981732	0.015569
677.184981	0.015527
677.388213	0.015478
677.591426	0.015568
677.794621	0.015623
677.997798	0.015905
678.200956	0.015996
678.404097	0.016034
678.607219	0.015976
678.810323	0.016055
679.013408	0.016150
679.216476	0.016180
679.419525	0.016202
679.622556	0.016173
679.825569	0.016117
680.028563	0.016058
680.231540	0.015921
680.434498	0.016012
680.637438	0.016013
680.840359	0.015920
681.043263	0.016025
681.246148	0.016093
681.449015	0.016029
681.651864	0.016019
681.854694	0.016163
682.057506	0.016266
682.260301	0.016245
682.463076	0.016288
682.665834	0.016425
682.868573	0.016290
683.071295	0.016260
683.273998	0.016360
683.476682	0.016453
683.679349	0.016366
683.881997	0.016147
684.084627	0.016175
684.287239	0.016162
684.489833	0.016230
684.692408	0.016198
684.894965	0.016110
685.097504	0.016034
685.300025	0.016015
685.502527	0.016057
685.705012	0.016210
685.907478	0.016086
686.109925	0.016056
686.312355	0.015873
686.514766	0.015995
686.717159	0.016018
686.919534	0.016025
687.121891	0.015953
687.324230	0.015965
687.526550	0.015869
687.728852	0.015977
687.931136	0.015981
688.133401	0.016017
688.335649	0.015972
688.537878	0.016026
688.740089	0.016085
688.942281	0.016045
689.144456	0.016071
689.346612	0.016186
689.548750	0.016210
689.750870	0.016243
689.952971	0.016221
690.155055	0.016130
690.357120	0.016150
690.559167	0.016198
690.761195	0.016224
690.963206	0.016077
691.165198	0.016124
691.367172	0.015923
691.569128	0.015879
691.771065	0.015833
691.972984	0.015823
692.174885	0.015861
692.376768	0.015855
692.578633	0.015790
692.780479	0.015851
692.982308	0.015896
693.184118	0.016075
693.385909	0.016116
693.587683	0.016136
693.789438	0.016227
693.991175	0.016181
694.192894	0.016202
694.394595	0.016483
694.596277	0.016509
694.797941	0.016444
694.999587	0.016533
695.201215	0.016691
695.402824	0.016825
695.604416	0.017082
695.805989	0.017075
696.007543	0.017076
696.209080	0.016871
696.410598	0.016804
696.612099	0.016829
696.813580	0.016860
697.015044	0.016928
697.216490	0.017059
697.417917	0.016785
697.619326	0.016848
697.820717	0.016810
698.022089	0.016936
698.223444	0.017093
698.424780	0.017296
698.626098	0.017230
698.827397	0.017231
699.028679	0.017100
699.229942	0.017114
699.431187	0.017051
699.632414	0.016980
699.833622	0.016876
700.034813	0.016978
700.235985	0.016745
700.437139	0.016732
700.638274	0.016632
700.839392	0.016714
701.040491	0.016802
701.241572	0.016905
701.442635	0.016972
701.643679	0.017022
701.844706	0.016924
702.045714	0.017018
702.246704	0.017025
702.447675	0.016988
702.648629	0.016796
702.849564	0.016618
703.050481	0.016371
703.251380	0.016241
703.452260	0.016120
703.653122	0.016031
703.853966	0.015924
704.054792	0.015764
704.255600	0.015777
704.456389	0.015732
704.657160	0.015777
704.857913	0.015896
705.058648	0.016093
705.259365	0.016222
705.460063	0.016143
705.660743	0.016276
705.861405	0.016411
706.062048	0.016344
706.262674	0.016580
706.463281	0.016666
706.663870	0.016803
706.864441	0.016807
707.064993	0.016837
707.265527	0.016953
707.466043	0.016961
707.666541	0.017117
707.867021	0.017290
708.067482	0.017163
708.267925	0.017181
708.468350	0.017241
708.668757	0.017181
708.869145	0.017182
709.069516	0.017193
709.269868	0.017080
709.470201	0.016998
709.670517	0.016905
709.870814	0.016944
710.071093	0.016903
710.271354	0.016627
710.471597	0.016525
710.671821	0.016433
710.872028	0.016213
711.072216	0.016264
711.272385	0.016158
711.472537	0.016019
711.672670	0.015993
711.872785	0.016089
712.072882	0.016190
712.272961	0.016288
712.473021	0.016457
712.673063	0.016704
712.873087	0.016737
713.073093	0.016700
713.273081	0.016746
713.473050	0.016641
713.673001	0.016371
713.872934	0.016383
714.072849	0.016227
714.272745	0.016119
714.472623	0.016002
714.672483	0.015961
714.872325	0.016039
715.072148	0.016136
715.271954	0.016221
715.471741	0.016198
715.671509	0.016181
715.871260	0.016351
716.070992	0.016274
716.270707	0.016236
716.470403	0.016215
716.670080	0.016263
716.869740	0.016290
717.069381	0.016342
717.269004	0.016410
717.468609	0.016426
717.668195	0.016468
717.867764	0.016597
718.067314	0.016783
718.266846	0.016764
718.466360	0.016753
718.665855	0.016674
718.865332	0.016612
719.064791	0.016748
719.264232	0.016746
719.463655	0.016716
719.663059	0.016680
719.862445	0.016601
720.061813	0.016712
720.261163	0.016759
720.460494	0.016949
720.659807	0.017020
720.859102	0.017055
721.058379	0.017085
721.257638	0.017073
721.456878	0.016964
721.656100	0.016900
721.855304	0.016946
722.054490	0.016906
722.253657	0.016585
722.452806	0.016590
722.651937	0.016696
722.851050	0.016574
723.050145	0.016581
723.249221	0.016569
723.448279	0.016571
723.647319	0.016294
723.846340	0.016337
724.045344	0.016551
724.244329	0.016395
724.443296	0.016310
724.642245	0.016469
724.841175	0.016377
725.040088	0.016494
725.238982	0.016650
725.437857	0.016685
725.636715	0.016500
725.835554	0.016279
726.034376	0.016256
726.233179	0.016147
726.431963	0.015800
726.630730	0.015702
726.829478	0.015735
727.028208	0.015603
727.226920	0.015678
727.425614	0.015696
727.624289	0.015735
727.822946	0.015885
728.021585	0.015826
728.220206	0.016058
728.418808	0.016234
728.617392	0.016020
728.815958	0.016171
729.014506	0.016211
729.213036	0.016253
729.411547	0.016490
729.610040	0.016491
729.808515	0.016569
730.006972	0.016540
730.205410	0.016580
730.403831	0.016777
730.602233	0.016580
730.800616	0.016635
730.998982	0.016630
731.197329	0.016354
731.395658	0.016287
731.593969	0.016251
731.792262	0.016194
731.990536	0.016044
732.188793	0.015991
732.387031	0.016084
732.585250	0.016037
732.783452	0.016082
732.981635	0.016138
733.179800	0.016226
733.377947	0.016259
733.576076	0.016413
733.774186	0.016393
733.972278	0.016294
734.170352	0.016018
734.368408	0.015995
734.566446	0.015848
734.764465	0.015868
734.962466	0.015752
735.160449	0.015781
735.358413	0.015705
735.556360	0.015728
735.754288	0.015713
735.952198	0.015888
736.150090	0.015845
736.347963	0.016039
736.545818	0.015959
736.743655	0.015918
736.941474	0.015909
737.139275	0.015936
737.337057	0.016069
737.534821	0.016151
737.732567	0.016295
737.930295	0.016145
738.128005	0.015983
738.325696	0.015965
738.523369	0.016035
738.721024	0.015893
738.918660	0.015889
739.116279	0.015794
739.313879	0.015652
739.511461	0.015523
739.709024	0.015650
739.906570	0.015546
740.104097	0.015717
740.301606	0.015639
740.499097	0.015690
740.696569	0.015615
740.894024	0.015599
741.091460	0.015718
741.288878	0.015826
741.486277	0.015878
741.683659	0.016027
741.881022	0.015918
742.078367	0.015958
742.275694	0.015760
742.473002	0.015806
742.670293	0.015888
742.867565	0.015904
743.064819	0.015934
743.262054	0.015914
743.459272	0.015908
743.656471	0.015892
743.853652	0.015929
744.050815	0.016254
744.247959	0.016336
744.445085	0.016296
744.642194	0.016376
744.839283	0.016285
745.036355	0.016171
745.233408	0.016309
745.430444	0.016497
745.627461	0.016410
745.824459	0.016444
746.021440	0.016232
746.218402	0.016213
746.415346	0.016211
746.612272	0.016157
746.809180	0.016323
747.006069	0.016226
747.202940	0.016138
747.399793	0.016280
747.596628	0.016219
747.793444	0.016341
747.990243	0.016387
748.187023	0.016230
748.383784	0.016228
748.580528	0.016275
748.777253	0.016277
748.973960	0.016328
749.170649	0.016255
749.367320	0.016240
749.563973	0.016456
749.760607	0.016584
749.957223	0.016694
750.153821	0.017031
750.350400	0.017181
750.546962	0.017244
750.743505	0.017334
750.940030	0.017641
751.136536	0.017722
751.333025	0.017538
751.529495	0.017518
751.725947	0.017571
751.922381	0.017322
752.118796	0.017110
752.315194	0.017162
752.511573	0.016910
752.707934	0.016553
752.904276	0.016722
753.100601	0.016643
753.296907	0.016342
753.493195	0.016269
753.689465	0.016189
753.885716	0.016172
754.081949	0.016024
754.278164	0.016202
754.474361	0.016382
754.670540	0.016021
754.866700	0.016155
755.062843	0.016440
755.258967	0.016287
755.455072	0.016269
755.651160	0.016252
755.847229	0.016311
756.043280	0.016162
756.239313	0.016109
756.435328	0.016230
756.631324	0.016059
756.827302	0.015968
757.023262	0.016204
757.219204	0.016298
757.415127	0.016204
757.611033	0.016248
757.806920	0.016317
758.002788	0.016465
758.198639	0.016538
758.394471	0.016847
758.590286	0.016844
758.786081	0.016781
758.981859	0.016513
759.177619	0.016698
759.373360	0.016557
759.569083	0.016644
759.764788	0.016508
759.960474	0.016525
760.156143	0.016292
760.351793	0.016275
760.547425	0.016317
760.743038	0.016412
760.938634	0.016289
761.134211	0.016276
761.329770	0.016169
761.525311	0.016300
761.720833	0.016201
761.916338	0.016098
762.111824	0.016110
762.307292	0.016078
762.502741	0.016276
762.698173	0.016433
762.893586	0.016595
763.088981	0.016543
763.284358	0.016482
763.479716	0.016397
763.675057	0.016462
763.870379	0.016406
764.065683	0.016241
764.260968	0.015999
764.456236	0.015756
764.651485	0.015588
764.846716	0.015732
765.041929	0.015632
765.237123	0.015659
765.432299	0.015680
765.627457	0.015712
765.822597	0.015973
766.017719	0.016148
766.212822	0.016303
766.407907	0.016322
766.602974	0.016120
766.798023	0.016132
766.993054	0.016000
767.188066	0.016078
767.383060	0.016234
767.578036	0.016244
767.772993	0.016290
767.967933	0.016088
768.162854	0.016092
768.357757	0.016317
768.552642	0.016538
768.747508	0.016743
768.942356	0.016935
769.137186	0.016957
769.331998	0.016929
769.526792	0.016995
769.721567	0.017167
769.916324	0.017245
770.111063	0.017326
770.305784	0.016920
770.500486	0.016775
770.695171	0.016663
770.889837	0.016689
771.084484	0.016700
771.279114	0.016647
771.473725	0.016758
771.668318	0.016785
771.862893	0.016703
772.057450	0.016997
772.251988	0.017237
772.446509	0.017298
772.641011	0.017302
772.835494	0.017363
773.029960	0.017371
773.224407	0.017269
773.418836	0.017233
773.613247	0.017267
773.807640	0.017098
774.002014	0.017099
774.196370	0.017158
774.390708	0.016920
774.585028	0.016863
774.779330	0.016807
774.973613	0.016775
775.167878	0.016715
775.362125	0.016612
775.556354	0.016773
775.750564	0.016802
775.944756	0.016644
776.138930	0.016866
776.333086	0.016838
776.527223	0.016932
776.721343	0.017040
776.915444	0.017168
777.109526	0.017235
777.303591	0.017202
777.497637	0.017213
777.691666	0.017204
777.885676	0.017110
778.079667	0.017052
778.273641	0.016905
778.467596	0.017060
778.661533	0.017116
778.855452	0.017167
779.049352	0.017106
779.243235	0.017022
779.437099	0.017106
779.630945	0.017094
779.824773	0.016961
780.018582	0.017061
780.212373	0.016981
780.406146	0.017142
780.599901	0.017084
780.793638	0.017295
780.987356	0.017402
781.181056	0.017511
781.374738	0.017644
781.568402	0.017910
781.762047	0.018034
781.955674	0.017932
782.149283	0.017782
782.342874	0.017956
782.536447	0.017791
782.730001	0.017692
782.923537	0.017565
783.117055	0.017437
783.310555	0.017426
783.504036	0.017424
783.697499	0.017531
783.890944	0.017549
784.084371	0.017501
784.277780	0.017455
784.471170	0.017420
784.664542	0.017462
784.857896	0.017506
785.051231	0.017538
785.244549	0.017418
785.437848	0.017497
785.631129	0.017561
785.824392	0.017415
786.017636	0.017579
786.210863	0.017753
786.404071	0.017704
786.597260	0.017775
786.790432	0.017535
786.983585	0.017667
787.176721	0.017523
787.369838	0.017476
787.562936	0.017613
787.756017	0.017615
787.949079	0.017596
788.142123	0.017614
788.335149	0.017528
788.528156	0.017450
788.721146	0.017357
788.914117	0.017393
789.107070	0.017333
789.300005	0.017151
789.492921	0.017123
789.685819	0.017030
789.878699	0.017049
790.071561	0.016977
790.264405	0.017215
790.457230	0.017168
790.650037	0.017178
790.842826	0.017200
791.035597	0.017312
791.228349	0.017341
791.421084	0.017591
791.613800	0.017649
791.806497	0.017870
791.999177	0.017993
792.191838	0.018021
792.384481	0.018007
792.577106	0.017996
792.769713	0.017925
792.962301	0.017833
793.154871	0.017687
793.347423	0.017768
793.539957	0.017645
793.732473	0.017621
793.924970	0.017766
794.117449	0.017766
794.309910	0.017897
794.502353	0.018048
794.694777	0.018179
794.887183	0.018058
795.079571	0.017858
795.271941	0.017983
795.464293	0.018134
795.656626	0.018358
795.848941	0.018345
796.041238	0.018334
796.233516	0.018302
796.425777	0.018105
796.618019	0.018272
796.810243	0.018365
797.002449	0.018396
797.194636	0.018231
797.386805	0.017942
797.578956	0.018011
797.771089	0.017875
797.963204	0.017730
798.155300	0.017805
798.347378	0.017828
798.539438	0.017796
798.731480	0.017539
798.923503	0.017464
799.115509	0.017453
799.307496	0.017387
799.499465	0.017402
799.691415	0.017632
799.883348	0.017609
800.075262	0.017419
800.267158	0.017374
800.459035	0.017552
800.650895	0.017700
800.842736	0.017816
801.034559	0.017809
801.226364	0.017904
801.418150	0.017808
801.609919	0.018113
801.801669	0.018217
801.993401	0.018489
802.185114	0.018437
802.376810	0.018276
802.568487	0.018116
802.760146	0.018090
802.951787	0.017919
803.143409	0.017921
803.335014	0.017635
803.526600	0.017439
803.718168	0.016945
803.909717	0.016984
804.101249	0.016928
804.292762	0.017057
804.484257	0.017058
804.675734	0.017077
804.867192	0.017047
805.058632	0.017088
805.250054	0.017288
805.441458	0.017421
805.632844	0.017300
805.824211	0.017351
806.015561	0.017205
806.206891	0.017133
806.398204	0.017020
806.589499	0.017146
806.780775	0.017081
806.972033	0.016989
807.163273	0.016944
807.354495	0.016841
807.545698	0.016842
807.736883	0.016780
807.928050	0.016890
808.119199	0.017135
808.310329	0.017276
808.501441	0.017361
808.692535	0.017330
808.883611	0.017413
809.074669	0.017730
809.265708	0.017736
809.456729	0.017912
809.647732	0.017836
809.838717	0.017468
810.029683	0.016896
810.220632	0.016823
810.411562	0.016776
810.602474	0.016869
810.793367	0.016747
810.984242	0.016806
811.175100	0.016781
811.365938	0.016913
811.556759	0.017299
811.747562	0.017415
811.938346	0.017466
812.129112	0.017515
812.319860	0.017265
812.510589	0.017035
812.701300	0.017004
812.891994	0.017006
813.082668	0.017055
813.273325	0.017026
813.463964	0.017331
813.654584	0.017206
813.845186	0.017041
814.035769	0.017270
814.226335	0.017447
814.416882	0.017520
814.607411	0.017480
814.797922	0.017386
814.988415	0.017272
815.178889	0.016954
815.369345	0.017053
815.559783	0.017327
815.750203	0.017214
815.940605	0.017215
816.130988	0.017162
816.321353	0.017097
816.511700	0.017077
816.702028	0.017014
816.892339	0.017115
817.082631	0.017188
817.272905	0.016977
817.463161	0.017068
817.653398	0.017117
817.843617	0.017122
818.033819	0.017107
818.224001	0.017150
818.414166	0.017359
818.604312	0.017418
818.794440	0.017332
818.984550	0.017645
819.174642	0.017721
819.364716	0.017496
819.554771	0.017557
819.744808	0.017707
819.934827	0.017669
820.124827	0.017638
820.314810	0.017711
820.504774	0.017872
820.694720	0.017526
820.884647	0.017471
821.074557	0.017578
821.264448	0.017596
821.454321	0.017457
821.644176	0.017700
821.834012	0.017677
822.023831	0.017698
822.213631	0.017437
822.403413	0.017603
822.593176	0.017608
822.782922	0.017612
822.972649	0.017482
823.162358	0.017556
823.352049	0.017182
823.541721	0.017105
823.731376	0.017055
823.921012	0.017114
824.110629	0.017077
824.300229	0.017009
824.489811	0.016877
824.679374	0.016743
824.868919	0.016536
825.058445	0.016560
825.247954	0.016530
825.437444	0.016481
825.626916	0.016563
825.816370	0.016430
826.005806	0.016338
826.195223	0.016410
826.384622	0.016474
826.574003	0.016486
826.763366	0.016530
826.952711	0.016777
827.142037	0.016924
827.331345	0.016756
827.520635	0.017001
827.709906	0.017301
827.899160	0.017310
828.088395	0.017521
828.277612	0.017681
828.466810	0.017629
828.655991	0.017321
828.845153	0.017303
829.034297	0.017360
829.223423	0.017270
829.412531	0.017362
829.601620	0.017666
829.790691	0.017510
829.979744	0.017604
830.168779	0.017851
830.357795	0.017986
830.546793	0.018049
830.735773	0.018200
830.924735	0.018390
831.113679	0.018194
831.302604	0.018196
831.491511	0.018515
831.680400	0.018605
831.869271	0.018513
832.058123	0.018550
832.246957	0.018458
832.435773	0.018692
832.624571	0.018765
832.813351	0.018889
833.002112	0.018823
833.190855	0.018666
833.379580	0.018502
833.568287	0.018480
833.756975	0.018557
833.945645	0.018612
834.134297	0.018436
834.322931	0.018535
834.511547	0.018553
834.700144	0.018489
834.888723	0.018461
835.077284	0.018487
835.265826	0.018258
835.454351	0.017967
835.642857	0.017951
835.831345	0.017578
836.019815	0.017155
836.208266	0.016649
836.396699	0.016442
836.585114	0.016177
836.773511	0.016120
836.961890	0.016439
837.150250	0.016594
837.338592	0.016585
837.526916	0.017010
837.715222	0.017142
837.903510	0.017471
838.091779	0.017411
838.280030	0.017558
838.468263	0.017762
838.656477	0.017517
838.844674	0.017519
839.032852	0.017668
839.221012	0.017601
839.409153	0.017837
839.597277	0.017855
839.785382	0.018118
839.973469	0.018185
840.161538	0.018123
840.349589	0.018568
840.537621	0.018566
840.725635	0.018401
840.913631	0.018257
841.101609	0.018145
841.289568	0.018224
841.477509	0.018169
841.665432	0.018244
841.853337	0.018257
842.041224	0.018271
842.229092	0.018270
842.416942	0.018292
842.604774	0.018407
842.792588	0.018422
842.980383	0.018605
843.168160	0.018738
843.355919	0.018885
843.543660	0.018925
843.731382	0.018871
843.919087	0.019002
844.106773	0.019085
844.294441	0.019283
844.482090	0.019316
844.669722	0.019196
844.857335	0.019475
845.044930	0.019370
845.232507	0.019297
845.420065	0.019208
845.607605	0.019477
845.795127	0.019501
845.982631	0.019622
846.170117	0.019587
846.357584	0.019537
846.545033	0.019338
846.732464	0.019414
846.919877	0.019457
847.107272	0.019534
847.294648	0.019568
847.482006	0.019690
847.669346	0.019575
847.856667	0.019723
848.043971	0.019917
848.231256	0.019798
848.418523	0.019827
848.605771	0.019968
848.793002	0.019928
848.980214	0.019729
849.167408	0.019589
849.354584	0.019596
849.541742	0.019500
849.728881	0.019499
849.916002	0.019772
850.103105	0.019910
850.290190	0.020003
850.477256	0.020209
850.664304	0.020446
850.851334	0.020613
851.038346	0.020656
851.225340	0.020919
851.412315	0.020952
851.599272	0.020862
851.786211	0.020687
851.973132	0.020649
852.160034	0.020465
852.346918	0.020441
852.533784	0.020391
852.720632	0.020335
852.907462	0.020193
853.094273	0.019969
853.281066	0.020272
853.467841	0.020554
853.654598	0.020558
853.841336	0.020777
854.028056	0.020916
854.214758	0.020885
854.401442	0.020724
854.588107	0.020954
854.774755	0.021380
854.961384	0.021452
855.147995	0.021357
855.334587	0.021644
855.521162	0.021993
855.707718	0.021906
855.894256	0.022277
856.080775	0.022785
856.267277	0.022728
856.453760	0.022797
856.640225	0.022633
856.826672	0.022761
857.013101	0.022696
857.199511	0.022275
857.385903	0.022438
857.572277	0.022178
857.758633	0.021919
857.944970	0.021810
858.131290	0.021607
858.317591	0.021527
858.503873	0.021448
858.690138	0.021220
858.876384	0.021383
859.062612	0.020931
859.248822	0.020932
859.435014	0.021250
859.621188	0.021112
859.807343	0.020938
859.993480	0.021063
860.179599	0.020878
860.365699	0.021048
860.551781	0.021027
860.737846	0.021382
860.923891	0.021417
861.109919	0.021064
861.295929	0.021198
861.481920	0.021296
861.667893	0.021100
861.853848	0.021101
862.039784	0.021123
862.225702	0.020846
862.411603	0.020782
862.597484	0.020837
862.783348	0.021014
862.969193	0.021169
863.155021	0.021383
863.340830	0.021699
863.526620	0.021721
863.712393	0.021790
863.898147	0.022012
864.083883	0.021943
864.269601	0.022196
864.455301	0.022266
864.640982	0.022307
864.826645	0.022379
865.012290	0.022551
865.197917	0.022982
865.383526	0.022923
865.569116	0.023095
865.754688	0.023271
865.940242	0.023081
866.125777	0.023128
866.311295	0.023313
866.496794	0.023503
866.682275	0.023282
866.867737	0.023118
867.053182	0.023269
867.238608	0.023377
867.424016	0.023386
867.609406	0.023437
867.794778	0.023466
867.980131	0.023152
868.165466	0.023031
868.350783	0.023010
868.536082	0.023003
868.721362	0.023015
868.906625	0.022875
869.091869	0.022906
869.277094	0.022814
869.462302	0.022836
869.647491	0.022618
869.832662	0.022425
870.017815	0.022615
870.202950	0.022693
870.388066	0.022667
870.573165	0.022673
870.758245	0.022758
870.943306	0.022770
871.128350	0.022585
871.313375	0.022785
871.498382	0.022783
871.683371	0.022720
871.868342	0.022594
872.053294	0.022514
872.238229	0.022392
872.423144	0.022272
872.608042	0.022392
872.792922	0.022473
872.977783	0.022535
873.162626	0.022635
873.347451	0.022702
873.532258	0.023016
873.717046	0.023241
873.901816	0.023497
874.086568	0.023277
874.271302	0.023051
874.456017	0.023129
874.640715	0.023160
874.825394	0.023151
875.010055	0.023005
875.194697	0.022527
875.379322	0.022590
875.563928	0.022551
875.748516	0.023069
875.933085	0.023529
876.117637	0.023544
876.302170	0.024002
876.486685	0.024004
876.671182	0.023930
876.855661	0.024318
877.040121	0.024208
877.224563	0.023964
877.408987	0.023755
877.593393	0.023433
877.777780	0.023453
877.962150	0.023144
878.146501	0.023607
878.330833	0.023751
878.515148	0.023594
878.699444	0.023498
878.883722	0.023908
879.067982	0.024087
879.252224	0.024382
879.436447	0.024430
879.620653	0.024690
879.804840	0.024479
879.989008	0.024538
880.173159	0.024720
880.357291	0.024862
880.541405	0.024531
880.725501	0.024508
880.909579	0.024463
881.093638	0.024550
881.277680	0.024145
881.461703	0.023913
881.645707	0.023781
881.829694	0.023736
882.013662	0.023511
882.197612	0.023362
882.381544	0.023241
882.565458	0.022966
882.749353	0.022891
882.933230	0.022996
883.117089	0.022868
883.300930	0.022916
883.484753	0.022787
883.668557	0.023005
883.852343	0.023234
884.036111	0.022891
884.219861	0.023036
884.403592	0.023081
884.587305	0.023166
884.771000	0.023357
884.954677	0.023253
885.138335	0.023415
885.321976	0.023226
885.505598	0.023140
885.689201	0.023438
885.872787	0.023330
886.056354	0.023041
886.239904	0.023288
886.423434	0.023151
886.606947	0.023265
886.790442	0.023108
886.973918	0.023134
887.157376	0.023242
887.340816	0.023079
887.524237	0.022887
887.707641	0.022821
887.891026	0.022324
888.074393	0.022566
888.257741	0.022469
888.441072	0.022244
888.624384	0.022161
888.807678	0.022046
888.990954	0.021724
889.174211	0.021510
889.357451	0.021341
889.540672	0.021359
889.723875	0.021167
889.907059	0.020958
890.090226	0.021275
890.273374	0.021238
890.456504	0.021141
890.639616	0.021457
890.822709	0.022090
891.005785	0.022213
891.188842	0.022069
891.371881	0.021931
891.554901	0.021870
891.737904	0.021520
891.920888	0.021740
892.103854	0.021948
892.286802	0.021851
892.469731	0.021723
892.652643	0.021592
892.835536	0.021682
893.018410	0.021707
893.201267	0.021734
893.384106	0.021712
893.566926	0.021451
893.749728	0.021249
893.932511	0.021520
894.115277	0.021373
894.298024	0.021816
894.480753	0.022141
894.663464	0.022338
894.846157	0.022455
895.028831	0.022419
895.211487	0.022434
895.394125	0.022657
895.576745	0.022462
895.759346	0.022478
895.941930	0.022468
896.124495	0.022267
896.307041	0.022302
896.489570	0.022155
896.672080	0.022466
896.854573	0.022566
897.037046	0.022481
897.219502	0.022685
897.401940	0.022815
897.584359	0.022814
897.766760	0.022494
897.949143	0.022230
898.131507	0.022556
898.313854	0.022489
898.496182	0.022412
898.678492	0.022406
898.860783	0.022125
899.043057	0.022086
899.225312	0.021749
899.407549	0.021945
899.589768	0.021900
899.771968	0.021807
899.954151	0.021925
900.136315	0.021666
900.318461	0.021486
900.500588	0.021442
900.682698	0.021427
900.864789	0.021523
901.046862	0.021445
901.228917	0.021390
901.410953	0.021230
901.592971	0.020871
901.774972	0.020857
901.956953	0.020768
902.138917	0.020694
902.320862	0.020387
902.502790	0.020083
902.684699	0.020046
902.866589	0.020130
903.048462	0.020282
903.230316	0.020385
903.412152	0.020597
903.593970	0.020716
903.775770	0.020803
903.957551	0.020845
904.139314	0.021274
904.321059	0.021398
904.502786	0.021666
904.684494	0.021668
904.866185	0.021822
905.047857	0.021619
905.229510	0.021484
905.411146	0.021570
905.592763	0.021662
905.774363	0.021471
905.955943	0.021297
906.137506	0.021025
906.319051	0.020657
906.500577	0.020390
906.682085	0.020422
906.863575	0.020598
907.045046	0.020368
907.226500	0.020301
907.407935	0.020098
907.589352	0.020210
907.770750	0.020026
907.952131	0.020482
908.133493	0.020644
908.314837	0.020723
908.496163	0.020670
908.677470	0.020593
908.858760	0.020776
909.040031	0.021072
909.221284	0.020872
909.402518	0.020941
909.583735	0.020544
909.764933	0.020488
909.946113	0.020542
910.127275	0.020466
910.308418	0.020539
910.489544	0.020189
910.670651	0.019737
910.851740	0.019764
911.032810	0.019475
911.213863	0.019624
911.394897	0.019394
911.575913	0.019361
911.756911	0.019265
911.937890	0.018938
912.118851	0.018797
912.299794	0.018697
912.480719	0.018623
912.661626	0.018502
912.842514	0.018183
913.023384	0.017979
913.204236	0.018075
913.385070	0.017765
913.565886	0.017764
913.746683	0.017845
913.927462	0.017791
914.108223	0.017842
914.288965	0.017764
914.469690	0.017573
914.650396	0.017810
914.831084	0.017396
915.011754	0.017229
915.192405	0.017230
915.373038	0.016828
915.553653	0.016949
915.734250	0.017056
915.914829	0.017012
916.095389	0.016794
916.275931	0.016429
916.456455	0.016327
916.636961	0.016446
916.817448	0.016484
916.997917	0.016274
917.178368	0.016330
917.358801	0.015862
917.539216	0.016179
917.719612	0.016799
917.899990	0.017027
918.080350	0.016329
918.260692	0.015828
918.441015	0.015595
918.621320	0.015828
918.801607	0.015316
918.981876	0.015101
919.162127	0.014505
919.342359	0.013665
919.522573	0.013136
919.702769	0.013467
919.882947	0.013853
920.063106	0.013869
920.243247	0.013459
920.423370	0.013213
920.603475	0.012645
920.783562	0.012805
920.963630	0.013441
921.143680	0.013646
921.323712	0.013452
921.503725	0.013247
921.683721	0.013190
921.863698	0.013608
922.043657	0.013773
922.223598	0.014241
922.403520	0.013850
922.583424	0.013417
922.763311	0.012984
922.943178	0.013079
923.123028	0.012903
923.302859	0.012422
923.482673	0.012324
923.662467	0.012424
923.842244	0.012312
924.022003	0.012696
924.201743	0.012101
924.381465	0.011781
924.561169	0.011826
924.740854	0.011717
924.920522	0.011728
925.100171	0.011168
925.279802	0.011159
925.459414	0.011171
925.639009	0.010695
925.818585	0.010835
925.998143	0.010871
926.177683	0.010923
926.357205	0.010884
926.536708	0.010418
926.716193	0.010469
926.895660	0.010482
927.075109	0.010066
927.254539	0.010115
927.433951	0.009618
927.613345	0.009673
927.792721	0.009115
927.972079	0.008616
928.151418	0.008953
928.330739	0.008617
928.510042	0.007778
928.689327	0.008012
928.868593	0.007973
929.047841	0.007879
929.227071	0.007821
929.406283	0.007516
929.585476	0.007292
929.764652	0.007050
929.943809	0.007120
930.122948	0.006819
930.302068	0.006495
930.481171	0.006255
930.660255	0.006195
930.839321	0.005949
931.018369	0.005769
931.197398	0.005938
931.376409	0.005445
931.555402	0.004943
931.734377	0.005736
931.913334	0.005545
932.092272	0.005338
932.271192	0.005668
932.450094	0.005461
932.628978	0.005439
932.807844	0.005487
932.986691	0.005924
933.165520	0.005958
933.344331	0.004735
933.523123	0.004385
933.701898	0.003746
933.880654	0.003748
934.059392	0.003546
934.238111	0.003196
934.416813	0.002742
934.595496	0.002221
934.774161	0.002450
934.952808	0.002631
935.131437	0.002800
935.310047	0.003027
935.488639	0.002268
935.667213	0.002503
935.845769	0.002953
936.024306	0.003266
936.202825	0.003582
936.381326	0.003516
936.559809	0.003721
936.738274	0.003315
936.916720	0.003720
937.095148	0.004100
937.273558	0.003578
937.451950	0.002671
937.630323	0.002060
937.808678	0.001490
937.987015	0.000829
938.165334	0.000219
938.343635	-0.000351
938.521917	-0.000893
938.700181	-0.001760
938.878427	-0.001499
939.056655	-0.000698
939.234864	-0.000625
939.413055	-0.000261
939.591228	-0.000444
939.769383	-0.000370
939.947519	-0.000674
940.125638	-0.001053
940.303738	-0.001108
940.481820	-0.002208
940.659883	-0.002644
940.837929	-0.003327
941.015956	-0.004489
941.193965	-0.004237
941.371955	-0.004598
941.549928	-0.004072
941.727882	-0.004498
941.905818	-0.003906
942.083736	-0.002999
942.261636	-0.004141
942.439517	-0.003413
942.617380	-0.002938
942.795225	-0.003054
942.973052	-0.003518
943.150860	-0.003994
943.328651	-0.003524
943.506423	-0.004156
943.684176	-0.004980
943.861912	-0.004688
944.039629	-0.005448
944.217328	-0.005885
944.395009	-0.006753
944.572672	-0.006417
944.750317	-0.006431
944.927943	-0.006300
945.105551	-0.005650
945.283141	-0.005740
945.460712	-0.005143
945.638265	-0.004962
945.815801	-0.004536
945.993317	-0.003727
946.170816	-0.002333
946.348297	-0.001856
946.525759	-0.002447
946.703203	-0.002069
946.880629	-0.000903
947.058036	-0.001571
947.235425	-0.000784
947.412797	-0.001977
947.590149	-0.002186
947.767484	-0.003677
947.944800	-0.004685
948.122099	-0.005405
948.299379	-0.006529
948.476640	-0.008066
948.653884	-0.007320
948.831109	-0.007709
949.008316	-0.006584
949.185505	-0.006641
949.362676	-0.006052
949.539828	-0.004888
949.716962	-0.004163
949.894078	-0.004146
950.071176	-0.003238
950.248256	-0.002495
950.425317	-0.003052
950.602360	-0.003028
950.779385	-0.003542
950.956391	-0.003790
951.133380	-0.003399
951.310350	-0.002627
951.487302	-0.002499
951.664235	-0.003611
951.841151	-0.005067
952.018048	-0.004911
952.194927	-0.003859
952.371788	-0.002906
952.548631	-0.001820
952.725455	-0.001573
952.902261	-0.003457
953.079049	-0.003340
953.255819	-0.002797
953.432570	-0.002366
953.609303	-0.001398
953.786018	-0.002788
953.962715	-0.004073
954.139394	-0.005543
954.316054	-0.006098
954.492696	-0.005497
954.669320	-0.004747
954.845926	-0.004830
955.022513	-0.003682
955.199083	-0.004073
955.375634	-0.003291
955.552166	-0.001328
955.728681	-0.000890
955.905177	-0.001367
956.081655	-0.000078
956.258115	0.000096
956.434557	0.000906
956.610980	0.000156
956.787385	0.000198
956.963772	-0.001063
957.140141	-0.000541
957.316492	-0.000927
957.492824	0.001084
957.669138	0.001561
957.845434	0.000014
958.021712	0.000970
958.197971	0.001810
958.374212	0.002291
958.550435	0.003760
958.726640	0.003554
958.902826	0.004508
959.078995	0.002618
959.255145	0.001637
959.431277	0.003100
959.607390	0.002658
959.783486	0.002687
959.959563	0.002476
960.135622	0.003323
960.311662	0.003092
960.487685	0.004231
960.663689	0.005591
960.839675	0.008544
961.015643	0.009405
961.191593	0.009138
961.367524	0.008285
961.543437	0.008172
961.719332	0.008680
961.895209	0.009263
962.071067	0.008507
962.246907	0.009908
962.422730	0.009704
962.598533	0.008342
962.774319	0.009636
962.950086	0.011268
963.125835	0.013158
963.301566	0.012525
963.477279	0.013083
963.652973	0.014167
963.828650	0.012323
964.004308	0.011278
964.179947	0.010510
964.355569	0.010952
964.531172	0.010484
964.706757	0.009910
964.882324	0.011356
965.057873	0.011728
965.233403	0.010422
965.408916	0.013516
965.584410	0.012341
965.759885	0.013914
965.935343	0.012475
966.110782	0.012814
966.286203	0.012659
966.461606	0.011771
966.636991	0.011262
966.812357	0.012520
966.987705	0.008996
967.163035	0.011044
967.338347	0.011401
967.513641	0.013019
967.688916	0.013569
967.864173	0.012321
968.039412	0.011445
968.214632	0.013109
968.389835	0.012512
968.565019	0.013649
968.740185	0.013940
968.915333	0.014127
969.090462	0.015068
969.265573	0.014818
969.440667	0.018677
969.615741	0.021337
969.790798	0.021783
969.965836	0.022623
970.140856	0.022447
970.315858	0.021251
970.490842	0.020387
970.665808	0.020438
970.840755	0.019600
971.015684	0.017099
971.190595	0.015198
971.365487	0.014099
971.540362	0.014255
971.715218	0.014862
971.890056	0.014198
972.064875	0.016657
972.239677	0.015755
972.414460	0.015219
972.589225	0.015377
972.763972	0.016023
972.938700	0.014884
973.113411	0.015097
973.288103	0.015084
973.462777	0.016839
973.637432	0.015661
973.812070	0.015245
973.986689	0.016484
974.161290	0.014409
974.335873	0.015552
974.510437	0.018027
974.684984	0.017143
974.859512	0.016851
975.034022	0.017696
975.208513	0.018294
975.382987	0.019112
975.557442	0.020452
975.731879	0.022225
975.906298	0.020687
976.080698	0.018880
976.255080	0.022096
976.429445	0.020965
976.603790	0.020404
976.778118	0.019605
976.952427	0.018721
977.126719	0.017995
977.300992	0.017927
977.475246	0.019437
977.649483	0.018470
977.823701	0.016552
977.997901	0.018443
978.172083	0.019024
978.346247	0.020359
978.520392	0.021441
978.694519	0.020628
978.868628	0.022440
979.042719	0.020642
979.216791	0.022041
979.390845	0.021312
979.564882	0.022770
979.738899	0.020548
979.912899	0.018463
980.086880	0.018327
980.260843	0.018603
980.434788	0.016296
980.608715	0.017628
980.782623	0.016544
980.956514	0.016134
981.130386	0.013399
981.304240	0.014619
981.478075	0.016009
981.651892	0.014729
981.825692	0.015216
981.999472	0.017267
982.173235	0.015845
982.346980	0.016100
982.520706	0.017458
982.694414	0.018366
982.868104	0.018074
983.041775	0.015759
983.215428	0.015724
983.389064	0.015630
983.562680	0.016033
983.736279	0.016560
983.909860	0.017215
984.083422	0.013646
984.256966	0.013705
984.430491	0.013394
984.603999	0.015553
984.777488	0.016353
984.950959	0.017182
985.124412	0.015306
985.297847	0.015481
985.471263	0.015081
985.644661	0.018143
985.818041	0.017808
985.991403	0.017478
986.164747	0.015565
986.338072	0.015496
986.511379	0.015247
986.684668	0.015082
986.857938	0.016165
987.031191	0.017279
987.204425	0.015117
987.377641	0.015335
987.550839	0.016108
987.724018	0.016805
987.897179	0.015653
988.070322	0.015049
988.243447	0.016052
988.416554	0.016166
988.589642	0.014481
988.762712	0.016547
988.935764	0.016715
989.108798	0.016373
989.281813	0.016867
989.454811	0.019170
989.627790	0.021219
989.800751	0.021938
989.973693	0.021659
990.146617	0.021438
990.319524	0.021223
990.492412	0.021677
990.665281	0.022535
990.838133	0.022528
991.010966	0.020945
991.183781	0.018861
991.356578	0.016598
991.529356	0.016121
991.702117	0.017902
991.874859	0.017400
992.047583	0.017184
992.220288	0.015607
992.392976	0.014896
992.565645	0.015714
992.738296	0.015601
992.910929	0.016592
993.083543	0.015512
993.256139	0.014433
993.428718	0.015725
993.601277	0.016286
993.773819	0.015943
993.946342	0.014774
994.118848	0.014067
994.291335	0.013809
994.463803	0.012838
994.636254	0.012213
994.808686	0.012302
994.981100	0.012432
995.153496	0.011508
995.325874	0.011627
995.498233	0.012559
995.670574	0.013320
995.842897	0.012954
996.015202	0.013336
996.187488	0.015329
996.359757	0.016202
996.532007	0.015016
996.704239	0.014694
996.876452	0.014570
997.048648	0.015277
997.220825	0.014830
997.392984	0.014401
997.565124	0.014032
997.737247	0.013329
997.909351	0.012531
998.081437	0.011797
998.253505	0.011650
998.425554	0.012283
998.597586	0.012029
998.769599	0.011356
998.941594	0.012529
999.113571	0.012757
999.285529	0.012552
999.457469	0.011506
999.629391	0.012254
999.801295	0.012509
999.973181	0.012833
1000.145048	0.013440
1000.316897	0.014128
1000.488728	0.013799
1000.660541	0.014009
1000.832335	0.012395
1001.004111	0.013039
1001.175869	0.012028
1001.347609	0.011113
1001.519331	0.011562
1001.691034	0.009599
1001.862719	0.009250
1002.034386	0.008270
1002.206035	0.009760
1002.377665	0.011457
1002.549277	0.012053
1002.720871	0.012617
1002.892447	0.014825
1003.064004	0.014819
1003.235544	0.016850
1003.407065	0.018817
1003.578568	0.018620
1003.750052	0.018096
1003.921519	0.017886
1004.092967	0.018269
1004.264397	0.017826
1004.435809	0.016625
1004.607202	0.015783
1004.778577	0.014307
1004.949934	0.013312
1005.121273	0.013363
1005.292594	0.013603
1005.463896	0.014365
1005.635180	0.013261
1005.806446	0.013720
1005.977694	0.014476
1006.148923	0.014128
1006.320135	0.014307
1006.491328	0.013920
1006.662503	0.015997
1006.833659	0.016138
1007.004798	0.015265
1007.175918	0.015327
1007.347020	0.015286
1007.518103	0.013768
1007.689169	0.015097
1007.860216	0.016603
1008.031245	0.015508
1008.202256	0.014905
1008.373248	0.013141
1008.544223	0.013257
1008.715179	0.013601
1008.886117	0.012857
1009.057036	0.013910
1009.227938	0.012750
1009.398821	0.011268
1009.569686	0.011511
1009.740533	0.010378
1009.911361	0.011059
1010.082172	0.010185
1010.252964	0.008602
1010.423738	0.008977
1010.594493	0.007783
1010.765231	0.008313
1010.935950	0.008962
1011.106651	0.007940
1011.277334	0.008242
1011.447998	0.008125
1011.618645	0.009080
1011.789273	0.010209
1011.959882	0.010814
1012.130474	0.011101
1012.301048	0.010982
1012.471603	0.010529
1012.642140	0.012007
1012.812658	0.011659
1012.983159	0.011059
1013.153641	0.010686
1013.324105	0.010446
1013.494551	0.010339
1013.664979	0.010518
1013.835388	0.011121
1014.005779	0.011528
1014.176152	0.011806
1014.346507	0.012361
1014.516843	0.013107
1014.687162	0.013736
1014.857462	0.014098
1015.027744	0.014456
1015.198007	0.014097
1015.368252	0.013533
1015.538480	0.013901
1015.708689	0.013803
1015.878879	0.014423
1016.049052	0.015314
1016.219206	0.014516
1016.389342	0.014509
1016.559460	0.015093
1016.729559	0.015140
1016.899641	0.015040
1017.069704	0.014651
1017.239749	0.013747
1017.409775	0.012676
1017.579784	0.011664
1017.749774	0.012250
1017.919746	0.011624
1018.089700	0.010319
1018.259635	0.010432
1018.429553	0.009926
1018.599452	0.009096
1018.769333	0.007855
1018.939195	0.009522
1019.109040	0.009832
1019.278866	0.009158
1019.448674	0.010531
1019.618464	0.010150
1019.788235	0.011112
1019.957989	0.010360
1020.127724	0.010259
1020.297441	0.011652
1020.467139	0.010136
1020.636820	0.009228
1020.806482	0.010559
1020.976126	0.009867
1021.145752	0.009946
1021.315359	0.009149
1021.484948	0.009302
1021.654519	0.009976
1021.824072	0.009568
1021.993607	0.008807
1022.163123	0.009625
1022.332621	0.008800
1022.502101	0.008336
1022.671563	0.009095
1022.841007	0.008928
1023.010432	0.009772
1023.179839	0.010152
1023.349228	0.011035
1023.518598	0.011864
1023.687951	0.010212
1023.857285	0.008751
1024.026601	0.009116
1024.195899	0.007538
1024.365178	0.008080
1024.534439	0.007170
1024.703682	0.006154
1024.872907	0.007295
1025.042114	0.007621
1025.211302	0.008892
1025.380472	0.010644
1025.549624	0.010251
1025.718758	0.012116
1025.887873	0.011688
1026.056970	0.012600
1026.226049	0.014629
1026.395110	0.012683
1026.564153	0.011912
1026.733177	0.011936
1026.902183	0.009599
1027.071171	0.009752
1027.240141	0.010712
1027.409092	0.012007
1027.578026	0.012391
1027.746940	0.011985
1027.915837	0.013173
1028.084716	0.013818
1028.253576	0.013890
1028.422418	0.015550
1028.591242	0.014984
1028.760048	0.013023
1028.928835	0.011060
1029.097604	0.010243
1029.266355	0.009275
1029.435088	0.007868
1029.603803	0.006737
1029.772499	0.006276
1029.941177	0.006943
1030.109837	0.008002
1030.278478	0.008531
1030.447102	0.010480
1030.615707	0.011989
1030.784294	0.013293
1030.952863	0.013933
1031.121413	0.013799
1031.289945	0.014372
1031.458460	0.015008
1031.626955	0.015260
1031.795433	0.015179
1031.963892	0.013165
1032.132334	0.011350
1032.300756	0.009957
1032.469161	0.009665
1032.637548	0.010325
1032.805916	0.009788
1032.974266	0.008585
1033.142598	0.008138
1033.310911	0.008205
1033.479207	0.008573
1033.647484	0.008194
1033.815743	0.007419
1033.983983	0.007652
1034.152206	0.008537
1034.320410	0.008960
1034.488596	0.008972
1034.656764	0.008814
1034.824914	0.008981
1034.993045	0.010415
1035.161158	0.011101
1035.329253	0.012915
1035.497330	0.013222
1035.665388	0.012230
1035.833428	0.010990
1036.001450	0.011329
1036.169454	0.011127
1036.337440	0.009756
1036.505407	0.007801
1036.673356	0.008625
1036.841287	0.007289
1037.009200	0.006846
1037.177094	0.005625
1037.344970	0.007997
1037.512828	0.006037
1037.680668	0.005608
1037.848489	0.005119
1038.016293	0.005950
1038.184078	0.004326
1038.351845	0.004480
1038.519593	0.003232
1038.687324	0.004496
1038.855036	0.002312
1039.022730	0.004561
1039.190406	0.002566
1039.358063	0.004060
1039.525702	0.003558
1039.693323	0.004856
1039.860926	0.003739
1040.028511	0.005663
1040.196077	0.005939
1040.363625	0.006516
1040.531155	0.005177
1040.698667	0.008595
1040.866161	0.008105
1041.033636	0.007554
1041.201093	0.008150
1041.368532	0.009818
1041.535952	0.009302
1041.703355	0.008491
1041.870739	0.008214
1042.038105	0.010143
1042.205452	0.008643
1042.372782	0.007793
1042.540093	0.009597
1042.707386	0.008447
1042.874661	0.006867
1043.041918	0.006612
1043.209156	0.006275
1043.376376	0.005987
1043.543578	0.004693
1043.710762	0.004760
1043.877927	0.004450
1044.045074	0.004362
1044.212203	0.004075
1044.379314	0.005000
1044.546407	0.004694
1044.713481	0.005699
1044.880537	0.006857
1045.047575	0.007452
1045.214595	0.006555
1045.381596	0.008504
1045.548579	0.009776
1045.715544	0.009534
1045.882491	0.008327
1046.049420	0.009840
1046.216330	0.010338
1046.383222	0.011151
1046.550096	0.009467
1046.716951	0.010095
1046.883789	0.010775
1047.050608	0.009654
1047.217409	0.010554
1047.384192	0.012926
1047.550956	0.011035
1047.717703	0.010540
1047.884431	0.008592
1048.051140	0.009522
1048.217832	0.010473
1048.384505	0.010570
1048.551161	0.009138
1048.717798	0.009243
1048.884416	0.009187
1049.051017	0.010504
1049.217599	0.011212
1049.384163	0.010651
1049.550709	0.011464
1049.717237	0.009376
1049.883746	0.007484
1050.050237	0.006479
1050.216710	0.006751
1050.383165	0.005537
1050.549601	0.005348
1050.716019	0.004780
1050.882420	0.006603
1051.048801	0.007001
1051.215165	0.008303
1051.381510	0.008531
1051.547837	0.010073
1051.714146	0.009080
1051.880437	0.009243
1052.046709	0.008994
1052.212964	0.009264
1052.379200	0.008153
1052.545417	0.006737
1052.711617	0.006890
1052.877798	0.006314
1053.043961	0.005980
1053.210106	0.006900
1053.376233	0.008365
1053.542341	0.008431
1053.708432	0.008778
1053.874504	0.008369
1054.040557	0.010540
1054.206593	0.010537
1054.372610	0.012052
1054.538609	0.011793
1054.704590	0.011616
1054.870553	0.010883
1055.036497	0.011240
1055.202424	0.009294
1055.368331	0.008956
1055.534221	0.005994
1055.700093	0.005060
1055.865946	0.004397
1056.031781	0.004530
1056.197598	0.003853
1056.363397	0.002651
1056.529177	0.003230
1056.694939	0.003300
1056.860683	0.004958
1057.026409	0.005846
1057.192116	0.007292
1057.357806	0.006675
1057.523477	0.007169
1057.689130	0.007342
1057.854764	0.008152
1058.020381	0.006391
1058.185979	0.009495
1058.351559	0.008517
1058.517120	0.010524
1058.682664	0.009174
1058.848189	0.010988
1059.013696	0.010763
1059.179185	0.011566
1059.344656	0.011906
1059.510108	0.013696
1059.675542	0.011542
1059.840958	0.012450
1060.006356	0.010877
1060.171735	0.011183
1060.337096	0.010452
1060.502439	0.008085
1060.667764	0.007306
1060.833071	0.006300
1060.998359	0.004356
1061.163629	0.003484
1061.328881	0.002779
1061.494115	0.001923
1061.659330	0.002023
1061.824527	0.001958
1061.989706	0.004431
1062.154867	0.004586
1062.320010	0.004594
1062.485134	0.007207
1062.650240	0.007169
1062.815328	0.009144
1062.980398	0.008156
1063.145449	0.008676
1063.310482	0.008471
1063.475497	0.009043
1063.640494	0.008541
1063.805473	0.010148
1063.970433	0.007641
1064.135375	0.009117
1064.300299	0.007676
1064.465204	0.008720
1064.630092	0.008976
1064.794961	0.008677
1064.959812	0.008358
1065.124645	0.009425
1065.289459	0.008275
1065.454256	0.008223
1065.619034	0.008714
1065.783793	0.009297
1065.948535	0.008794
1066.113258	0.007467
1066.277964	0.009817
1066.442651	0.009264
1066.607319	0.009296
1066.771970	0.006115
1066.936602	0.005893
1067.101216	0.004189
1067.265812	0.003599
1067.430389	0.004779
1067.594949	0.005326
1067.759490	0.004598
1067.924013	0.006000
1068.088518	0.005830
1068.253004	0.009382
1068.417472	0.010346
1068.581922	0.011551
1068.746354	0.011683
1068.910768	0.013302
1069.075163	0.012798
1069.239540	0.010482
1069.403899	0.008403
1069.568240	0.009849
1069.732562	0.009512
1069.896866	0.010003
1070.061152	0.008935
1070.225420	0.007994
1070.389670	0.006038
1070.553901	0.008263
1070.718114	0.007399
1070.882309	0.008228
1071.046486	0.007390
1071.210644	0.007785
1071.374784	0.005747
1071.538906	0.006570
1071.703010	0.007094
1071.867096	0.007223
1072.031163	0.005679
1072.195212	0.008139
1072.359243	0.008258
1072.523256	0.006340
1072.687250	0.007403
1072.851226	0.009578
1073.015184	0.010236
1073.179124	0.011226
1073.343045	0.013687
1073.506949	0.016166
1073.670834	0.016174
1073.834701	0.015124
1073.998549	0.015802
1074.162380	0.014523
1074.326192	0.012859
1074.489986	0.012895
1074.653761	0.011522
1074.817519	0.009344
1074.981258	0.008645
1075.144979	0.008817
1075.308682	0.009895
1075.472367	0.010545
1075.636033	0.011481
1075.799681	0.013121
1075.963311	0.014885
1076.126923	0.015029
1076.290516	0.015835
1076.454092	0.012721
1076.617649	0.010820
1076.781187	0.010973
1076.944708	0.010368
1077.108210	0.009141
1077.271695	0.008829
1077.435160	0.005717
1077.598608	0.004325
1077.762038	0.003945
1077.925449	0.004512
1078.088842	0.006432
1078.252217	0.006676
1078.415573	0.006873
1078.578912	0.005461
1078.742232	0.003328
1078.905534	0.004194
1079.068817	0.005119
1079.232083	0.003781
1079.395330	0.005387
1079.558559	0.005764
1079.721770	0.007561
1079.884962	0.004934
1080.048136	0.006124
1080.211293	0.008537
1080.374430	0.007597
1080.537550	0.009682
1080.700651	0.011096
1080.863735	0.009761
1081.026800	0.010373
1081.189846	0.006639
1081.352875	0.007706
1081.515885	0.008088
1081.678877	0.007048
1081.841851	0.007523
1082.004807	0.005554
1082.167744	0.004889
1082.330663	0.007820
1082.493564	0.004430
1082.656447	0.005866
1082.819312	0.006404
1082.982158	0.003763
1083.144986	0.002641
1083.307796	0.003142
1083.470587	0.003373
1083.633361	0.005873
1083.796116	0.003991
1083.958853	0.006594
1084.121571	0.007309
1084.284272	0.009024
1084.446954	0.011696
1084.609618	0.014283
1084.772264	0.012116
1084.934892	0.011855
1085.097501	0.009958
1085.260092	0.006487
1085.422665	0.006915
1085.585220	0.005981
1085.747756	0.006138
1085.910274	0.004751
1086.072774	0.002259
1086.235256	0.003003
1086.397720	0.002669
1086.560165	0.001789
1086.722592	0.005551
1086.885001	0.002298
1087.047392	0.001086
1087.209764	-0.000390
1087.372119	-0.000129
1087.534455	0.000583
1087.696772	0.000254
1087.859072	0.002380
1088.021353	0.001760
1088.183616	0.000690
1088.345861	0.002241
1088.508088	0.003383
1088.670296	0.003826
1088.832486	0.006812
1088.994658	0.009266
1089.156812	0.008331
1089.318948	0.007389
1089.481065	0.008063
1089.643164	0.009083
1089.805245	0.007836
1089.967308	0.007266
1090.129352	0.007129
1090.291378	0.004756
1090.453386	0.001591
1090.615376	0.006356
1090.777347	0.004341
1090.939301	0.004781
1091.101236	0.005167
1091.263153	0.006220
1091.425051	0.006710
1091.586932	0.006671
1091.748794	0.008253
1091.910638	0.009806
1092.072463	0.008265
1092.234271	0.010372
1092.396060	0.010982
1092.557831	0.008765
1092.719584	0.006633
1092.881319	0.007197
1093.043035	0.007247
1093.204733	0.005100
1093.366413	0.005645
1093.528075	0.003631
1093.689718	0.003453
1093.851343	0.003885
1094.012950	0.004550
1094.174539	0.008083
1094.336110	0.008291
1094.497662	0.006328
1094.659196	0.009202
1094.820712	0.006571
1094.982210	0.006595
1095.143689	0.006050
1095.305151	0.006758
1095.466594	0.007026
1095.628018	0.003918
1095.789425	0.001874
1095.950813	0.004180
1096.112183	0.001779
1096.273535	0.005359
1096.434869	0.007081
1096.596184	0.005519
1096.757482	0.002941
1096.918761	0.003788
1097.080021	0.005864
1097.241264	0.006975
1097.402488	0.004757
1097.563694	0.003428
1097.724882	-0.000757
1097.886052	-0.001944
1098.047203	-0.000816
1098.208336	-0.000348
1098.369451	0.000088
1098.530548	0.000817
1098.691627	0.000338
1098.852687	0.001332
1099.013729	0.002687
1099.174753	0.007151
1099.335758	0.007156
1099.496746	0.007287
1099.657715	0.008826
1099.818666	0.008101
1099.979599	0.010053
1100.140513	0.011282
1100.301409	0.014288
1100.462287	0.013238
1100.623147	0.010261
1100.783989	0.012949
1100.944812	0.012145
1101.105617	0.010697
1101.266404	0.009981
1101.427173	0.005191
1101.587923	0.003457
1101.748656	-0.000032
1101.909370	-0.000239
1102.070066	-0.000172
1102.230743	-0.002734
1102.391403	-0.002687
1102.552044	-0.006320
1102.712667	-0.005555
1102.873271	-0.003841
1103.033858	-0.003303
1103.194426	-0.001592
1103.354976	0.001463
1103.515508	0.001595
1103.676021	-0.001329
1103.836517	0.002357
1103.996994	0.007756
1104.157453	0.008006
1104.317893	0.009300
1104.478316	0.010175
1104.638720	0.010306
1104.799106	0.007847
1104.959474	0.006973
1105.119823	0.010813
1105.280155	0.006753
1105.440468	0.003562
1105.600763	0.001904
1105.761039	-0.000488
1105.921298	-0.000390
1106.081538	0.001653
1106.241760	0.004794
1106.401964	0.006815
1106.562149	0.006966
1106.722316	0.008188
1106.882465	0.010207
1107.042596	0.010693
1107.202709	0.010858
1107.362803	0.010871
1107.522879	0.009519
1107.682937	0.006669
1107.842977	0.006727
1108.002999	0.006959
1108.163002	0.007411
1108.322987	0.005245
1108.482954	0.007722
1108.642902	0.012794
1108.802833	0.012195
1108.962745	0.011286
1109.122639	0.009504
1109.282515	0.007975
1109.442372	0.006296
1109.602211	0.004943
1109.762032	0.006051
1109.921835	0.002453
1110.081620	-0.001328
1110.241386	0.000780
1110.401134	0.002345
1110.560864	0.007356
1110.720576	0.008027
1110.880269	0.010949
1111.039945	0.010212
1111.199602	0.009402
1111.359240	0.011607
1111.518861	0.012083
1111.678463	0.014111
1111.838047	0.014206
1111.997613	0.013718
1112.157161	0.015652
1112.316690	0.010407
1112.476202	0.009658
1112.635695	0.012134
1112.795169	0.013707
1112.954626	0.012788
1113.114064	0.003797
1113.273484	0.002962
1113.432886	-0.001657
1113.592270	-0.002803
1113.751635	0.002194
1113.910983	0.003074
1114.070312	0.000796
1114.229622	-0.001279
1114.388915	-0.001442
1114.548189	0.003234
1114.707445	0.001024
1114.866683	0.002762
1115.025903	0.000395
1115.185104	-0.003389
1115.344287	-0.002521
1115.503452	-0.001028
1115.662599	-0.002482
1115.821727	-0.003252
1115.980838	-0.001005
1116.139930	0.001182
1116.299004	0.001848
1116.458059	0.003800
1116.617097	0.005691
1116.776116	0.007765
1116.935117	0.010824
1117.094099	0.011901
1117.253064	0.015457
1117.412010	0.014396
1117.570938	0.013883
1117.729848	0.012974
1117.888740	0.011553
1118.047613	0.014132
1118.206468	0.014552
1118.365305	0.016063
1118.524124	0.020316
1118.682924	0.017801
1118.841707	0.019141
1119.000471	0.020889
1119.159216	0.023057
1119.317944	0.024079
1119.476653	0.017621
1119.635344	0.015434
1119.794017	0.009488
1119.952672	0.007891
1120.111308	0.007566
1120.269927	0.006515
1120.428527	0.003946
1120.587108	0.004043
1120.745672	0.004351
1120.904217	0.006727
1121.062744	0.005932
1121.221253	0.005872
1121.379744	0.004718
1121.538216	0.009021
1121.696671	0.007636
1121.855107	0.007531
1122.013524	0.010348
1122.171924	0.011251
1122.330305	0.012597
1122.488668	0.012850
1122.647013	0.014925
1122.805340	0.014556
1122.963648	0.015376
1123.121938	0.014024
1123.280210	0.017378
1123.438464	0.014515
1123.596700	0.014209
1123.754917	0.015897
1123.913116	0.016713
1124.071297	0.013663
1124.229459	0.015468
1124.387604	0.011711
1124.545730	0.016999
1124.703838	0.019392
1124.861928	0.018507
1125.019999	0.017987
1125.178052	0.014653
1125.336088	0.011074
1125.494104	0.011373
1125.652103	0.008074
1125.810083	0.008069
1125.968045	0.008934
1126.125989	0.004674
1126.283915	0.004447
1126.441823	0.003455
1126.599712	0.008561
1126.757583	0.013720
1126.915436	0.016467
1127.073270	0.019819
1127.231087	0.015640
1127.388885	0.012729
1127.546665	0.015566
1127.704426	0.009959
1127.862170	0.013851
1128.019895	0.014021
1128.177602	0.013303
1128.335291	0.014057
1128.492961	0.006691
1128.650614	0.012380
1128.808248	0.011310
1128.965864	0.010556
1129.123461	0.008528
1129.281041	0.005727
1129.438602	0.000990
1129.596145	-0.005838
1129.753670	-0.005449
1129.911176	0.003812
1130.068665	0.000957
1130.226135	-0.002217
1130.383587	-0.003610
1130.541020	0.002621
1130.698436	0.001983
1130.855833	0.003595
1131.013212	0.009335
1131.170573	0.006019
1131.327915	0.002752
1131.485239	0.003507
1131.642545	0.008289
1131.799833	0.007122
1131.957103	0.006869
1132.114354	0.007132
1132.271588	0.010267
1132.428803	0.005310
1132.585999	0.007363
1132.743178	0.007340
1132.900338	0.008632
1133.057480	0.004212
1133.214604	0.005717
1133.371710	0.004541
1133.528797	0.009606
1133.685866	0.004152
1133.842917	0.013419
1133.999950	0.008262
1134.156964	0.008234
1134.313960	0.004922
1134.470938	0.007780
1134.627898	0.005520
1134.784840	0.006896
1134.941763	0.005046
1135.098668	0.003590
1135.255555	0.005295
1135.412424	0.010428
1135.569274	0.007497
1135.726107	0.009792
1135.882921	0.006968
1136.039716	0.012754
1136.196494	0.008999
1136.353253	0.006221
1136.509995	0.007301
1136.666717	0.000974
1136.823422	-0.001102
1136.980109	-0.002754
1137.136777	-0.003873
1137.293427	-0.003589
1137.450059	-0.011032
1137.606672	-0.007387
1137.763267	-0.006639
1137.919844	-0.003332
1138.076403	0.002203
1138.232944	0.005242
1138.389466	0.011459
1138.545971	0.010323
1138.702457	0.009937
1138.858924	0.009159
1139.015374	0.010998
1139.171805	0.013244
1139.328218	0.012183
1139.484613	0.008009
1139.640990	0.007899
1139.797348	0.004334
1139.953688	0.007709
1140.110010	0.011721
1140.266314	0.016072
1140.422600	0.011781
1140.578867	0.013605
1140.735116	0.015281
1140.891347	0.020912
1141.047559	0.020127
1141.203754	0.023660
1141.359930	0.016517
1141.516088	0.014447
1141.672228	0.016126
1141.828349	0.024967
1141.984452	0.019757
1142.140537	0.019125
1142.296604	0.011397
1142.452653	0.007991
1142.608683	0.001044
1142.764695	0.009522
1142.920689	0.007268
1143.076665	-0.000290
1143.232622	-0.005880
1143.388562	-0.010659
1143.544483	-0.012944
1143.700385	-0.010596
1143.856270	-0.011255
1144.012136	-0.004189
1144.167985	-0.008092
1144.323814	-0.003399
1144.479626	0.000838
1144.635420	0.005403
1144.791195	0.008847
1144.946952	0.011208
1145.102691	0.008529
1145.258411	0.009737
1145.414113	0.008654
1145.569798	0.014621
1145.725463	0.011896
1145.881111	0.007474
1146.036741	-0.002262
1146.192352	0.002926
1146.347945	0.004073
1146.503519	0.009552
1146.659076	0.011768
1146.814614	0.005676
1146.970134	-0.005635
1147.125636	-0.008428
1147.281120	0.002697
1147.436585	0.010052
1147.592032	0.004452
1147.747461	0.002983
1147.902872	0.000621
1148.058265	-0.006210
1148.213639	-0.000040
1148.368995	0.007672
1148.524333	0.014943
1148.679653	0.009299
1148.834954	0.009184
1148.990237	0.014504
1149.145502	0.010832
1149.300749	0.014403
1149.455977	0.023508
1149.611188	0.021591
1149.766380	0.017305
1149.921553	0.012890
1150.076709	0.011859
1150.231846	0.013037
1150.386966	0.011891
1150.542066	0.023304
1150.697149	0.019221
1150.852214	0.017197
1151.007260	0.012078
1151.162288	0.014905
1151.317298	0.010223
1151.472289	0.013554
1151.627263	0.010929
1151.782218	0.013394
1151.937155	0.000352
1152.092073	-0.001329
1152.246974	-0.006646
1152.401856	-0.000481
1152.556720	-0.004410
1152.711566	0.002889
1152.866393	0.002641
1153.021203	0.002308
1153.175994	0.001016
1153.330767	0.003772
1153.485521	0.008440
1153.640258	0.022073
1153.794976	0.030135
1153.949676	0.033079
1154.104358	0.031778
1154.259021	0.028230
1154.413667	0.028325
1154.568294	0.027344
1154.722903	0.027607
1154.877493	0.026835
1155.032066	0.017073
1155.186620	0.012088
1155.341156	0.016802
1155.495674	0.014779
1155.650173	0.020713
1155.804654	0.012844
1155.959118	0.012968
1156.113562	0.015625
1156.267989	0.014051
1156.422397	0.018559
1156.576788	0.021948
1156.731160	0.025924
1156.885513	0.026818
1157.039849	0.023974
1157.194166	0.037454
1157.348465	0.034492
1157.502746	0.039883
1157.657009	0.035390
1157.811253	0.028206
1157.965479	0.020863
1158.119687	0.014476
1158.273877	0.013908
1158.428048	0.006434
1158.582201	0.001329
1158.736337	0.001961
1158.890453	-0.004377
1159.044552	0.003423
1159.198632	0.005189
1159.352694	0.003609
1159.506738	0.007434
1159.660764	0.001650
1159.814771	0.001094
1159.968761	-0.001826
1160.122732	-0.005668
1160.276685	-0.010659
1160.430619	-0.017598
1160.584535	-0.017718
1160.738434	-0.019765
1160.892313	-0.029200
1161.046175	-0.017530
1161.200019	-0.014625
1161.353844	-0.011337
1161.507651	-0.005245
1161.661440	-0.000402
1161.815210	-0.001130
1161.968962	0.001353
1162.122697	0.007615
1162.276412	0.016218
1162.430110	0.002839
1162.583789	0.003982
1162.737451	0.005047
1162.891094	0.008023
1163.044718	0.006978
1163.198325	0.001685
1163.351913	0.003667
1163.505483	-0.003816
1163.659035	-0.002992
1163.812569	0.010050
1163.966084	0.018190
1164.119581	0.019229
1164.273060	0.012791
1164.426521	0.017119
1164.579964	0.017802
1164.733388	0.021007
1164.886794	0.013849
1165.040182	0.003314
1165.193551	-0.016318
1165.346903	-0.018332
1165.500236	-0.022864
1165.653551	-0.026572
1165.806848	-0.036178
1165.960126	-0.027566
1166.113386	-0.041672
1166.266628	-0.036457
1166.419852	-0.023879
1166.573058	-0.008551
1166.726245	-0.004811
1166.879414	0.004411
1167.032565	0.002125
1167.185698	0.009463
1167.338812	0.006068
1167.491909	0.015957
1167.644987	0.031156
1167.798046	0.021033
1167.951088	0.015519
1168.104111	-0.002689
1168.257117	-0.017388
1168.410103	-0.016863
1168.563072	-0.014627
1168.716023	-0.008706
1168.868955	-0.009524
1169.021869	-0.010972
1169.174765	-0.013361
1169.327642	-0.006904
1169.480501	0.004823
1169.633343	0.020066
1169.786165	0.024107
1169.938970	0.014305
1170.091757	0.010199
1170.244525	0.011106
1170.397275	0.000538
1170.550007	0.010389
1170.702720	0.009447
1170.855415	0.015359
1171.008092	0.010540
1171.160751	0.014614
1171.313392	0.022209
1171.466014	0.097163
1171.618619	0.012086
1171.771205	0.012086
1171.923772	0.012086
