sample name	sample
index	389
start time	 03-08-2021  09:49:11 AM
880	-0.015912
Peak Time (s)	90.535
Peak Height 	-0.01591
calc peak height	90,93
Baseline Time (s)	9.536
Baseline Value 	-0.001258
subtract baseline	10,4
Abs	0.003312
Peak Time (s)	91.536
Peak Height 	0.003312
calc peak height	90,93
Baseline Time (s)	10.536
Baseline Value 	-0.001438
subtract baseline	10,3
PK_550	-0.004843
Peak Time (s)	91.035
Peak Height 	-0.004843
calc peak height	90,93
Baseline Time (s)	9.536
Baseline Value 	5.0234E-4
subtract baseline	10,2
PK_880	-0.004350
Peak Time (s)	90.035
Peak Height 	-0.00435
calc peak height	90,93
Baseline Time (s)	8.535
Baseline Value 	3.311E-4
subtract baseline	10,1


Time (s)	A880-A510	A880-A775	A880-A975	A880	I510	I775	I975	I880	
0.035000	-0.000191	-0.000451	-0.000713	-0.001186	7075.550910	48881.413369	3900.389334	25433.753518
0.535500	-0.000625	0.000066	0.000829	0.003431	7024.841632	48447.883924	3891.643982	25193.219343
1.038500	-0.000186	-0.000115	0.000958	0.002216	7041.385163	48556.781685	3895.459741	25256.253537
1.541000	-0.002943	-0.000510	-0.002193	0.003931	6996.808067	48334.827478	3881.702514	25167.326748
2.036500	0.003188	0.000387	0.007505	-0.002012	7118.225583	49058.593170	3926.479350	25477.095040
2.537000	0.003306	-0.000512	0.007949	-0.002742	7126.883426	49040.638067	3929.906371	25515.438695
3.037500	-0.000300	-0.000944	-0.000490	-0.002659	7089.349307	48985.626215	3905.241844	25511.053487
3.537500	0.000354	0.000327	0.002716	0.000598	7063.056254	48774.599839	3905.093617	25340.499147
4.037500	-0.000428	-0.000345	0.004233	-0.000150	7062.723389	48782.729360	3911.604605	25379.583812
4.535000	0.001058	0.000572	0.002891	0.000461	7071.535387	48815.160299	3905.991074	25347.672143
5.035000	-0.000514	-0.000829	-0.001653	-0.000378	7064.144672	48755.576363	3895.412403	25391.487314
5.535500	-0.000405	-0.000353	0.005616	-0.000267	7064.121500	48794.206310	3915.929685	25385.654805
6.036500	0.001015	0.000301	-0.000629	0.000035	7075.399029	48831.630993	3897.148120	25369.886868
6.536500	-0.000059	-0.000496	-0.001849	-0.000837	7073.364981	48839.638033	3896.160875	25415.513677
7.036500	0.000902	-0.000489	0.002970	-0.000139	7076.017523	48766.369721	3907.940086	25379.003856
7.537000	-0.000790	0.000303	0.002012	-0.000390	7061.492674	48877.030690	3905.908499	25392.122528
8.040000	0.001364	-0.000274	0.002222	-0.000141	7080.706633	48789.309155	3905.796403	25379.097616
8.535000	0.000000	-0.000090	0.005517	-0.000098	7066.505161	48804.211722	3915.156718	25376.848578
9.035500	-0.000988	0.000081	-0.000276	0.000018	7055.391521	48810.045852	3898.201929	25370.785978
9.535500	0.001044	0.000000	-0.001989	0.000000	7076.044451	48803.400065	3893.382401	25371.724192
10.035500	0.000294	0.000155	0.003194	0.000128	7067.189320	48806.270703	3907.814546	25365.029540
10.536000	-0.001738	-0.000282	0.000000	-0.000600	7054.063817	48837.129726	3900.753199	25403.093627
11.039000	0.000276	-0.000033	-0.001225	0.000027	7068.026991	48797.072151	3895.476266	25370.313201
11.536500	-0.000238	0.000189	0.000658	-0.000170	7064.834414	48841.466647	3901.402571	25380.603482
12.037000	0.000752	-0.000227	-0.001730	-0.000595	7079.106194	48842.375479	3895.808131	25402.810355
12.538000	-0.000395	-0.000082	0.005764	-0.000262	7064.172786	48822.494129	3916.343366	25385.402695
13.037500	0.001616	0.000435	0.004974	-0.002168	7103.814274	49080.297733	3919.576163	25485.269178
13.534500	0.004040	-0.000016	0.000514	-0.003008	7137.108900	49121.895529	3909.125374	25529.414394
14.035500	0.002477	0.001005	0.004850	-0.001199	7102.712910	49037.745034	3916.411584	25434.449612
14.535500	-0.001130	-0.000448	0.004055	0.000831	7045.806380	48667.961763	3908.268645	25328.369258
15.036000	0.002188	-0.000406	0.002505	-0.002649	7114.517923	49041.833937	3913.822358	25510.502463
15.585500	0.001131	-0.000110	0.006106	-0.003366	7111.057948	49150.046000	3926.347269	25548.234221
16.039500	-0.000037	-0.000067	0.004197	-0.003282	7098.332110	49145.686758	3920.551014	25543.813270
16.539000	-0.001241	0.000699	0.000838	0.002519	7027.797987	48610.740545	3894.256947	25240.530906
17.037000	0.000353	-0.000205	0.003304	-0.002765	7097.052381	49075.747456	3916.468080	25516.635360
17.540000	0.003182	0.000501	0.007470	-0.002817	7126.379410	49156.595729	3928.723630	25519.336179
18.034500	0.002661	-0.000001	0.003050	-0.002555	7118.388483	49075.043923	3915.126215	25505.566177
18.538000	0.000363	0.000529	0.002887	0.001458	7054.501674	48704.955522	3903.122657	25295.695316
19.035500	0.000672	-0.000038	0.005667	0.000128	7071.002170	48785.751427	3914.935004	25365.021750
19.538500	0.000184	0.000103	0.009103	0.000128	7066.087511	48800.805313	3924.900366	25365.063199
20.036000	-0.000556	0.000375	0.001516	0.000305	7056.854011	48810.864175	3902.499743	25355.795238
20.536000	-0.000339	0.000152	0.002748	0.000765	7054.408144	48738.458461	3904.707357	25331.795439
21.039500	-0.000400	0.000526	0.004308	0.000097	7060.503220	48848.841144	3911.104218	25366.635032
21.537000	-0.000576	-0.000157	0.003756	0.000023	7059.492817	48784.324586	3909.732074	25370.546057
22.040000	0.000837	0.000225	0.005340	0.000374	7070.180804	48787.502972	3913.282087	25352.173320
22.537500	0.000057	-0.000003	-0.000327	0.000750	7058.544916	48723.627141	3895.973125	25332.593059
23.039500	0.001384	0.000165	0.002718	-0.000012	7079.601959	48822.114219	3906.847287	25372.327970
23.535500	0.001054	-0.000485	0.001187	-0.000142	7077.579769	48767.019274	3902.835205	25379.136422
24.035500	-0.001531	0.000267	0.000817	0.000465	7045.454888	48782.451312	3900.045455	25347.455594
24.535500	-0.002323	-0.000363	0.003843	0.001067	7031.486871	48651.986282	3906.981244	25316.047627
25.036000	0.001008	0.000132	-0.000218	-0.000120	7076.892498	48830.112580	3898.761738	25377.995314
25.536000	-0.001651	-0.000648	0.001831	-0.000656	7055.498193	48804.218094	3906.150129	25405.993728
26.039500	0.000202	-0.000501	0.003456	-0.000366	7071.246890	48789.048540	3909.986992	25390.856827
26.540000	0.000054	0.000530	0.001677	0.000498	7061.053828	48806.880998	3902.408527	25345.744489
27.037000	-0.000320	0.000027	0.000753	0.000101	7061.276660	48795.559139	3900.900239	25366.449345
27.534500	0.001960	0.000000	0.005924	0.000431	7080.956195	48757.767309	3914.802992	25349.238171
28.035000	0.001305	-0.000361	-0.002930	-0.001468	7093.545715	48920.972968	3894.878966	25448.540432
28.535000	0.002018	-0.000092	0.003545	-0.003117	7117.563559	49125.420335	3918.182829	25535.134559
29.058000	0.001989	0.000269	0.007852	-0.002676	7112.775831	49116.835977	3929.426124	25511.940316
29.535500	0.001466	0.000487	0.001966	-0.002430	7104.947605	49113.761615	3911.638413	25498.996592
30.036000	0.005429	0.000519	0.004139	-0.002530	7146.451347	49127.925913	3918.203125	25504.278182
30.539000	-0.002503	-0.000037	-0.000200	0.002532	7015.075311	48531.674504	3891.272974	25239.826748
31.037000	0.000067	-0.000254	-0.002963	0.000099	7065.197122	48766.038773	3890.341106	25366.575833
31.540000	-0.000615	0.000073	0.000382	0.000401	7055.291518	48768.596171	3898.987961	25350.795507
32.038000	-0.000711	-0.000104	-0.004039	0.001871	7039.570193	48594.310776	3882.300864	25274.179755
32.540000	-0.003166	-0.000744	0.002206	0.002586	7007.945276	48451.532455	3897.957666	25237.037461
33.035000	0.000312	-0.000569	0.002321	0.000858	7060.015312	48652.295677	3903.221154	25326.955166
33.538000	0.002235	-0.001426	0.003228	-0.003328	7121.929735	49005.547098	3917.876149	25546.228923
34.035500	0.002395	0.000301	0.004906	-0.002479	7114.900987	49099.225938	3920.278055	25501.597999
34.538000	-0.000428	0.000139	0.001798	0.003177	7029.339827	48482.232487	3895.114725	25206.361417
35.036500	-0.000575	0.000306	0.003268	0.001164	7048.034553	48712.546855	3905.057312	25311.021125
35.537000	-0.000886	-0.000311	0.002506	0.001114	7045.416745	48652.558674	3903.017774	25313.617599
36.037000	0.000078	-0.000099	-0.002626	0.000980	7056.442735	48689.110853	3888.801042	25320.595760
36.537000	0.000490	0.000462	-0.001247	0.002605	7044.264045	48576.651921	3888.106139	25236.065734
37.037500	0.000118	0.000731	0.008139	0.001963	7046.966737	48672.846338	3916.776878	25269.399193
37.535000	-0.000423	0.000233	0.007523	0.001419	7046.996876	48677.765062	3916.570037	25297.740528
38.035500	0.000960	-0.000179	0.001491	0.001191	7063.188273	48658.235057	3899.894886	25309.576834
38.535500	0.001265	0.000646	0.004730	0.002655	7051.540527	48590.799099	3904.972190	25233.479615
39.036000	0.000871	0.000300	0.003814	0.001602	7058.157307	48665.588516	3905.364166	25288.209061
39.536000	0.002331	0.000768	0.002228	0.002177	7067.067973	48654.220734	3899.186987	25258.291709
40.036500	0.000494	0.000243	0.000858	0.001640	7053.980168	48655.464468	3896.812571	25286.211798
40.536500	-0.000257	-0.000425	0.004671	0.001194	7050.925935	48632.044140	3908.995548	25309.453685
41.040000	-0.000234	0.000633	0.003415	0.001579	7047.284137	48703.121836	3904.287066	25289.379169
41.537500	-0.000712	0.000197	0.005379	0.001356	7044.729522	48680.631947	3910.564910	25301.008037
42.034500	-0.001752	0.000357	0.006317	0.001488	7032.997436	48683.657658	3912.887117	25294.146763
42.535000	-0.001354	0.000695	0.004372	0.001443	7037.425224	48724.204989	3907.421366	25296.485024
43.035500	-0.000231	0.000525	0.004576	0.001440	7048.714314	48706.440500	3908.014243	25296.617919
43.535000	-0.000649	0.000108	0.000933	0.001087	7048.056144	48699.646377	3898.601857	25315.002508
44.035500	-0.001972	-0.000760	0.006041	0.000862	7037.052931	48631.657986	3913.897341	25326.747369
44.536500	-0.001440	0.000532	0.005342	0.001955	7031.434202	48652.607947	3908.736188	25269.802696
45.039500	0.000390	0.000783	0.005952	0.002915	7040.156474	48577.868519	3907.732711	25219.974014
45.537000	0.002590	0.000650	0.004405	-0.001739	7109.348811	49057.489933	3916.684991	25462.729854
46.037000	0.000696	0.000343	0.005847	-0.002154	7094.330766	49069.054811	3922.066135	25484.518063
46.537500	0.000357	0.000607	0.006668	0.003223	7036.737211	48526.752172	3908.904624	25203.995935
47.035000	-0.001978	0.000034	0.003486	0.003531	7010.353789	48433.916008	3898.911326	25187.998999
47.535000	0.002943	0.000925	0.009456	-0.001371	7109.205082	49047.608576	3930.303372	25443.475575
48.035500	0.002177	0.000341	0.003362	-0.001921	7107.004034	49044.005767	3914.196826	25472.301662
48.547000	-0.000452	0.000370	-0.001715	0.003226	7028.620638	48501.455091	3885.032311	25203.837080
49.038500	-0.002323	-0.000408	0.001964	0.002800	7014.199744	48464.340006	3896.657131	25225.913044
49.536500	0.000644	-0.000088	0.007210	0.001511	7056.785481	48634.102187	3915.398708	25292.912139
50.044500	0.001250	0.000485	0.007411	-0.001659	7094.924606	49031.328570	3925.173324	25458.529485
50.537000	-0.001101	0.000113	0.004423	0.003044	7023.950304	48493.535394	3902.979903	25213.280172
51.037500	-0.002290	-0.000352	-0.003409	0.004061	7001.997338	48337.711319	3877.922146	25160.587637
51.535000	0.002331	0.000563	0.009072	-0.001122	7100.442394	48982.475497	3928.451876	25430.397871
52.038000	0.001021	0.000146	0.004163	-0.000067	7076.487348	48825.981855	3911.160197	25375.198658
52.535500	0.004897	-0.000454	0.004443	-0.009723	7215.331077	49797.072993	3940.099831	25885.336714
53.036000	-0.026769	-0.019241	0.001048	0.083981	6080.544431	39058.530931	3683.769415	21382.820544
53.536000	-0.023407	-0.021332	0.006349	-0.018450	7015.858632	48498.683844	3971.810590	26356.277701
54.036500	-0.023786	-0.025691	0.003313	-0.105809	7975.159599	58135.895142	4252.776975	31630.460761
54.536000	-0.029399	-0.021595	-0.007640	-0.087649	7693.608944	56370.623721	4149.550302	30445.084708
55.036500	-0.024393	-0.016685	-0.006448	-0.087989	7755.586363	57022.870393	4154.807249	30466.789177
55.537000	-0.006308	-0.021800	-0.000589	-0.127052	8468.047298	61436.497412	4317.632916	33081.497546
56.040000	0.001636	-0.034568	0.001093	-0.155332	8970.688621	63571.050833	4435.982730	35126.711169
56.537500	0.001614	-0.024423	0.001949	-0.136058	8697.719967	62305.553429	4362.265570	33718.373170
57.035000	-0.002368	-0.016202	0.003593	-0.112427	8327.613507	60228.950010	4278.266007	32074.917831
57.535500	-0.003765	-0.014065	0.001863	-0.095765	8097.980710	58338.035547	4211.193276	30968.718085
58.035500	-0.002789	-0.009358	-0.001121	-0.070877	7808.247966	55813.441788	4114.810126	29393.412719
58.536000	-0.001891	-0.008565	-0.003686	-0.073633	7851.512873	56249.008571	4115.449360	29563.493612
59.036500	-0.006034	-0.007113	-0.003994	-0.050770	7540.295703	53674.890378	4039.868155	28185.090982
59.537000	-0.005248	-0.007572	-0.000243	-0.039349	7422.964711	52300.425505	4015.722951	27523.246122
60.037000	-0.007332	-0.006569	0.004819	-0.033513	7337.430627	51751.909906	4013.312696	27191.706919
60.537000	-0.005913	-0.006768	-0.002208	-0.026996	7283.185483	50999.736021	3971.778056	26826.698803
61.037000	-0.008535	-0.006302	-0.002229	-0.020757	7190.406984	50362.398105	3953.014153	26482.334030
61.535000	-0.008772	-0.007422	-0.001242	-0.025612	7238.522762	50773.824071	3970.515977	26749.886961
62.035500	-0.008885	-0.007391	0.001935	-0.029360	7276.756258	51193.605383	3991.569398	26958.460679
62.535500	-0.008955	-0.006619	-0.003494	-0.031942	7303.362511	51569.248493	3982.874981	27103.196082
63.035500	-0.011861	-0.008065	-0.007228	-0.033838	7292.641174	51619.785782	3977.288959	27210.014621
63.536500	-0.007187	-0.008228	0.001664	-0.048306	7500.074852	53256.856472	4050.050272	28040.841050
64.039000	-0.008394	-0.008454	-0.002120	-0.048215	7485.714631	53219.891626	4037.706898	28035.512900
64.540000	-0.006267	-0.006126	0.001612	-0.040785	7427.510486	52630.353003	4026.032571	27605.498378
65.037000	-0.009325	-0.007335	-0.002474	-0.042382	7411.592368	52674.982352	4018.227125	27697.305212
65.542500	-0.006101	-0.006597	0.000759	-0.043140	7455.090630	52847.248097	4030.761486	27740.980476
66.045500	-0.005520	-0.006435	-0.001348	-0.043043	7460.399173	52854.707264	4023.823596	27735.386895
66.534500	-0.004904	-0.006369	-0.003059	-0.043531	7472.542437	52918.729672	4019.991536	27763.544889
67.035000	-0.007936	-0.006770	-0.002034	-0.039023	7390.228450	52354.713462	4009.136154	27504.598751
67.536000	-0.004514	-0.006769	0.002917	-0.044949	7492.491000	53036.492438	4043.332754	27845.561464
68.036000	-0.006332	-0.007282	-0.000826	-0.046238	7486.643065	53126.392742	4035.539770	27920.340312
68.536500	-0.005448	-0.006285	0.001390	-0.041361	7442.753834	52678.258004	4027.144373	27638.578711
69.036500	-0.002597	-0.006304	-0.000445	-0.046850	7534.908453	53311.289120	4038.689924	27955.961158
69.537000	-0.004365	-0.006431	0.000052	-0.047501	7522.455942	53372.327053	4042.335508	27993.857667
70.037500	-0.003093	-0.005862	0.006315	-0.047531	7536.970910	53442.220011	4062.503195	27995.620961
70.540500	-0.005130	-0.005944	-0.002826	-0.041722	7450.186347	52759.104245	4015.068174	27659.321229
71.035500	-0.005693	-0.006083	-0.000775	-0.042482	7452.340556	52830.569120	4023.861088	27703.042548
71.535500	-0.002894	-0.006094	0.005876	-0.047434	7538.113134	53403.775313	4060.774933	27989.969923
72.035500	-0.001270	-0.005707	0.002129	-0.046794	7549.103353	53374.312132	4046.700558	27952.678221
72.535000	-0.006586	-0.006058	0.002151	-0.041528	7432.132054	52723.630840	4030.067633	27648.166216
73.036000	-0.006567	-0.006398	0.001075	-0.040476	7420.862925	52563.543709	4023.372423	27587.741693
73.536500	-0.003356	-0.006749	-0.002532	-0.046418	7521.645396	53209.309573	4030.721447	27930.840796
74.041000	-0.002398	-0.006432	0.002311	-0.045372	7520.667850	53124.623930	4042.752426	27870.122507
74.536500	-0.005439	-0.005998	0.000160	-0.038665	7413.426212	52402.040083	4014.847356	27484.130509
75.037000	-0.006795	-0.006832	-0.003161	-0.038697	7399.048254	52310.422915	4004.628866	27485.962899
75.534500	-0.003804	-0.006507	0.002734	-0.043027	7479.111093	52844.646095	4036.649025	27734.486640
76.034500	-0.002340	-0.006368	0.002422	-0.042046	7484.445279	52747.487567	4032.555195	27677.947512
76.535000	-0.006229	-0.006369	-0.000223	-0.036043	7376.472297	52061.013275	4005.510710	27334.895463
77.036000	-0.003061	-0.006721	-0.001231	-0.040615	7460.750467	52542.576555	4016.593813	27595.764109
77.536000	-0.004507	-0.005907	0.002398	-0.039467	7432.327909	52504.167160	4024.358015	27529.961709
78.036500	-0.004573	-0.006605	-0.000710	-0.038829	7424.647860	52351.372587	4012.649054	27493.515516
78.537000	-0.007934	-0.006391	-0.004517	-0.032014	7314.998202	51603.037975	3979.981106	27107.259585
79.038500	-0.010206	-0.007446	-0.002769	-0.033090	7302.277452	51605.347025	3988.590470	27167.851837
79.540000	-0.008507	-0.006847	-0.001055	-0.036423	7356.029303	52049.824846	4004.113090	27356.475120
80.035000	-0.006056	-0.006584	0.001495	-0.035263	7369.927604	51948.076343	4008.419011	27290.659460
80.537500	-0.009243	-0.007331	-0.003661	-0.028891	7268.023956	51147.899036	3973.112864	26932.249380
81.035500	-0.009824	-0.007254	-0.004909	-0.030319	7276.968516	51315.948694	3973.655098	27012.104122
81.535500	-0.007581	-0.006917	-0.004451	-0.033473	7334.327134	51708.075571	3984.621215	27189.424459
82.035500	-0.006665	-0.006289	0.002759	-0.031664	7324.787844	51575.081982	4001.191190	27087.562399
82.536000	-0.007544	-0.007394	-0.000493	-0.032344	7322.663528	51527.319530	3993.273183	27125.799960
83.036500	-0.010181	-0.006846	-0.004094	-0.028367	7252.643945	51143.632392	3970.224617	26903.011463
83.539500	-0.006547	-0.006096	0.003756	-0.029824	7306.454591	51390.214022	3998.590688	26984.418753
84.037000	-0.005396	-0.006309	0.000506	-0.029355	7313.706072	51313.945212	3987.182487	26958.185320
84.537000	-0.010293	-0.006193	-0.003984	-0.022394	7189.155863	50554.225204	3952.662974	26572.216059
85.034500	-0.007754	-0.005593	-0.004868	-0.023252	7224.487254	50715.111613	3952.587922	26619.461236
85.535000	-0.005970	-0.005884	0.001659	-0.027055	7283.203171	51104.626472	3983.683788	26829.956328
86.035000	-0.005154	-0.006064	0.001277	-0.026370	7284.597428	51008.492719	3980.438131	26791.945240
86.535000	-0.009961	-0.005400	-0.001779	-0.019405	7161.714902	50313.178123	3950.336499	26408.407098
87.035500	-0.008166	-0.005170	0.000369	-0.020354	7190.050057	50442.402128	3959.561582	26460.260533
87.536000	-0.005269	-0.005291	0.001708	-0.024540	7264.062436	50891.098638	3976.192924	26690.552918
88.039500	-0.006212	-0.005605	0.002147	-0.024084	7249.355022	50805.837692	3976.143486	26665.376999
88.539500	-0.004685	-0.004347	0.001101	-0.023059	7254.627249	50831.583788	3969.885540	26608.846294
89.037000	-0.006725	-0.005637	0.001882	-0.023386	7236.656852	50725.112247	3973.229849	26626.873313
89.537000	-0.004892	-0.005129	-0.001384	-0.022174	7243.152433	50647.195934	3959.762260	26560.100995
90.034500	-0.004350	-0.005251	-0.002139	-0.022195	7249.058769	50636.102537	3957.569208	26561.261059
90.535000	-0.008736	-0.005624	-0.004309	-0.015912	7138.417039	49907.668996	3932.569823	26218.332184
91.035500	-0.004538	-0.004843	0.003280	-0.021321	7237.929811	50584.753646	3971.213359	26513.269975
91.536000	-0.005944	-0.004992	0.003312	-0.021069	7220.594856	50540.617824	3970.551145	26499.451109
92.036000	-0.006145	-0.005163	0.002338	-0.020531	7212.900132	50462.652952	3965.997500	26469.990624
92.536000	-0.005756	-0.004871	0.001530	-0.020527	7216.910171	50494.341979	3963.559910	26469.762976
93.036500	-0.003776	-0.004710	0.000327	-0.019902	7231.048400	50443.319237	3958.084244	26435.527734
93.539000	-0.002404	-0.004730	0.003087	-0.019252	7238.609425	50369.736311	3964.405451	26400.023866
94.037500	-0.005610	-0.004959	-0.003027	-0.019387	7206.553715	50359.543892	3946.582124	26407.423043
94.537500	-0.009406	-0.004344	-0.005104	-0.013353	7105.464368	49768.879034	3922.785602	26080.064832
95.037500	-0.007513	-0.004658	0.003163	-0.015980	7151.665816	50020.108079	3954.846558	26222.011614
95.570500	-0.003966	-0.004528	-0.001056	-0.018008	7209.313770	50255.554216	3948.332110	26332.181462
96.035000	-0.006864	-0.004675	0.000834	-0.018376	7183.055549	50279.781478	3955.045807	26352.236248
96.554500	-0.010128	-0.004520	-0.000410	-0.010928	7073.576400	49488.076101	3929.396447	25949.797786
97.036000	-0.005172	-0.003789	0.004704	-0.014624	7161.797266	49967.133181	3955.396452	26148.643008
97.538500	-0.005944	-0.004603	0.003116	-0.017229	7180.714478	50162.371156	3958.434579	26289.842500
98.036500	-0.006432	-0.005266	-0.001127	-0.017800	7181.571369	50152.259267	3947.506400	26320.878155
98.537500	-0.008516	-0.004480	-0.002550	-0.010972	7090.332733	49497.168159	3923.292152	25952.201081
99.037500	-0.006173	-0.004077	0.000843	-0.015344	7158.900943	50014.117539	3946.069119	26187.588157
