sample name	sample
index	1293
start time	 04-29-2021  03:21:37 PM


Wavelength (nm)	Absorbance
494.344910	NaN
494.563924	NaN
494.782919	NaN
495.001897	NaN
495.220856	NaN
495.439797	-1.465064
495.658719	-0.413631
495.877624	-0.503586
496.096510	0.272163
496.315378	0.534937
496.534227	-0.255499
496.753059	-0.107239
496.971872	0.058647
497.190667	0.033273
497.409444	0.033807
497.628203	0.033874
497.846943	0.033403
498.065665	0.031478
498.284369	0.033288
498.503055	0.033844
498.721723	0.033495
498.940372	0.033500
499.159003	0.032563
499.377616	0.032448
499.596210	0.031877
499.814787	0.032414
500.033345	0.032960
500.251885	0.031703
500.470406	0.030783
500.688910	0.030604
500.907395	0.029650
501.125862	0.030702
501.344311	0.030863
501.562742	0.030397
501.781154	0.029676
501.999548	0.028948
502.217924	0.028906
502.436282	0.029572
502.654621	0.030104
502.872942	0.030281
503.091245	0.028937
503.309530	0.027038
503.527797	0.026951
503.746045	0.027045
503.964275	0.028071
504.182487	0.028589
504.400681	0.028600
504.618856	0.027214
504.837013	0.027508
505.055152	0.028305
505.273273	0.028753
505.491376	0.029353
505.709460	0.029238
505.927526	0.028575
506.145574	0.028368
506.363604	0.027969
506.581615	0.029248
506.799608	0.027896
507.017583	0.027158
507.235540	0.028253
507.453478	0.027942
507.671399	0.028390
507.889301	0.027688
508.107185	0.027892
508.325050	0.027808
508.542898	0.027091
508.760727	0.027014
508.978538	0.027445
509.196330	0.026372
509.414105	0.025364
509.631861	0.025331
509.849599	0.026765
510.067319	0.026005
510.285021	0.025785
510.502704	0.025434
510.720369	0.026167
510.938016	0.026484
511.155645	0.026921
511.373255	0.026995
511.590848	0.025827
511.808422	0.024878
512.025977	0.025437
512.243515	0.025518
512.461034	0.025406
512.678536	0.024755
512.896018	0.023631
513.113483	0.023882
513.330930	0.024842
513.548358	0.025376
513.765768	0.024639
513.983160	0.024586
514.200533	0.024435
514.417889	0.024599
514.635226	0.025569
514.852545	0.026123
515.069845	0.025631
515.287128	0.025443
515.504392	0.025571
515.721638	0.025934
515.938866	0.025566
516.156075	0.025410
516.373267	0.025590
516.590440	0.025446
516.807594	0.025207
517.024731	0.025198
517.241850	0.024737
517.458950	0.024843
517.676032	0.025114
517.893095	0.024196
518.110141	0.024491
518.327168	0.025240
518.544177	0.024581
518.761168	0.024643
518.978141	0.024748
519.195095	0.025835
519.412031	0.025658
519.628949	0.025565
519.845849	0.026120
520.062731	0.025450
520.279594	0.025223
520.496439	0.025538
520.713266	0.024998
520.930074	0.024462
521.146865	0.023567
521.363637	0.022866
521.580391	0.022733
521.797127	0.023337
522.013844	0.024056
522.230543	0.023870
522.447224	0.023848
522.663887	0.024366
522.880532	0.024471
523.097158	0.024817
523.313766	0.025180
523.530356	0.024570
523.746928	0.024168
523.963481	0.023606
524.180017	0.022795
524.396534	0.022821
524.613032	0.022557
524.829513	0.023013
525.045975	0.022910
525.262420	0.022718
525.478845	0.023736
525.695253	0.023140
525.911643	0.022871
526.128014	0.023321
526.344367	0.022863
526.560702	0.023357
526.777018	0.022668
526.993316	0.022078
527.209597	0.022599
527.425858	0.022164
527.642102	0.023016
527.858328	0.023443
528.074535	0.023189
528.290724	0.023324
528.506894	0.023007
528.723047	0.022909
528.939181	0.022905
529.155297	0.022544
529.371395	0.022653
529.587475	0.022152
529.803536	0.022377
530.019579	0.022058
530.235604	0.022095
530.451611	0.021940
530.667600	0.022072
530.883570	0.021821
531.099522	0.021949
531.315456	0.021646
531.531372	0.021406
531.747269	0.020731
531.963148	0.020987
532.179009	0.021089
532.394852	0.021190
532.610676	0.021391
532.826482	0.022190
533.042271	0.021778
533.258040	0.022032
533.473792	0.022063
533.689525	0.022960
533.905240	0.023170
534.120937	0.022673
534.336616	0.022152
534.552277	0.021957
534.767919	0.021064
534.983543	0.021093
535.199149	0.020340
535.414736	0.020662
535.630306	0.020216
535.845857	0.020000
536.061390	0.020337
536.276904	0.021003
536.492401	0.021133
536.707879	0.021996
536.923339	0.022182
537.138781	0.022559
537.354204	0.022110
537.569610	0.022153
537.784997	0.022258
538.000366	0.021749
538.215716	0.021551
538.431049	0.021142
538.646363	0.020728
538.861659	0.020659
539.076937	0.020644
539.292196	0.021004
539.507438	0.020424
539.722661	0.020017
539.937866	0.020216
540.153052	0.019967
540.368221	0.020357
540.583371	0.020664
540.798503	0.020509
541.013617	0.020348
541.228712	0.019780
541.443789	0.019866
541.658848	0.019780
541.873889	0.020066
542.088912	0.019907
542.303916	0.019533
542.518902	0.019005
542.733870	0.018673
542.948820	0.019044
543.163752	0.019191
543.378665	0.019183
543.593560	0.019706
543.808437	0.019210
544.023295	0.019269
544.238136	0.019155
544.452958	0.018899
544.667762	0.018774
544.882548	0.018032
545.097315	0.017554
545.312064	0.017830
545.526795	0.017600
545.741508	0.017633
545.956203	0.017467
546.170879	0.017834
546.385537	0.017934
546.600177	0.018397
546.814799	0.018956
547.029402	0.019336
547.243988	0.019397
547.458555	0.019284
547.673103	0.019575
547.887634	0.019834
548.102146	0.019597
548.316640	0.019387
548.531116	0.019128
548.745574	0.018834
548.960013	0.018828
549.174435	0.018803
549.388838	0.018867
549.603222	0.018386
549.817589	0.017991
550.031937	0.017994
550.246267	0.018302
550.460579	0.018667
550.674873	0.018638
550.889148	0.018229
551.103405	0.018079
551.317644	0.017618
551.531865	0.018043
551.746068	0.017994
551.960252	0.017975
552.174418	0.017880
552.388566	0.017299
552.602696	0.016871
552.816807	0.017243
553.030900	0.017689
553.244975	0.017904
553.459032	0.017821
553.673070	0.017966
553.887091	0.017898
554.101093	0.017992
554.315077	0.018337
554.529042	0.018874
554.742990	0.018718
554.956919	0.018062
555.170830	0.018237
555.384722	0.018020
555.598597	0.017579
555.812453	0.017332
556.026291	0.017241
556.240111	0.017048
556.453913	0.016760
556.667696	0.017044
556.881461	0.017187
557.095208	0.016908
557.308937	0.016895
557.522647	0.017336
557.736339	0.017337
557.950013	0.017229
558.163669	0.017555
558.377307	0.017274
558.590926	0.017146
558.804527	0.017345
559.018110	0.017365
559.231675	0.017379
559.445221	0.017300
559.658749	0.017313
559.872259	0.017564
560.085751	0.017301
560.299225	0.017754
560.512680	0.017621
560.726117	0.017402
560.939536	0.017393
561.152937	0.017475
561.366319	0.017081
561.579683	0.017208
561.793029	0.016897
562.006357	0.016883
562.219667	0.016970
562.432958	0.017211
562.646231	0.017312
562.859486	0.017419
563.072723	0.017251
563.285941	0.017386
563.499141	0.017489
563.712323	0.017316
563.925487	0.017323
564.138632	0.017063
564.351760	0.016911
564.564869	0.017074
564.777960	0.016945
564.991032	0.017118
565.204087	0.017121
565.417123	0.017192
565.630141	0.017561
565.843140	0.017324
566.056122	0.017360
566.269085	0.017173
566.482030	0.017161
566.694957	0.017245
566.907866	0.017225
567.120756	0.017714
567.333628	0.017293
567.546482	0.017276
567.759318	0.017713
567.972135	0.017712
568.184935	0.017918
568.397716	0.017622
568.610478	0.017660
568.823223	0.017467
569.035949	0.017350
569.248657	0.017554
569.461347	0.017569
569.674019	0.017015
569.886672	0.016799
570.099308	0.016547
570.311925	0.016505
570.524523	0.016106
570.737104	0.016227
570.949666	0.015996
571.162210	0.016056
571.374736	0.016032
571.587244	0.016060
571.799733	0.016367
572.012205	0.016419
572.224658	0.016739
572.437092	0.016868
572.649509	0.016801
572.861907	0.016670
573.074287	0.016447
573.286649	0.016337
573.498993	0.016529
573.711318	0.016431
573.923625	0.016335
574.135914	0.015727
574.348185	0.015640
574.560438	0.015441
574.772672	0.015455
574.984888	0.015783
575.197086	0.015894
575.409266	0.015624
575.621427	0.015312
575.833570	0.015742
576.045695	0.015955
576.257802	0.015916
576.469890	0.016141
576.681961	0.016513
576.894013	0.016124
577.106046	0.015684
577.318062	0.015878
577.530059	0.016154
577.742039	0.015612
577.954000	0.015506
578.165942	0.015749
578.377867	0.015621
578.589773	0.015353
578.801661	0.015594
579.013531	0.015762
579.225382	0.015751
579.437216	0.015686
579.649031	0.015580
579.860828	0.015626
580.072606	0.015606
580.284367	0.015718
580.496109	0.015666
580.707833	0.015500
580.919539	0.015355
581.131227	0.015279
581.342896	0.015232
581.554547	0.015592
581.766180	0.015416
581.977795	0.015357
582.189391	0.015304
582.400969	0.015405
582.612529	0.015311
582.824071	0.015455
583.035595	0.015348
583.247100	0.015326
583.458587	0.015416
583.670056	0.015453
583.881506	0.015577
584.092939	0.015475
584.304353	0.015259
584.515749	0.015111
584.727127	0.014686
584.938486	0.014939
585.149828	0.015013
585.361151	0.014744
585.572456	0.014714
585.783742	0.014607
585.995011	0.014751
586.206261	0.014705
586.417493	0.014981
586.628706	0.015314
586.839902	0.015145
587.051079	0.015088
587.262238	0.015347
587.473379	0.015364
587.684502	0.014998
587.895606	0.014908
588.106692	0.014940
588.317760	0.014612
588.528810	0.014720
588.739841	0.014641
588.950855	0.014694
589.161850	0.014688
589.372827	0.014997
589.583785	0.015430
589.794726	0.015529
590.005648	0.015796
590.216552	0.016160
590.427437	0.016135
590.638305	0.016346
590.849154	0.016287
591.059985	0.016196
591.270798	0.016189
591.481592	0.016242
591.692369	0.016162
591.903127	0.015880
592.113867	0.015721
592.324588	0.015705
592.535292	0.015677
592.745977	0.015470
592.956644	0.015307
593.167293	0.014874
593.377923	0.014668
593.588536	0.014710
593.799130	0.014966
594.009706	0.014800
594.220263	0.014571
594.430803	0.014906
594.641324	0.015228
594.851827	0.015302
595.062312	0.015378
595.272778	0.015345
595.483227	0.015142
595.693657	0.015036
595.904069	0.015148
596.114462	0.015456
596.324838	0.014827
596.535195	0.014688
596.745534	0.014476
596.955855	0.014401
597.166157	0.014340
597.376441	0.014005
597.586707	0.014103
597.796955	0.014103
598.007185	0.014032
598.217396	0.014073
598.427589	0.013882
598.637764	0.013897
598.847921	0.013826
599.058060	0.013782
599.268180	0.014213
599.478282	0.013792
599.688366	0.013646
599.898431	0.013432
600.108479	0.013357
600.318508	0.013411
600.528519	0.013475
600.738511	0.013839
600.948486	0.014024
601.158442	0.013799
601.368380	0.013722
601.578300	0.013852
601.788202	0.013859
601.998085	0.013847
602.207950	0.013753
602.417797	0.013449
602.627626	0.012832
602.837436	0.012606
603.047228	0.012683
603.257002	0.012901
603.466758	0.012756
603.676496	0.012775
603.886215	0.012867
604.095916	0.012783
604.305599	0.012967
604.515264	0.013287
604.724910	0.013214
604.934538	0.013100
605.144148	0.012789
605.353740	0.012869
605.563314	0.012661
605.772869	0.012801
605.982406	0.012628
606.191925	0.012497
606.401425	0.012348
606.610908	0.012265
606.820372	0.012233
607.029818	0.012156
607.239246	0.012129
607.448655	0.012184
607.658047	0.012003
607.867420	0.012063
608.076775	0.012155
608.286111	0.011930
608.495430	0.011968
608.704730	0.011937
608.914012	0.011968
609.123275	0.011895
609.332521	0.011937
609.541748	0.011897
609.750957	0.011839
609.960148	0.011799
610.169321	0.012043
610.378475	0.012130
610.587611	0.012178
610.796729	0.012310
611.005829	0.012134
611.214910	0.012034
611.423974	0.011951
611.633019	0.012161
611.842045	0.012096
612.051054	0.012007
612.260044	0.011785
612.469017	0.011811
612.677970	0.011629
612.886906	0.011709
613.095824	0.011728
613.304723	0.011707
613.513604	0.011706
613.722467	0.011613
613.931311	0.011774
614.140138	0.011823
614.348946	0.011680
614.557736	0.011673
614.766507	0.011699
614.975261	0.011655
615.183996	0.011667
615.392713	0.011821
615.601412	0.011913
615.810092	0.012012
616.018754	0.011956
616.227399	0.011837
616.436024	0.012054
616.644632	0.011970
616.853222	0.012098
617.061793	0.012121
617.270346	0.011870
617.478880	0.011704
617.687397	0.011229
617.895895	0.011284
618.104375	0.011148
618.312837	0.010994
618.521281	0.010930
618.729706	0.010780
618.938113	0.010608
619.146502	0.010473
619.354873	0.010487
619.563226	0.010448
619.771560	0.010534
619.979876	0.010528
620.188174	0.010669
620.396453	0.010523
620.604715	0.010658
620.812958	0.010829
621.021183	0.010794
621.229390	0.010809
621.437578	0.010961
621.645748	0.010619
621.853900	0.010809
622.062034	0.010576
622.270150	0.010737
622.478247	0.010632
622.686326	0.010295
622.894387	0.010489
623.102430	0.010308
623.310454	0.010262
623.518461	0.010446
623.726449	0.010103
623.934418	0.009970
624.142370	0.010013
624.350303	0.009763
624.558218	0.009683
624.766115	0.009417
624.973994	0.009529
625.181855	0.009430
625.389697	0.009364
625.597521	0.009336
625.805327	0.009367
626.013114	0.009229
626.220883	0.009301
626.428634	0.009681
626.636367	0.009641
626.844082	0.009621
627.051778	0.009793
627.259457	0.009637
627.467117	0.010038
627.674758	0.010335
627.882382	0.010274
628.089987	0.010117
628.297574	0.010078
628.505143	0.010417
628.712694	0.010260
628.920226	0.009937
629.127740	0.010000
629.335236	0.009778
629.542714	0.009577
629.750174	0.009458
629.957615	0.009576
630.165038	0.009348
630.372443	0.009092
630.579829	0.009099
630.787198	0.009214
630.994548	0.009300
631.201880	0.009321
631.409194	0.009289
631.616489	0.009494
631.823766	0.009410
632.031025	0.009483
632.238266	0.009516
632.445489	0.009693
632.652693	0.009757
632.859879	0.009717
633.067047	0.009643
633.274197	0.009659
633.481329	0.009536
633.688442	0.009808
633.895537	0.009675
634.102614	0.009599
634.309672	0.009608
634.516713	0.009618
634.723735	0.009581
634.930739	0.009604
635.137724	0.009394
635.344692	0.009481
635.551641	0.009224
635.758572	0.009413
635.965485	0.009529
636.172379	0.009498
636.379256	0.009400
636.586114	0.009403
636.792954	0.009428
636.999775	0.009372
637.206579	0.009329
637.413364	0.009403
637.620131	0.009435
637.826880	0.009142
638.033610	0.009149
638.240323	0.009214
638.447017	0.009264
638.653692	0.009222
638.860350	0.009461
639.066990	0.009452
639.273611	0.009536
639.480214	0.009402
639.686798	0.009686
639.893365	0.009534
640.099913	0.009553
640.306443	0.009405
640.512955	0.009553
640.719449	0.009225
640.925924	0.009143
641.132381	0.008816
641.338820	0.008880
641.545241	0.008582
641.751644	0.008600
641.958028	0.008554
642.164394	0.008468
642.370742	0.008413
642.577071	0.008725
642.783383	0.008792
642.989676	0.008916
643.195951	0.008945
643.402207	0.009070
643.608446	0.009078
643.814666	0.008895
644.020868	0.008957
644.227052	0.008968
644.433218	0.009003
644.639365	0.008958
644.845494	0.009062
645.051605	0.009019
645.257698	0.009144
645.463772	0.009233
645.669828	0.009470
645.875866	0.009586
646.081886	0.009513
646.287888	0.009547
646.493871	0.009647
646.699836	0.009594
646.905783	0.009493
647.111712	0.009241
647.317622	0.009271
647.523514	0.009338
647.729388	0.009212
647.935244	0.009147
648.141082	0.009090
648.346901	0.009098
648.552702	0.009136
648.758485	0.009211
648.964250	0.009470
649.169996	0.009325
649.375724	0.009124
649.581434	0.009345
649.787126	0.009329
649.992800	0.009298
650.198455	0.009533
650.404092	0.009530
650.609711	0.009639
650.815311	0.009636
651.020894	0.009730
651.226458	0.009843
651.432004	0.009727
651.637532	0.009808
651.843041	0.009876
652.048532	0.009743
652.254006	0.009719
652.459460	0.009615
652.664897	0.009723
652.870315	0.009779
653.075716	0.009840
653.281097	0.009981
653.486461	0.010099
653.691807	0.009994
653.897134	0.009869
654.102443	0.010089
654.307734	0.010099
654.513006	0.009926
654.718261	0.010000
654.923497	0.009921
655.128715	0.009875
655.333915	0.010081
655.539096	0.010301
655.744259	0.010350
655.949404	0.010265
656.154531	0.010230
656.359640	0.010427
656.564730	0.010541
656.769802	0.010640
656.974856	0.010578
657.179892	0.010389
657.384909	0.010363
657.589908	0.010576
657.794889	0.010658
657.999852	0.010952
658.204797	0.010939
658.409723	0.010639
658.614631	0.010605
658.819521	0.010573
659.024393	0.010461
659.229246	0.010421
659.434081	0.010382
659.638898	0.010343
659.843697	0.010209
660.048478	0.010309
660.253240	0.010521
660.457984	0.010687
660.662710	0.010882
660.867417	0.010904
661.072107	0.010999
661.276778	0.010832
661.481431	0.010753
661.686066	0.010804
661.890682	0.010724
662.095281	0.010557
662.299861	0.010413
662.504422	0.010426
662.708966	0.010681
662.913491	0.010582
663.117999	0.010607
663.322488	0.010764
663.526958	0.010739
663.731411	0.010628
663.935845	0.010947
664.140261	0.011149
664.344659	0.011112
664.549038	0.010982
664.753400	0.010894
664.957743	0.010802
665.162068	0.010752
665.366375	0.010708
665.570663	0.010743
665.774933	0.010467
665.979185	0.010429
666.183419	0.010333
666.387635	0.010332
666.591832	0.010412
666.796011	0.010490
667.000172	0.010498
667.204315	0.010479
667.408439	0.010497
667.612545	0.010553
667.816634	0.010261
668.020703	0.010166
668.224755	0.009942
668.428788	0.009744
668.632803	0.009921
668.836800	0.009684
669.040779	0.009545
669.244739	0.009291
669.448681	0.009201
669.652605	0.009197
669.856511	0.009285
670.060399	0.009508
670.264268	0.009547
670.468119	0.009361
670.671952	0.009429
670.875767	0.009317
671.079563	0.009391
671.283341	0.009348
671.487101	0.009325
671.690843	0.009457
671.894567	0.009356
672.098272	0.009510
672.301959	0.009629
672.505628	0.009832
672.709278	0.009938
672.912911	0.010136
673.116525	0.010327
673.320121	0.010261
673.523699	0.010131
673.727258	0.010148
673.930799	0.010143
674.134322	0.010036
674.337827	0.009827
674.541314	0.009964
674.744782	0.009882
674.948232	0.009654
675.151664	0.009830
675.355078	0.009792
675.558474	0.009743
675.761851	0.009542
675.965210	0.009621
676.168551	0.009498
676.371873	0.009333
676.575178	0.009328
676.778464	0.009523
676.981732	0.009503
677.184981	0.009481
677.388213	0.009520
677.591426	0.009660
677.794621	0.009582
677.997798	0.009766
678.200956	0.009800
678.404097	0.009804
678.607219	0.009524
678.810323	0.009504
679.013408	0.009504
679.216476	0.009476
679.419525	0.009550
679.622556	0.009457
679.825569	0.009558
680.028563	0.009628
680.231540	0.009806
680.434498	0.009888
680.637438	0.010012
680.840359	0.010119
681.043263	0.010130
681.246148	0.010145
681.449015	0.010074
681.651864	0.009964
681.854694	0.009949
682.057506	0.009905
682.260301	0.010247
682.463076	0.010201
682.665834	0.010105
682.868573	0.010264
683.071295	0.010200
683.273998	0.010372
683.476682	0.010291
683.679349	0.010416
683.881997	0.010469
684.084627	0.010267
684.287239	0.010368
684.489833	0.010467
684.692408	0.010334
684.894965	0.010287
685.097504	0.010397
685.300025	0.010548
685.502527	0.010492
685.705012	0.010385
685.907478	0.010514
686.109925	0.010650
686.312355	0.010668
686.514766	0.010804
686.717159	0.010951
686.919534	0.010871
687.121891	0.010909
687.324230	0.011035
687.526550	0.011009
687.728852	0.011093
687.931136	0.010918
688.133401	0.011097
688.335649	0.011124
688.537878	0.011262
688.740089	0.011248
688.942281	0.011333
689.144456	0.011200
689.346612	0.011307
689.548750	0.011150
689.750870	0.011264
689.952971	0.011167
690.155055	0.011155
690.357120	0.011114
690.559167	0.011303
690.761195	0.011253
690.963206	0.011491
691.165198	0.011514
691.367172	0.011524
691.569128	0.011392
691.771065	0.011288
691.972984	0.011174
692.174885	0.011041
692.376768	0.011071
692.578633	0.010963
692.780479	0.010650
692.982308	0.010478
693.184118	0.010406
693.385909	0.010299
693.587683	0.010355
693.789438	0.010344
693.991175	0.010318
694.192894	0.009943
694.394595	0.010037
694.596277	0.010153
694.797941	0.010074
694.999587	0.010114
695.201215	0.010187
695.402824	0.010038
695.604416	0.010133
695.805989	0.010079
696.007543	0.010214
696.209080	0.010091
696.410598	0.009985
696.612099	0.009960
696.813580	0.009914
697.015044	0.009879
697.216490	0.010017
697.417917	0.009941
697.619326	0.009901
697.820717	0.009968
698.022089	0.010166
698.223444	0.010332
698.424780	0.010459
698.626098	0.010471
698.827397	0.010566
699.028679	0.010527
699.229942	0.010555
699.431187	0.010702
699.632414	0.010636
699.833622	0.010486
700.034813	0.010331
700.235985	0.010329
700.437139	0.010341
700.638274	0.010309
700.839392	0.010373
701.040491	0.010420
701.241572	0.010495
701.442635	0.010638
701.643679	0.010673
701.844706	0.010852
702.045714	0.010960
702.246704	0.010876
702.447675	0.010925
702.648629	0.010730
702.849564	0.010621
703.050481	0.010445
703.251380	0.010229
703.452260	0.010076
703.653122	0.009963
703.853966	0.009875
704.054792	0.009999
704.255600	0.009769
704.456389	0.009897
704.657160	0.009956
704.857913	0.009959
705.058648	0.009950
705.259365	0.009928
705.460063	0.009889
705.660743	0.009714
705.861405	0.009675
706.062048	0.009760
706.262674	0.009637
706.463281	0.009512
706.663870	0.009499
706.864441	0.009581
707.064993	0.009612
707.265527	0.009460
707.466043	0.009721
707.666541	0.009741
707.867021	0.009864
708.067482	0.009981
708.267925	0.010309
708.468350	0.010562
708.668757	0.010610
708.869145	0.010788
709.069516	0.011064
709.269868	0.011048
709.470201	0.011179
709.670517	0.011166
709.870814	0.011117
710.071093	0.010857
710.271354	0.010677
710.471597	0.010584
710.671821	0.010731
710.872028	0.010727
711.072216	0.010680
711.272385	0.010754
711.472537	0.010601
711.672670	0.010676
711.872785	0.010772
712.072882	0.010846
712.272961	0.010926
712.473021	0.010633
712.673063	0.010711
712.873087	0.010548
713.073093	0.010177
713.273081	0.010232
713.473050	0.010035
713.673001	0.009962
713.872934	0.009802
714.072849	0.009670
714.272745	0.009612
714.472623	0.009343
714.672483	0.009298
714.872325	0.009294
715.072148	0.009178
715.271954	0.009355
715.471741	0.009272
715.671509	0.009233
715.871260	0.009333
716.070992	0.009496
716.270707	0.009510
716.470403	0.009522
716.670080	0.009612
716.869740	0.009738
717.069381	0.009659
717.269004	0.009694
717.468609	0.009817
717.668195	0.009924
717.867764	0.009743
718.067314	0.009757
718.266846	0.009918
718.466360	0.010048
718.665855	0.010155
718.865332	0.010226
719.064791	0.010350
719.264232	0.010244
719.463655	0.010167
719.663059	0.010200
719.862445	0.010335
720.061813	0.010220
720.261163	0.010148
720.460494	0.010094
720.659807	0.010184
720.859102	0.010077
721.058379	0.010161
721.257638	0.010118
721.456878	0.010281
721.656100	0.010169
721.855304	0.010383
722.054490	0.010379
722.253657	0.010394
722.452806	0.010094
722.651937	0.010102
722.851050	0.009986
723.050145	0.010062
723.249221	0.009954
723.448279	0.009919
723.647319	0.009617
723.846340	0.009449
724.045344	0.009342
724.244329	0.009290
724.443296	0.009251
724.642245	0.009332
724.841175	0.009070
725.040088	0.008878
725.238982	0.008885
725.437857	0.008815
725.636715	0.008851
725.835554	0.008821
726.034376	0.008755
726.233179	0.008720
726.431963	0.008580
726.630730	0.008686
726.829478	0.008813
727.028208	0.008731
727.226920	0.008794
727.425614	0.008787
727.624289	0.008658
727.822946	0.008676
728.021585	0.008544
728.220206	0.008545
728.418808	0.008512
728.617392	0.008558
728.815958	0.008530
729.014506	0.008451
729.213036	0.008521
729.411547	0.008556
729.610040	0.008833
729.808515	0.008972
730.006972	0.009020
730.205410	0.008990
730.403831	0.008940
730.602233	0.009028
730.800616	0.009115
730.998982	0.009061
731.197329	0.009175
731.395658	0.009209
731.593969	0.009398
731.792262	0.009553
731.990536	0.009687
732.188793	0.009842
732.387031	0.009941
732.585250	0.010079
732.783452	0.010150
732.981635	0.010293
733.179800	0.010277
733.377947	0.010085
733.576076	0.010154
733.774186	0.010186
733.972278	0.010028
734.170352	0.009978
734.368408	0.009968
734.566446	0.009925
734.764465	0.009845
734.962466	0.009695
735.160449	0.009653
735.358413	0.009318
735.556360	0.009194
735.754288	0.009229
735.952198	0.009063
736.150090	0.009052
736.347963	0.008859
736.545818	0.008763
736.743655	0.008650
736.941474	0.008672
737.139275	0.008857
737.337057	0.008730
737.534821	0.008690
737.732567	0.008762
737.930295	0.008696
738.128005	0.008777
738.325696	0.008726
738.523369	0.008809
738.721024	0.008808
738.918660	0.008748
739.116279	0.008656
739.313879	0.008804
739.511461	0.008664
739.709024	0.008642
739.906570	0.008839
740.104097	0.008846
740.301606	0.008833
740.499097	0.008607
740.696569	0.008531
740.894024	0.008602
741.091460	0.008216
741.288878	0.008418
741.486277	0.008262
741.683659	0.008239
741.881022	0.008351
742.078367	0.008527
742.275694	0.008875
742.473002	0.009054
742.670293	0.009167
742.867565	0.009484
743.064819	0.009384
743.262054	0.009584
743.459272	0.009547
743.656471	0.009494
743.853652	0.009437
744.050815	0.009202
744.247959	0.009181
744.445085	0.009129
744.642194	0.009118
744.839283	0.009036
745.036355	0.009098
745.233408	0.009121
745.430444	0.009290
745.627461	0.009173
745.824459	0.009311
746.021440	0.009340
746.218402	0.009525
746.415346	0.009651
746.612272	0.009817
746.809180	0.009813
747.006069	0.009711
747.202940	0.009757
747.399793	0.009786
747.596628	0.009795
747.793444	0.009768
747.990243	0.009836
748.187023	0.009765
748.383784	0.009911
748.580528	0.009821
748.777253	0.010168
748.973960	0.010102
749.170649	0.010423
749.367320	0.010629
749.563973	0.010555
749.760607	0.010514
749.957223	0.010533
750.153821	0.010679
750.350400	0.010868
750.546962	0.010764
750.743505	0.010902
750.940030	0.010732
751.136536	0.010606
751.333025	0.010661
751.529495	0.010747
751.725947	0.010719
751.922381	0.010557
752.118796	0.010693
752.315194	0.010624
752.511573	0.010409
752.707934	0.010342
752.904276	0.010351
753.100601	0.010409
753.296907	0.010368
753.493195	0.010352
753.689465	0.010247
753.885716	0.010019
754.081949	0.009860
754.278164	0.009950
754.474361	0.010177
754.670540	0.010084
754.866700	0.009976
755.062843	0.009905
755.258967	0.009945
755.455072	0.009937
755.651160	0.010024
755.847229	0.010135
756.043280	0.010134
756.239313	0.010022
756.435328	0.009983
756.631324	0.010070
756.827302	0.009907
757.023262	0.009803
757.219204	0.009741
757.415127	0.009647
757.611033	0.009803
757.806920	0.009776
758.002788	0.009832
758.198639	0.010073
758.394471	0.010173
758.590286	0.010374
758.786081	0.010421
758.981859	0.010664
759.177619	0.010758
759.373360	0.010682
759.569083	0.010834
759.764788	0.010935
759.960474	0.010815
760.156143	0.010931
760.351793	0.010981
760.547425	0.011256
760.743038	0.011217
760.938634	0.011388
761.134211	0.011411
761.329770	0.011272
761.525311	0.011163
761.720833	0.011202
761.916338	0.011071
762.111824	0.011148
762.307292	0.011070
762.502741	0.011106
762.698173	0.010946
762.893586	0.010978
763.088981	0.010960
763.284358	0.010978
763.479716	0.011211
763.675057	0.011281
763.870379	0.011186
764.065683	0.011187
764.260968	0.011161
764.456236	0.011158
764.651485	0.011044
764.846716	0.011158
765.041929	0.011099
765.237123	0.011036
765.432299	0.010943
765.627457	0.010979
765.822597	0.010709
766.017719	0.010405
766.212822	0.010325
766.407907	0.010341
766.602974	0.010225
766.798023	0.010001
766.993054	0.009891
767.188066	0.009856
767.383060	0.009814
767.578036	0.009969
767.772993	0.010193
767.967933	0.010154
768.162854	0.010152
768.357757	0.010267
768.552642	0.010536
768.747508	0.010495
768.942356	0.010416
769.137186	0.010566
769.331998	0.010624
769.526792	0.010759
769.721567	0.010948
769.916324	0.010986
770.111063	0.010965
770.305784	0.011027
770.500486	0.011041
770.695171	0.011163
770.889837	0.011096
771.084484	0.010983
771.279114	0.010865
771.473725	0.010733
771.668318	0.010860
771.862893	0.010873
772.057450	0.010764
772.251988	0.010746
772.446509	0.010938
772.641011	0.010788
772.835494	0.010987
773.029960	0.011090
773.224407	0.011248
773.418836	0.011260
773.613247	0.011405
773.807640	0.011418
774.002014	0.011498
774.196370	0.011252
774.390708	0.011408
774.585028	0.011463
774.779330	0.011664
774.973613	0.011784
775.167878	0.011659
775.362125	0.011355
775.556354	0.011422
775.750564	0.011545
775.944756	0.011807
776.138930	0.011743
776.333086	0.011686
776.527223	0.011514
776.721343	0.011520
776.915444	0.011638
777.109526	0.011887
777.303591	0.012065
777.497637	0.011894
777.691666	0.011666
777.885676	0.011866
778.079667	0.011843
778.273641	0.011718
778.467596	0.011447
778.661533	0.011457
778.855452	0.011420
779.049352	0.011139
779.243235	0.011239
779.437099	0.011412
779.630945	0.011249
779.824773	0.011434
780.018582	0.011651
780.212373	0.011972
780.406146	0.012154
780.599901	0.012110
780.793638	0.012203
780.987356	0.012009
781.181056	0.011974
781.374738	0.012325
781.568402	0.012309
781.762047	0.012346
781.955674	0.012203
782.149283	0.012030
782.342874	0.012014
782.536447	0.012105
782.730001	0.012219
782.923537	0.012221
783.117055	0.011965
783.310555	0.011689
783.504036	0.011663
783.697499	0.011561
783.890944	0.011589
784.084371	0.011615
784.277780	0.011533
784.471170	0.011500
784.664542	0.011440
784.857896	0.011434
785.051231	0.011388
785.244549	0.011361
785.437848	0.011528
785.631129	0.011469
785.824392	0.011643
786.017636	0.011636
786.210863	0.011814
786.404071	0.012041
786.597260	0.012132
786.790432	0.012397
786.983585	0.012503
787.176721	0.012586
787.369838	0.012693
787.562936	0.012664
787.756017	0.012790
787.949079	0.012765
788.142123	0.012803
788.335149	0.012797
788.528156	0.012806
788.721146	0.012825
788.914117	0.012833
789.107070	0.012797
789.300005	0.012758
789.492921	0.012605
789.685819	0.012625
789.878699	0.012328
790.071561	0.012401
790.264405	0.012400
790.457230	0.012266
790.650037	0.012102
790.842826	0.012042
791.035597	0.012159
791.228349	0.012312
791.421084	0.012296
791.613800	0.012455
791.806497	0.012221
791.999177	0.012193
792.191838	0.012152
792.384481	0.012395
792.577106	0.012591
792.769713	0.012380
792.962301	0.012264
793.154871	0.012177
793.347423	0.012257
793.539957	0.012540
793.732473	0.012358
793.924970	0.012498
794.117449	0.012453
794.309910	0.012141
794.502353	0.012319
794.694777	0.012516
794.887183	0.012655
795.079571	0.012458
795.271941	0.012254
795.464293	0.012353
795.656626	0.012264
795.848941	0.012147
796.041238	0.012477
796.233516	0.012499
796.425777	0.012527
796.618019	0.012461
796.810243	0.012644
797.002449	0.012626
797.194636	0.012731
797.386805	0.012777
797.578956	0.012659
797.771089	0.012435
797.963204	0.012279
798.155300	0.012191
798.347378	0.012154
798.539438	0.012090
798.731480	0.012141
798.923503	0.012012
799.115509	0.012108
799.307496	0.012210
799.499465	0.012209
799.691415	0.012183
799.883348	0.012164
800.075262	0.012133
800.267158	0.012282
800.459035	0.012251
800.650895	0.012352
800.842736	0.012137
801.034559	0.012093
801.226364	0.012203
801.418150	0.012152
801.609919	0.012326
801.801669	0.012357
801.993401	0.012156
802.185114	0.012159
802.376810	0.012241
802.568487	0.012234
802.760146	0.012291
802.951787	0.012337
803.143409	0.012449
803.335014	0.012256
803.526600	0.012104
803.718168	0.012105
803.909717	0.011982
804.101249	0.011859
804.292762	0.011894
804.484257	0.011913
804.675734	0.011873
804.867192	0.011721
805.058632	0.011807
805.250054	0.011920
805.441458	0.011943
805.632844	0.012124
805.824211	0.012124
806.015561	0.012374
806.206891	0.012423
806.398204	0.012251
806.589499	0.012318
806.780775	0.012134
806.972033	0.012128
807.163273	0.012027
807.354495	0.011782
807.545698	0.011697
807.736883	0.011299
807.928050	0.011109
808.119199	0.011163
808.310329	0.011367
808.501441	0.011423
808.692535	0.011341
808.883611	0.011157
809.074669	0.011273
809.265708	0.011230
809.456729	0.011264
809.647732	0.011236
809.838717	0.011343
810.029683	0.011108
810.220632	0.011011
810.411562	0.011269
810.602474	0.011658
810.793367	0.011582
810.984242	0.011744
811.175100	0.011701
811.365938	0.011827
811.556759	0.011763
811.747562	0.011914
811.938346	0.012082
812.129112	0.011996
812.319860	0.011941
812.510589	0.012166
812.701300	0.011941
812.891994	0.012013
813.082668	0.011815
813.273325	0.011910
813.463964	0.011731
813.654584	0.011661
813.845186	0.011615
814.035769	0.011421
814.226335	0.011225
814.416882	0.011308
814.607411	0.011397
814.797922	0.011695
814.988415	0.011601
815.178889	0.011752
815.369345	0.011749
815.559783	0.011823
815.750203	0.011988
815.940605	0.012217
816.130988	0.012414
816.321353	0.012467
816.511700	0.012432
816.702028	0.012402
816.892339	0.012405
817.082631	0.012557
817.272905	0.012535
817.463161	0.012635
817.653398	0.012500
817.843617	0.012427
818.033819	0.012404
818.224001	0.012323
818.414166	0.012374
818.604312	0.012234
818.794440	0.012000
818.984550	0.011900
819.174642	0.011883
819.364716	0.011780
819.554771	0.011440
819.744808	0.011468
819.934827	0.011391
820.124827	0.011089
820.314810	0.010856
820.504774	0.010684
820.694720	0.010448
820.884647	0.010195
821.074557	0.009950
821.264448	0.010065
821.454321	0.009833
821.644176	0.009876
821.834012	0.009908
822.023831	0.010022
822.213631	0.010101
822.403413	0.010085
822.593176	0.009959
822.782922	0.010128
822.972649	0.010206
823.162358	0.010025
823.352049	0.009856
823.541721	0.009961
823.731376	0.010019
823.921012	0.010147
824.110629	0.010372
824.300229	0.010559
824.489811	0.010634
824.679374	0.010619
824.868919	0.010819
825.058445	0.010772
825.247954	0.010780
825.437444	0.010530
825.626916	0.010430
825.816370	0.010043
826.005806	0.009964
826.195223	0.009943
826.384622	0.009807
826.574003	0.009643
826.763366	0.009498
826.952711	0.009186
827.142037	0.009418
827.331345	0.009163
827.520635	0.009348
827.709906	0.009184
827.899160	0.008864
828.088395	0.008868
828.277612	0.009059
828.466810	0.009043
828.655991	0.009295
828.845153	0.009091
829.034297	0.009507
829.223423	0.009210
829.412531	0.009364
829.601620	0.009440
829.790691	0.009404
829.979744	0.009451
830.168779	0.009556
830.357795	0.009511
830.546793	0.009635
830.735773	0.009367
830.924735	0.009950
831.113679	0.009843
831.302604	0.009935
831.491511	0.010036
831.680400	0.009869
831.869271	0.009954
832.058123	0.010081
832.246957	0.010168
832.435773	0.010222
832.624571	0.010111
832.813351	0.010356
833.002112	0.010534
833.190855	0.010591
833.379580	0.010605
833.568287	0.010513
833.756975	0.010295
833.945645	0.010224
834.134297	0.010123
834.322931	0.009829
834.511547	0.009503
834.700144	0.009523
834.888723	0.009313
835.077284	0.009336
835.265826	0.009313
835.454351	0.009272
835.642857	0.009371
835.831345	0.009394
836.019815	0.009467
836.208266	0.009547
836.396699	0.009234
836.585114	0.009256
836.773511	0.009067
836.961890	0.009009
837.150250	0.009176
837.338592	0.009012
837.526916	0.009016
837.715222	0.009225
837.903510	0.009264
838.091779	0.009571
838.280030	0.009595
838.468263	0.009931
838.656477	0.010180
838.844674	0.010051
839.032852	0.009889
839.221012	0.009892
839.409153	0.009658
839.597277	0.009605
839.785382	0.009638
839.973469	0.009611
840.161538	0.009264
840.349589	0.008791
840.537621	0.008900
840.725635	0.009153
840.913631	0.009056
841.101609	0.009057
841.289568	0.009010
841.477509	0.008530
841.665432	0.008593
841.853337	0.008551
842.041224	0.008591
842.229092	0.008356
842.416942	0.008327
842.604774	0.008322
842.792588	0.008124
842.980383	0.008005
843.168160	0.008161
843.355919	0.008035
843.543660	0.008044
843.731382	0.008130
843.919087	0.007986
844.106773	0.007879
844.294441	0.007791
844.482090	0.007871
844.669722	0.008018
844.857335	0.008176
845.044930	0.008085
845.232507	0.007961
845.420065	0.008103
845.607605	0.008288
845.795127	0.008103
845.982631	0.008239
846.170117	0.008305
846.357584	0.008228
846.545033	0.008245
846.732464	0.008266
846.919877	0.008573
847.107272	0.008343
847.294648	0.008402
847.482006	0.008581
847.669346	0.008246
847.856667	0.008176
848.043971	0.008134
848.231256	0.007861
848.418523	0.007822
848.605771	0.007402
848.793002	0.007589
848.980214	0.007305
849.167408	0.007435
849.354584	0.007846
849.541742	0.008132
849.728881	0.008195
849.916002	0.008427
850.103105	0.008659
850.290190	0.008918
850.477256	0.008876
850.664304	0.009104
850.851334	0.008873
851.038346	0.008864
851.225340	0.008670
851.412315	0.008792
851.599272	0.008582
851.786211	0.008535
851.973132	0.008520
852.160034	0.008592
852.346918	0.008848
852.533784	0.008933
852.720632	0.008788
852.907462	0.008830
853.094273	0.008693
853.281066	0.008784
853.467841	0.008715
853.654598	0.008704
853.841336	0.008675
854.028056	0.008561
854.214758	0.008603
854.401442	0.008863
854.588107	0.008684
854.774755	0.008628
854.961384	0.008955
855.147995	0.008971
855.334587	0.008969
855.521162	0.008970
855.707718	0.008756
855.894256	0.008747
856.080775	0.008455
856.267277	0.008822
856.453760	0.008856
856.640225	0.008416
856.826672	0.008405
857.013101	0.008592
857.199511	0.008548
857.385903	0.008580
857.572277	0.008518
857.758633	0.008753
857.944970	0.008438
858.131290	0.008144
858.317591	0.008124
858.503873	0.008242
858.690138	0.008236
858.876384	0.008178
859.062612	0.008491
859.248822	0.008507
859.435014	0.008318
859.621188	0.008397
859.807343	0.008743
859.993480	0.008960
860.179599	0.008882
860.365699	0.008832
860.551781	0.009054
860.737846	0.008815
860.923891	0.008901
861.109919	0.008782
861.295929	0.008515
861.481920	0.008348
861.667893	0.008120
861.853848	0.008160
862.039784	0.008247
862.225702	0.008064
862.411603	0.007829
862.597484	0.007800
862.783348	0.007991
862.969193	0.008188
863.155021	0.008105
863.340830	0.008233
863.526620	0.007975
863.712393	0.007690
863.898147	0.007417
864.083883	0.007659
864.269601	0.007573
864.455301	0.007314
864.640982	0.007370
864.826645	0.007588
865.012290	0.007402
865.197917	0.007583
865.383526	0.007520
865.569116	0.007582
865.754688	0.007595
865.940242	0.007571
866.125777	0.007507
866.311295	0.007248
866.496794	0.007083
866.682275	0.007097
866.867737	0.007099
867.053182	0.007389
867.238608	0.007732
867.424016	0.007502
867.609406	0.007306
867.794778	0.007424
867.980131	0.007400
868.165466	0.007275
868.350783	0.007286
868.536082	0.007165
868.721362	0.006777
868.906625	0.006663
869.091869	0.006839
869.277094	0.007134
869.462302	0.007121
869.647491	0.007320
869.832662	0.007601
870.017815	0.007644
870.202950	0.007522
870.388066	0.007576
870.573165	0.007446
870.758245	0.007495
870.943306	0.007329
871.128350	0.007471
871.313375	0.007516
871.498382	0.007417
871.683371	0.007480
871.868342	0.007556
872.053294	0.007946
872.238229	0.008105
872.423144	0.008140
872.608042	0.008137
872.792922	0.007987
872.977783	0.007992
873.162626	0.007876
873.347451	0.007960
873.532258	0.008192
873.717046	0.007949
873.901816	0.008064
874.086568	0.008150
874.271302	0.008518
874.456017	0.008533
874.640715	0.008459
874.825394	0.008863
875.010055	0.008946
875.194697	0.009115
875.379322	0.009022
875.563928	0.008950
875.748516	0.009007
875.933085	0.008685
876.117637	0.008889
876.302170	0.008977
876.486685	0.009000
876.671182	0.009187
876.855661	0.008745
877.040121	0.009025
877.224563	0.008993
877.408987	0.008599
877.593393	0.008817
877.777780	0.008762
877.962150	0.008821
878.146501	0.008498
878.330833	0.008280
878.515148	0.008231
878.699444	0.008226
878.883722	0.008262
879.067982	0.008326
879.252224	0.007984
879.436447	0.008124
879.620653	0.008058
879.804840	0.008071
879.989008	0.007874
880.173159	0.007985
880.357291	0.007957
880.541405	0.008012
880.725501	0.008413
880.909579	0.008593
881.093638	0.008518
881.277680	0.008434
881.461703	0.008702
881.645707	0.008821
881.829694	0.008989
882.013662	0.008745
882.197612	0.008627
882.381544	0.008386
882.565458	0.008172
882.749353	0.007746
882.933230	0.007923
883.117089	0.007462
883.300930	0.007405
883.484753	0.007157
883.668557	0.007285
883.852343	0.007142
884.036111	0.007328
884.219861	0.007665
884.403592	0.007953
884.587305	0.007933
884.771000	0.008209
884.954677	0.008335
885.138335	0.008690
885.321976	0.008690
885.505598	0.009037
885.689201	0.008808
885.872787	0.008680
886.056354	0.008806
886.239904	0.008886
886.423434	0.008925
886.606947	0.009087
886.790442	0.009189
886.973918	0.009571
887.157376	0.009593
887.340816	0.009393
887.524237	0.009462
887.707641	0.009547
887.891026	0.009581
888.074393	0.009779
888.257741	0.009667
888.441072	0.009306
888.624384	0.009161
888.807678	0.009328
888.990954	0.009734
889.174211	0.009857
889.357451	0.009747
889.540672	0.009726
889.723875	0.009542
889.907059	0.009442
890.090226	0.009507
890.273374	0.009396
890.456504	0.009333
890.639616	0.009267
890.822709	0.009301
891.005785	0.009519
891.188842	0.009125
891.371881	0.008933
891.554901	0.008882
891.737904	0.009142
891.920888	0.009271
892.103854	0.008942
892.286802	0.008635
892.469731	0.008894
892.652643	0.008554
892.835536	0.008834
893.018410	0.009058
893.201267	0.008831
893.384106	0.008673
893.566926	0.008303
893.749728	0.008219
893.932511	0.008123
894.115277	0.007422
894.298024	0.007614
894.480753	0.007208
894.663464	0.007143
894.846157	0.007102
895.028831	0.007355
895.211487	0.007783
895.394125	0.007815
895.576745	0.008007
895.759346	0.008086
895.941930	0.007883
896.124495	0.008127
896.307041	0.008308
896.489570	0.008709
896.672080	0.008457
896.854573	0.008318
897.037046	0.008390
897.219502	0.008558
897.401940	0.008847
897.584359	0.008989
897.766760	0.009038
897.949143	0.008927
898.131507	0.008610
898.313854	0.008315
898.496182	0.008369
898.678492	0.008572
898.860783	0.008544
899.043057	0.008470
899.225312	0.008276
899.407549	0.008240
899.589768	0.008184
899.771968	0.008084
899.954151	0.008574
900.136315	0.008624
900.318461	0.008246
900.500588	0.007885
900.682698	0.007388
900.864789	0.007919
901.046862	0.008031
901.228917	0.007775
901.410953	0.007921
901.592971	0.007671
901.774972	0.007478
901.956953	0.007573
902.138917	0.007563
902.320862	0.008054
902.502790	0.007935
902.684699	0.007855
902.866589	0.008296
903.048462	0.008548
903.230316	0.008433
903.412152	0.008442
903.593970	0.008318
903.775770	0.008755
903.957551	0.009000
904.139314	0.008698
904.321059	0.008926
904.502786	0.008799
904.684494	0.008735
904.866185	0.009033
905.047857	0.008944
905.229510	0.008953
905.411146	0.008702
905.592763	0.008388
905.774363	0.008383
905.955943	0.008156
906.137506	0.007924
906.319051	0.007887
906.500577	0.007774
906.682085	0.007730
906.863575	0.007913
907.045046	0.007811
907.226500	0.007644
907.407935	0.007711
907.589352	0.007650
907.770750	0.007576
907.952131	0.007541
908.133493	0.007393
908.314837	0.007423
908.496163	0.007407
908.677470	0.007624
908.858760	0.007712
909.040031	0.007443
909.221284	0.007795
909.402518	0.008018
909.583735	0.008023
909.764933	0.008303
909.946113	0.008283
910.127275	0.008282
910.308418	0.008224
910.489544	0.008164
910.670651	0.008342
910.851740	0.008379
911.032810	0.008235
911.213863	0.008406
911.394897	0.008204
911.575913	0.008416
911.756911	0.008399
911.937890	0.008282
912.118851	0.008595
912.299794	0.008837
912.480719	0.008774
912.661626	0.008780
912.842514	0.008576
913.023384	0.008462
913.204236	0.008284
913.385070	0.007758
913.565886	0.008162
913.746683	0.008042
913.927462	0.007634
914.108223	0.007443
914.288965	0.007241
914.469690	0.007434
914.650396	0.007496
914.831084	0.007296
915.011754	0.007757
915.192405	0.007607
915.373038	0.007412
915.553653	0.007420
915.734250	0.007538
915.914829	0.007426
916.095389	0.006976
916.275931	0.006738
916.456455	0.006652
916.636961	0.006425
916.817448	0.005714
916.997917	0.005442
917.178368	0.005186
917.358801	0.004865
917.539216	0.004673
917.719612	0.004818
917.899990	0.004543
918.080350	0.004425
918.260692	0.004477
918.441015	0.005071
918.621320	0.005107
918.801607	0.004905
918.981876	0.004728
919.162127	0.004607
919.342359	0.004222
919.522573	0.004041
919.702769	0.003952
919.882947	0.003881
920.063106	0.002938
920.243247	0.003040
920.423370	0.003030
920.603475	0.002806
920.783562	0.002934
920.963630	0.003137
921.143680	0.003441
921.323712	0.003133
921.503725	0.002949
921.683721	0.003430
921.863698	0.002913
922.043657	0.002868
922.223598	0.002676
922.403520	0.003123
922.583424	0.002522
922.763311	0.002071
922.943178	0.002365
923.123028	0.002271
923.302859	0.002036
923.482673	0.002180
923.662467	0.002285
923.842244	0.002376
924.022003	0.001855
924.201743	0.001921
924.381465	0.001919
924.561169	0.001916
924.740854	0.002003
924.920522	0.001928
925.100171	0.001496
925.279802	0.001302
925.459414	0.001045
925.639009	0.001109
925.818585	0.001283
925.998143	0.001328
926.177683	0.001076
926.357205	0.000491
926.536708	0.000162
926.716193	0.000653
926.895660	0.000477
927.075109	0.000579
927.254539	0.000100
927.433951	-0.000078
927.613345	-0.000066
927.792721	-0.000086
927.972079	-0.000100
928.151418	0.000020
928.330739	-0.000533
928.510042	-0.000467
928.689327	-0.000441
928.868593	-0.000475
929.047841	-0.000342
929.227071	-0.000588
929.406283	-0.000798
929.585476	-0.000392
929.764652	0.000230
929.943809	0.000446
930.122948	0.000014
930.302068	-0.000338
930.481171	-0.000220
930.660255	-0.000107
930.839321	0.000018
931.018369	-0.000308
931.197398	-0.000663
931.376409	-0.001406
931.555402	-0.002041
931.734377	-0.001662
931.913334	-0.001948
932.092272	-0.002213
932.271192	-0.003253
932.450094	-0.003914
932.628978	-0.003522
932.807844	-0.003858
932.986691	-0.004424
933.165520	-0.004599
933.344331	-0.004840
933.523123	-0.004873
933.701898	-0.005130
933.880654	-0.004639
934.059392	-0.004115
934.238111	-0.005233
934.416813	-0.005961
934.595496	-0.006414
934.774161	-0.005896
934.952808	-0.006412
935.131437	-0.005668
935.310047	-0.005594
935.488639	-0.005982
935.667213	-0.006490
935.845769	-0.006202
936.024306	-0.005661
936.202825	-0.005012
936.381326	-0.005260
936.559809	-0.005343
936.738274	-0.005991
936.916720	-0.006273
937.095148	-0.006365
937.273558	-0.006668
937.451950	-0.006890
937.630323	-0.006864
937.808678	-0.007210
937.987015	-0.006903
938.165334	-0.006644
938.343635	-0.006714
938.521917	-0.006607
938.700181	-0.006806
938.878427	-0.007116
939.056655	-0.006543
939.234864	-0.007149
939.413055	-0.007151
939.591228	-0.008049
939.769383	-0.008176
939.947519	-0.008905
940.125638	-0.008810
940.303738	-0.009410
940.481820	-0.009038
940.659883	-0.010120
940.837929	-0.010199
941.015956	-0.011289
941.193965	-0.011484
941.371955	-0.012023
941.549928	-0.012367
941.727882	-0.013110
941.905818	-0.012944
942.083736	-0.014059
942.261636	-0.013569
942.439517	-0.013998
942.617380	-0.013290
942.795225	-0.014276
942.973052	-0.014509
943.150860	-0.014606
943.328651	-0.014985
943.506423	-0.015864
943.684176	-0.015226
943.861912	-0.014083
944.039629	-0.013588
944.217328	-0.013109
944.395009	-0.011427
944.572672	-0.010961
944.750317	-0.010303
944.927943	-0.010496
945.105551	-0.009686
945.283141	-0.009236
945.460712	-0.010936
945.638265	-0.011943
945.815801	-0.012374
945.993317	-0.014267
946.170816	-0.014716
946.348297	-0.015040
946.525759	-0.014458
946.703203	-0.013485
946.880629	-0.014507
947.058036	-0.013378
947.235425	-0.012420
947.412797	-0.013147
947.590149	-0.011442
947.767484	-0.010823
947.944800	-0.009884
948.122099	-0.009712
948.299379	-0.010256
948.476640	-0.009798
948.653884	-0.009867
948.831109	-0.010135
949.008316	-0.009773
949.185505	-0.010592
949.362676	-0.011354
949.539828	-0.011727
949.716962	-0.011496
949.894078	-0.011639
950.071176	-0.010470
950.248256	-0.010504
950.425317	-0.010004
950.602360	-0.010182
950.779385	-0.010344
950.956391	-0.009565
951.133380	-0.010325
951.310350	-0.010897
951.487302	-0.010323
951.664235	-0.011286
951.841151	-0.013397
952.018048	-0.013723
952.194927	-0.012443
952.371788	-0.012796
952.548631	-0.012889
952.725455	-0.011147
952.902261	-0.010905
953.079049	-0.008767
953.255819	-0.008621
953.432570	-0.006783
953.609303	-0.006856
953.786018	-0.006562
953.962715	-0.005479
954.139394	-0.005076
954.316054	-0.005836
954.492696	-0.004230
954.669320	-0.007859
954.845926	-0.006251
955.022513	-0.005196
955.199083	-0.004787
955.375634	-0.005922
955.552166	-0.004918
955.728681	-0.005140
955.905177	-0.004309
956.081655	-0.004329
956.258115	-0.002233
956.434557	-0.002872
956.610980	-0.002498
956.787385	-0.000749
956.963772	0.002015
957.140141	0.001668
957.316492	0.003348
957.492824	0.002576
957.669138	0.001455
957.845434	0.001511
958.021712	0.000742
958.197971	0.001111
958.374212	0.001794
958.550435	0.001167
958.726640	0.003220
958.902826	0.003975
959.078995	0.003819
959.255145	0.005866
959.431277	0.005956
959.607390	0.008337
959.783486	0.008690
959.959563	0.009174
960.135622	0.010892
960.311662	0.009417
960.487685	0.011520
960.663689	0.011966
960.839675	0.011497
961.015643	0.010160
961.191593	0.010062
961.367524	0.009645
961.543437	0.008695
961.719332	0.007059
961.895209	0.009074
962.071067	0.006466
962.246907	0.008468
962.422730	0.007529
962.598533	0.009278
962.774319	0.009135
962.950086	0.009049
963.125835	0.009396
963.301566	0.010228
963.477279	0.010114
963.652973	0.011801
963.828650	0.012218
964.004308	0.013550
964.179947	0.014097
964.355569	0.014067
964.531172	0.016695
964.706757	0.018209
964.882324	0.017851
965.057873	0.016194
965.233403	0.015591
965.408916	0.014475
965.584410	0.016470
965.759885	0.016186
965.935343	0.015498
966.110782	0.013287
966.286203	0.011260
966.461606	0.012264
966.636991	0.013739
966.812357	0.016280
966.987705	0.017852
967.163035	0.017578
967.338347	0.017467
967.513641	0.018723
967.688916	0.019415
967.864173	0.022231
968.039412	0.024323
968.214632	0.023999
968.389835	0.022079
968.565019	0.020947
968.740185	0.018582
968.915333	0.020122
969.090462	0.019564
969.265573	0.018449
969.440667	0.018830
969.615741	0.017116
969.790798	0.018134
969.965836	0.016966
970.140856	0.016813
970.315858	0.019240
970.490842	0.019410
970.665808	0.018756
970.840755	0.019748
971.015684	0.021516
971.190595	0.020423
971.365487	0.020200
971.540362	0.018869
971.715218	0.018723
971.890056	0.019202
972.064875	0.017604
972.239677	0.019738
972.414460	0.019258
972.589225	0.017800
972.763972	0.019477
972.938700	0.018974
973.113411	0.019203
973.288103	0.018081
973.462777	0.015978
973.637432	0.016132
973.812070	0.017388
973.986689	0.015843
974.161290	0.015615
974.335873	0.014079
974.510437	0.015901
974.684984	0.018372
974.859512	0.021890
975.034022	0.023442
975.208513	0.023068
975.382987	0.019941
975.557442	0.022932
975.731879	0.022792
975.906298	0.022491
976.080698	0.020174
976.255080	0.019619
976.429445	0.017133
976.603790	0.017019
976.778118	0.018495
976.952427	0.021768
977.126719	0.021881
977.300992	0.020322
977.475246	0.020439
977.649483	0.020682
977.823701	0.022197
977.997901	0.022777
978.172083	0.023580
978.346247	0.023010
978.520392	0.021009
978.694519	0.019446
978.868628	0.020757
979.042719	0.022621
979.216791	0.025555
979.390845	0.023737
979.564882	0.023085
979.738899	0.021226
979.912899	0.022272
980.086880	0.021915
980.260843	0.020253
980.434788	0.019616
980.608715	0.017411
980.782623	0.014467
980.956514	0.013089
981.130386	0.013234
981.304240	0.011655
981.478075	0.010638
981.651892	0.009910
981.825692	0.012195
981.999472	0.011289
982.173235	0.010099
982.346980	0.009143
982.520706	0.009224
982.694414	0.008403
982.868104	0.009730
983.041775	0.010159
983.215428	0.011794
983.389064	0.011756
983.562680	0.013664
983.736279	0.017195
983.909860	0.018380
984.083422	0.018715
984.256966	0.020277
984.430491	0.020344
984.603999	0.016968
984.777488	0.016508
984.950959	0.019501
985.124412	0.019474
985.297847	0.018876
985.471263	0.019143
985.644661	0.020130
985.818041	0.019523
985.991403	0.021434
986.164747	0.023445
986.338072	0.023522
986.511379	0.020541
986.684668	0.020717
986.857938	0.020446
987.031191	0.020169
987.204425	0.018946
987.377641	0.018048
987.550839	0.016517
987.724018	0.017504
987.897179	0.017239
988.070322	0.016524
988.243447	0.015857
988.416554	0.014412
988.589642	0.014746
988.762712	0.014695
988.935764	0.014945
989.108798	0.013232
989.281813	0.014185
989.454811	0.015514
989.627790	0.014717
989.800751	0.012853
989.973693	0.013293
990.146617	0.013844
990.319524	0.015968
990.492412	0.015245
990.665281	0.017756
990.838133	0.016656
991.010966	0.015142
991.183781	0.015558
991.356578	0.015942
991.529356	0.017606
991.702117	0.017295
991.874859	0.015983
992.047583	0.017408
992.220288	0.017296
992.392976	0.015578
992.565645	0.015224
992.738296	0.016087
992.910929	0.017548
993.083543	0.015639
993.256139	0.015318
993.428718	0.016891
993.601277	0.015126
993.773819	0.016160
993.946342	0.016591
994.118848	0.016595
994.291335	0.015478
994.463803	0.015320
994.636254	0.015272
994.808686	0.015922
994.981100	0.014611
995.153496	0.015660
995.325874	0.014562
995.498233	0.015990
995.670574	0.017358
995.842897	0.018088
996.015202	0.017962
996.187488	0.018799
996.359757	0.018254
996.532007	0.015468
996.704239	0.015018
996.876452	0.014504
997.048648	0.014372
997.220825	0.013349
997.392984	0.014592
997.565124	0.015806
997.737247	0.014020
997.909351	0.014145
998.081437	0.018038
998.253505	0.018994
998.425554	0.019493
998.597586	0.019224
998.769599	0.019702
998.941594	0.017882
999.113571	0.016127
999.285529	0.016766
999.457469	0.018131
999.629391	0.017134
999.801295	0.017203
999.973181	0.017588
1000.145048	0.016549
1000.316897	0.016500
1000.488728	0.016601
1000.660541	0.016530
1000.832335	0.017452
1001.004111	0.015334
1001.175869	0.015343
1001.347609	0.015501
1001.519331	0.014541
1001.691034	0.015070
1001.862719	0.013900
1002.034386	0.014389
1002.206035	0.014782
1002.377665	0.014835
1002.549277	0.015921
1002.720871	0.015206
1002.892447	0.015199
1003.064004	0.014942
1003.235544	0.016161
1003.407065	0.018237
1003.578568	0.019583
1003.750052	0.018797
1003.921519	0.017000
1004.092967	0.015383
1004.264397	0.016661
1004.435809	0.015310
1004.607202	0.014344
1004.778577	0.014576
1004.949934	0.014017
1005.121273	0.011740
1005.292594	0.011142
1005.463896	0.012256
1005.635180	0.013101
1005.806446	0.011474
1005.977694	0.012645
1006.148923	0.013133
1006.320135	0.012894
1006.491328	0.012634
1006.662503	0.014718
1006.833659	0.015294
1007.004798	0.015941
1007.175918	0.017302
1007.347020	0.019392
1007.518103	0.020038
1007.689169	0.019239
1007.860216	0.018341
1008.031245	0.017159
1008.202256	0.016007
1008.373248	0.016557
1008.544223	0.017479
1008.715179	0.016031
1008.886117	0.013729
1009.057036	0.012658
1009.227938	0.015047
1009.398821	0.016904
1009.569686	0.017980
1009.740533	0.018961
1009.911361	0.018935
1010.082172	0.018892
1010.252964	0.018276
1010.423738	0.020264
1010.594493	0.020221
1010.765231	0.018771
1010.935950	0.017533
1011.106651	0.016454
1011.277334	0.016812
1011.447998	0.017049
1011.618645	0.016236
1011.789273	0.017807
1011.959882	0.017316
1012.130474	0.018485
1012.301048	0.020357
1012.471603	0.019762
1012.642140	0.020116
1012.812658	0.019003
1012.983159	0.018502
1013.153641	0.017760
1013.324105	0.016212
1013.494551	0.014777
1013.664979	0.013254
1013.835388	0.012375
1014.005779	0.012408
1014.176152	0.011672
1014.346507	0.012179
1014.516843	0.012862
1014.687162	0.014719
1014.857462	0.015111
1015.027744	0.016828
1015.198007	0.017931
1015.368252	0.016476
1015.538480	0.016079
1015.708689	0.016977
1015.878879	0.016357
1016.049052	0.017044
1016.219206	0.016685
1016.389342	0.015937
1016.559460	0.014941
1016.729559	0.013513
1016.899641	0.013099
1017.069704	0.013822
1017.239749	0.015619
1017.409775	0.016236
1017.579784	0.014472
1017.749774	0.012440
1017.919746	0.012977
1018.089700	0.012624
1018.259635	0.013956
1018.429553	0.015797
1018.599452	0.015367
1018.769333	0.013920
1018.939195	0.013288
1019.109040	0.013932
1019.278866	0.013910
1019.448674	0.013522
1019.618464	0.014863
1019.788235	0.012392
1019.957989	0.010679
1020.127724	0.010000
1020.297441	0.008297
1020.467139	0.009345
1020.636820	0.008320
1020.806482	0.007180
1020.976126	0.008482
1021.145752	0.006058
1021.315359	0.006517
1021.484948	0.007104
1021.654519	0.006387
1021.824072	0.006663
1021.993607	0.005962
1022.163123	0.007336
1022.332621	0.008393
1022.502101	0.007014
1022.671563	0.007619
1022.841007	0.008969
1023.010432	0.009130
1023.179839	0.010699
1023.349228	0.011328
1023.518598	0.011673
1023.687951	0.010696
1023.857285	0.010777
1024.026601	0.012744
1024.195899	0.013915
1024.365178	0.013952
1024.534439	0.014485
1024.703682	0.013662
1024.872907	0.012722
1025.042114	0.012257
1025.211302	0.013833
1025.380472	0.015380
1025.549624	0.015093
1025.718758	0.016465
1025.887873	0.015946
1026.056970	0.016316
1026.226049	0.018397
1026.395110	0.019719
1026.564153	0.018572
1026.733177	0.018196
1026.902183	0.017493
1027.071171	0.017154
1027.240141	0.014452
1027.409092	0.014165
1027.578026	0.014179
1027.746940	0.013489
1027.915837	0.013142
1028.084716	0.014516
1028.253576	0.012553
1028.422418	0.013200
1028.591242	0.012528
1028.760048	0.014037
1028.928835	0.013735
1029.097604	0.013439
1029.266355	0.012358
1029.435088	0.011694
1029.603803	0.012336
1029.772499	0.012967
1029.941177	0.011571
1030.109837	0.012300
1030.278478	0.010737
1030.447102	0.011771
1030.615707	0.012290
1030.784294	0.011719
1030.952863	0.012426
1031.121413	0.010987
1031.289945	0.013233
1031.458460	0.014687
1031.626955	0.014484
1031.795433	0.013708
1031.963892	0.012251
1032.132334	0.011074
1032.300756	0.011589
1032.469161	0.011368
1032.637548	0.012086
1032.805916	0.010999
1032.974266	0.008410
1033.142598	0.008712
1033.310911	0.010278
1033.479207	0.011757
1033.647484	0.011839
1033.815743	0.013224
1033.983983	0.013444
1034.152206	0.011888
1034.320410	0.010720
1034.488596	0.012454
1034.656764	0.011634
1034.824914	0.011423
1034.993045	0.011278
1035.161158	0.011560
1035.329253	0.010999
1035.497330	0.010498
1035.665388	0.012232
1035.833428	0.012833
1036.001450	0.012235
1036.169454	0.014380
1036.337440	0.014634
1036.505407	0.015041
1036.673356	0.015067
1036.841287	0.014733
1037.009200	0.015797
1037.177094	0.015421
1037.344970	0.014185
1037.512828	0.015213
1037.680668	0.013604
1037.848489	0.014549
1038.016293	0.013947
1038.184078	0.013235
1038.351845	0.011809
1038.519593	0.013323
1038.687324	0.010849
1038.855036	0.011286
1039.022730	0.012231
1039.190406	0.010661
1039.358063	0.010797
1039.525702	0.012103
1039.693323	0.013196
1039.860926	0.014250
1040.028511	0.011929
1040.196077	0.012277
1040.363625	0.012636
1040.531155	0.009858
1040.698667	0.011830
1040.866161	0.011924
1041.033636	0.010442
1041.201093	0.009470
1041.368532	0.011517
1041.535952	0.011452
1041.703355	0.013540
1041.870739	0.014304
1042.038105	0.015336
1042.205452	0.014176
1042.372782	0.013593
1042.540093	0.015392
1042.707386	0.014882
1042.874661	0.012888
1043.041918	0.013399
1043.209156	0.012405
1043.376376	0.012446
1043.543578	0.011877
1043.710762	0.013256
1043.877927	0.012867
1044.045074	0.010043
1044.212203	0.011724
1044.379314	0.010667
1044.546407	0.009909
1044.713481	0.011343
1044.880537	0.012399
1045.047575	0.013395
1045.214595	0.012113
1045.381596	0.010692
1045.548579	0.012257
1045.715544	0.011108
1045.882491	0.011102
1046.049420	0.012681
1046.216330	0.012614
1046.383222	0.009328
1046.550096	0.009644
1046.716951	0.008605
1046.883789	0.008765
1047.050608	0.008231
1047.217409	0.009317
1047.384192	0.009603
1047.550956	0.009191
1047.717703	0.008661
1047.884431	0.010620
1048.051140	0.010748
1048.217832	0.012195
1048.384505	0.012655
1048.551161	0.012926
1048.717798	0.010989
1048.884416	0.011827
1049.051017	0.011193
1049.217599	0.012111
1049.384163	0.011566
1049.550709	0.013159
1049.717237	0.011927
1049.883746	0.010457
1050.050237	0.011188
1050.216710	0.011614
1050.383165	0.011541
1050.549601	0.012613
1050.716019	0.011552
1050.882420	0.011792
1051.048801	0.011334
1051.215165	0.013034
1051.381510	0.016727
1051.547837	0.016474
1051.714146	0.017338
1051.880437	0.016369
1052.046709	0.014540
1052.212964	0.014917
1052.379200	0.015591
1052.545417	0.015767
1052.711617	0.014936
1052.877798	0.011678
1053.043961	0.012254
1053.210106	0.012816
1053.376233	0.013520
1053.542341	0.015459
1053.708432	0.014822
1053.874504	0.014864
1054.040557	0.012381
1054.206593	0.014237
1054.372610	0.015391
1054.538609	0.013136
1054.704590	0.012024
1054.870553	0.013733
1055.036497	0.012735
1055.202424	0.012740
1055.368331	0.012821
1055.534221	0.012163
1055.700093	0.009753
1055.865946	0.011120
1056.031781	0.012208
1056.197598	0.012925
1056.363397	0.011217
1056.529177	0.009715
1056.694939	0.010537
1056.860683	0.009538
1057.026409	0.010233
1057.192116	0.011287
1057.357806	0.010173
1057.523477	0.011465
1057.689130	0.011247
1057.854764	0.010822
1058.020381	0.012244
1058.185979	0.011111
1058.351559	0.010176
1058.517120	0.011700
1058.682664	0.010630
1058.848189	0.009788
1059.013696	0.007678
1059.179185	0.007086
1059.344656	0.007099
1059.510108	0.005790
1059.675542	0.005599
1059.840958	0.005085
1060.006356	0.003736
1060.171735	0.003894
1060.337096	0.005914
1060.502439	0.007845
1060.667764	0.007797
1060.833071	0.008003
1060.998359	0.006231
1061.163629	0.007280
1061.328881	0.006924
1061.494115	0.007578
1061.659330	0.007402
1061.824527	0.005806
1061.989706	0.002760
1062.154867	0.001147
1062.320010	0.000780
1062.485134	0.003564
1062.650240	0.003293
1062.815328	0.004586
1062.980398	0.003959
1063.145449	0.001929
1063.310482	0.001185
1063.475497	0.001676
1063.640494	0.001155
1063.805473	0.000802
1063.970433	0.000363
1064.135375	-0.000974
1064.300299	-0.001655
1064.465204	-0.001986
1064.630092	0.000662
1064.794961	0.000630
1064.959812	0.000411
1065.124645	0.003914
1065.289459	0.003657
1065.454256	0.003074
1065.619034	0.002557
1065.783793	0.003036
1065.948535	0.003913
1066.113258	0.002666
1066.277964	0.002512
1066.442651	0.003809
1066.607319	0.002400
1066.771970	0.002987
1066.936602	0.004096
1067.101216	0.003679
1067.265812	0.004748
1067.430389	0.004731
1067.594949	0.002779
1067.759490	0.003232
1067.924013	0.003748
1068.088518	0.001619
1068.253004	0.000971
1068.417472	0.002496
1068.581922	0.004936
1068.746354	0.004056
1068.910768	0.002827
1069.075163	0.005045
1069.239540	0.007238
1069.403899	0.006229
1069.568240	0.008740
1069.732562	0.008406
1069.896866	0.005125
1070.061152	0.003418
1070.225420	0.003444
1070.389670	0.004705
1070.553901	0.004230
1070.718114	0.000991
1070.882309	-0.000868
1071.046486	-0.003389
1071.210644	-0.000218
1071.374784	0.000164
1071.538906	0.002550
1071.703010	0.001370
1071.867096	0.002050
1072.031163	0.001975
1072.195212	0.003130
1072.359243	0.005137
1072.523256	0.006339
1072.687250	0.005455
1072.851226	0.008722
1073.015184	0.006027
1073.179124	0.004046
1073.343045	0.003929
1073.506949	0.003982
1073.670834	0.003546
1073.834701	0.003741
1073.998549	0.004563
1074.162380	0.004275
1074.326192	0.000455
1074.489986	0.002828
1074.653761	0.003857
1074.817519	0.001077
1074.981258	0.003305
1075.144979	0.001133
1075.308682	-0.002107
1075.472367	-0.000290
1075.636033	-0.002120
1075.799681	-0.002743
1075.963311	-0.003663
1076.126923	-0.001871
1076.290516	-0.000153
1076.454092	-0.000042
1076.617649	0.002608
1076.781187	0.003115
1076.944708	0.001620
1077.108210	0.002988
1077.271695	0.003586
1077.435160	0.004191
1077.598608	0.006210
1077.762038	0.005158
1077.925449	0.002836
1078.088842	0.004521
1078.252217	0.006685
1078.415573	0.006207
1078.578912	0.005453
1078.742232	0.005172
1078.905534	0.002815
1079.068817	-0.000202
1079.232083	0.004280
1079.395330	0.001765
1079.558559	-0.001425
1079.721770	-0.001660
1079.884962	-0.002758
1080.048136	-0.000012
1080.211293	0.001377
1080.374430	0.001097
1080.537550	0.002326
1080.700651	-0.002254
1080.863735	0.000297
1081.026800	0.001369
1081.189846	0.001459
1081.352875	0.000137
1081.515885	-0.003075
1081.678877	-0.004237
1081.841851	-0.002912
1082.004807	-0.000917
1082.167744	-0.000829
1082.330663	-0.002386
1082.493564	-0.001053
1082.656447	0.001649
1082.819312	0.003059
1082.982158	0.003436
1083.144986	0.005658
1083.307796	0.002293
1083.470587	0.001777
1083.633361	0.001115
1083.796116	0.002746
1083.958853	0.002577
1084.121571	0.000517
1084.284272	0.003523
1084.446954	0.003909
1084.609618	0.002840
1084.772264	0.005868
1084.934892	0.001752
1085.097501	0.001943
1085.260092	0.002828
1085.422665	0.001427
1085.585220	0.001589
1085.747756	-0.000391
1085.910274	-0.003598
1086.072774	-0.005550
1086.235256	-0.000341
1086.397720	-0.000301
1086.560165	-0.000863
1086.722592	-0.000941
1086.885001	0.000268
1087.047392	-0.002129
1087.209764	-0.003909
1087.372119	-0.000959
1087.534455	0.000772
1087.696772	-0.006253
1087.859072	-0.002339
1088.021353	-0.001085
1088.183616	-0.005150
1088.345861	-0.006608
1088.508088	-0.004292
1088.670296	-0.002348
1088.832486	-0.003283
1088.994658	-0.005163
1089.156812	-0.002958
1089.318948	-0.004826
1089.481065	-0.003600
1089.643164	-0.000548
1089.805245	-0.002514
1089.967308	-0.002170
1090.129352	-0.003301
1090.291378	-0.002482
1090.453386	-0.002234
1090.615376	-0.002029
1090.777347	-0.001263
1090.939301	-0.004922
1091.101236	-0.003337
1091.263153	-0.000781
1091.425051	-0.003251
1091.586932	-0.004361
1091.748794	-0.005549
1091.910638	-0.005316
1092.072463	-0.008249
1092.234271	-0.010630
1092.396060	-0.007697
1092.557831	-0.009532
1092.719584	-0.006133
1092.881319	-0.005647
1093.043035	-0.004233
1093.204733	-0.004792
1093.366413	-0.003868
1093.528075	-0.002879
1093.689718	-0.003365
1093.851343	-0.004925
1094.012950	-0.003829
1094.174539	-0.008591
1094.336110	-0.008991
1094.497662	-0.009595
1094.659196	-0.009231
1094.820712	-0.009960
1094.982210	-0.010281
1095.143689	-0.006443
1095.305151	-0.005498
1095.466594	-0.007636
1095.628018	-0.005957
1095.789425	-0.007665
1095.950813	-0.009729
1096.112183	-0.008252
1096.273535	-0.008952
1096.434869	-0.009744
1096.596184	-0.014174
1096.757482	-0.017150
1096.918761	-0.017688
1097.080021	-0.018800
1097.241264	-0.017934
1097.402488	-0.012393
1097.563694	-0.014305
1097.724882	-0.015634
1097.886052	-0.014670
1098.047203	-0.012464
1098.208336	-0.009864
1098.369451	-0.008768
1098.530548	-0.007100
1098.691627	-0.005903
1098.852687	-0.007926
1099.013729	-0.008128
1099.174753	-0.004776
1099.335758	-0.000116
1099.496746	-0.001588
1099.657715	0.001033
1099.818666	0.002976
1099.979599	-0.001487
1100.140513	-0.000604
1100.301409	-0.005281
1100.462287	-0.003220
1100.623147	-0.006088
1100.783989	-0.011471
1100.944812	-0.008112
1101.105617	-0.010836
1101.266404	-0.011782
1101.427173	-0.009753
1101.587923	-0.013304
1101.748656	-0.012792
1101.909370	-0.017728
1102.070066	-0.012448
1102.230743	-0.008418
1102.391403	-0.008966
1102.552044	-0.007986
1102.712667	-0.007189
1102.873271	-0.005058
1103.033858	-0.003930
1103.194426	-0.001127
1103.354976	0.005459
1103.515508	0.002707
1103.676021	0.000401
1103.836517	-0.000337
1103.996994	-0.001588
1104.157453	-0.002392
1104.317893	-0.006411
1104.478316	-0.008619
1104.638720	-0.006917
1104.799106	-0.011033
1104.959474	-0.010215
1105.119823	-0.009620
1105.280155	-0.012532
1105.440468	-0.012396
1105.600763	-0.013872
1105.761039	-0.013442
1105.921298	-0.010273
1106.081538	-0.009953
1106.241760	-0.009380
1106.401964	-0.009326
1106.562149	-0.013706
1106.722316	-0.012019
1106.882465	-0.010993
1107.042596	-0.011304
1107.202709	-0.012252
1107.362803	-0.009637
1107.522879	-0.012166
1107.682937	-0.011075
1107.842977	-0.011741
1108.002999	-0.003833
1108.163002	-0.006326
1108.322987	-0.009654
1108.482954	-0.009871
1108.642902	-0.006130
1108.802833	-0.006376
1108.962745	-0.010029
1109.122639	-0.007489
1109.282515	-0.007439
1109.442372	-0.010623
1109.602211	-0.007418
1109.762032	-0.004386
1109.921835	-0.006698
1110.081620	-0.006344
1110.241386	-0.007967
1110.401134	-0.004065
1110.560864	-0.006223
1110.720576	-0.007035
1110.880269	-0.007473
1111.039945	-0.010301
1111.199602	-0.013457
1111.359240	-0.008677
1111.518861	-0.010606
1111.678463	-0.008886
1111.838047	-0.011974
1111.997613	-0.016259
1112.157161	-0.016743
1112.316690	-0.016920
1112.476202	-0.015341
1112.635695	-0.016898
1112.795169	-0.021189
1112.954626	-0.020165
1113.114064	-0.023458
1113.273484	-0.022484
1113.432886	-0.019419
1113.592270	-0.021665
1113.751635	-0.020127
1113.910983	-0.019808
1114.070312	-0.018892
1114.229622	-0.013854
1114.388915	-0.015963
1114.548189	-0.011547
1114.707445	-0.008680
1114.866683	-0.009055
1115.025903	-0.005456
1115.185104	-0.005931
1115.344287	-0.004146
1115.503452	0.000887
1115.662599	-0.003324
1115.821727	-0.002481
1115.980838	-0.006377
1116.139930	-0.007396
1116.299004	-0.012333
1116.458059	-0.014922
1116.617097	-0.018362
1116.776116	-0.022943
1116.935117	-0.030371
1117.094099	-0.029452
1117.253064	-0.029427
1117.412010	-0.031492
1117.570938	-0.033868
1117.729848	-0.028734
1117.888740	-0.032795
1118.047613	-0.032459
1118.206468	-0.028443
1118.365305	-0.027050
1118.524124	-0.028690
1118.682924	-0.027390
1118.841707	-0.027963
1119.000471	-0.029821
1119.159216	-0.028257
1119.317944	-0.026515
1119.476653	-0.024255
1119.635344	-0.025131
1119.794017	-0.022871
1119.952672	-0.022979
1120.111308	-0.023008
1120.269927	-0.016371
1120.428527	-0.016158
1120.587108	-0.016783
1120.745672	-0.008189
1120.904217	-0.006402
1121.062744	-0.009722
1121.221253	-0.009861
1121.379744	-0.010022
1121.538216	-0.010808
1121.696671	-0.007331
1121.855107	-0.004594
1122.013524	-0.005572
1122.171924	-0.011657
1122.330305	-0.021105
1122.488668	-0.021292
1122.647013	-0.025908
1122.805340	-0.019856
1122.963648	-0.021359
1123.121938	-0.031496
1123.280210	-0.030764
1123.438464	-0.027639
1123.596700	-0.023808
1123.754917	-0.018551
1123.913116	-0.019686
1124.071297	-0.016829
1124.229459	-0.023036
1124.387604	-0.026101
1124.545730	-0.026148
1124.703838	-0.024789
1124.861928	-0.025705
1125.019999	-0.027686
1125.178052	-0.030635
1125.336088	-0.027959
1125.494104	-0.030701
1125.652103	-0.026201
1125.810083	-0.019433
1125.968045	-0.015688
1126.125989	-0.016184
1126.283915	-0.021003
1126.441823	-0.023539
1126.599712	-0.024978
1126.757583	-0.024128
1126.915436	-0.017276
1127.073270	-0.017022
1127.231087	-0.027114
1127.388885	-0.029290
1127.546665	-0.032927
1127.704426	-0.032638
1127.862170	-0.033879
1128.019895	-0.032703
1128.177602	-0.033966
1128.335291	-0.038781
1128.492961	-0.038708
1128.650614	-0.032686
1128.808248	-0.029390
1128.965864	-0.022808
1129.123461	-0.020658
1129.281041	-0.021532
1129.438602	-0.014319
1129.596145	-0.012659
1129.753670	-0.013509
1129.911176	-0.017979
1130.068665	-0.014565
1130.226135	-0.015511
1130.383587	-0.013522
1130.541020	-0.020017
1130.698436	-0.020010
1130.855833	-0.024158
1131.013212	-0.026286
1131.170573	-0.024415
1131.327915	-0.026130
1131.485239	-0.029910
1131.642545	-0.033115
1131.799833	-0.035991
1131.957103	-0.029268
1132.114354	-0.019675
1132.271588	-0.027445
1132.428803	-0.018145
1132.585999	-0.011329
1132.743178	-0.011098
1132.900338	-0.010863
1133.057480	-0.009673
1133.214604	-0.009397
1133.371710	-0.006677
1133.528797	-0.013639
1133.685866	-0.005190
1133.842917	-0.014950
1133.999950	-0.024359
1134.156964	-0.024384
1134.313960	-0.017396
1134.470938	-0.017987
1134.627898	-0.020559
1134.784840	-0.023178
1134.941763	-0.023439
1135.098668	-0.028952
1135.255555	-0.032114
1135.412424	-0.027198
1135.569274	-0.021233
1135.726107	-0.024307
1135.882921	-0.017993
1136.039716	-0.016656
1136.196494	-0.016042
1136.353253	-0.015350
1136.509995	-0.013360
1136.666717	-0.009860
1136.823422	-0.008718
1136.980109	-0.018048
1137.136777	-0.025589
1137.293427	-0.028542
1137.450059	-0.033288
1137.606672	-0.037736
1137.763267	-0.042105
1137.919844	-0.030770
1138.076403	-0.028142
1138.232944	-0.032317
1138.389466	-0.027320
1138.545971	-0.021545
1138.702457	-0.030609
1138.858924	-0.034200
1139.015374	-0.022976
1139.171805	-0.018063
1139.328218	-0.032674
1139.484613	-0.030301
1139.640990	-0.028084
1139.797348	-0.028357
1139.953688	-0.027549
1140.110010	-0.018604
1140.266314	-0.015469
1140.422600	-0.015899
1140.578867	-0.017159
1140.735116	-0.013448
1140.891347	-0.017728
1141.047559	-0.020057
1141.203754	-0.018605
1141.359930	-0.018361
1141.516088	-0.015914
1141.672228	-0.016220
1141.828349	-0.017352
1141.984452	-0.023543
1142.140537	-0.019061
1142.296604	-0.020716
1142.452653	-0.020100
1142.608683	-0.024692
1142.764695	-0.032892
1142.920689	-0.035957
1143.076665	-0.033856
1143.232622	-0.036908
1143.388562	-0.024761
1143.544483	-0.033160
1143.700385	-0.036282
1143.856270	-0.041791
1144.012136	-0.032694
1144.167985	-0.025033
1144.323814	-0.032379
1144.479626	-0.034257
1144.635420	-0.038079
1144.791195	-0.040239
1144.946952	-0.036612
1145.102691	-0.033865
1145.258411	-0.022327
1145.414113	-0.027607
1145.569798	-0.030219
1145.725463	-0.024889
1145.881111	-0.012810
1146.036741	-0.013452
1146.192352	-0.009293
1146.347945	-0.003814
1146.503519	-0.008164
1146.659076	-0.008581
1146.814614	-0.007394
1146.970134	-0.005797
1147.125636	-0.004837
1147.281120	-0.015255
1147.436585	-0.016726
1147.592032	-0.016619
1147.747461	-0.031044
1147.902872	-0.019750
1148.058265	-0.031038
1148.213639	-0.028014
1148.368995	-0.030753
1148.524333	-0.033788
1148.679653	-0.033810
1148.834954	-0.027584
1148.990237	-0.036629
1149.145502	-0.021818
1149.300749	-0.025444
1149.455977	-0.019156
1149.611188	-0.028697
1149.766380	-0.028522
1149.921553	-0.028692
1150.076709	-0.019177
1150.231846	-0.018974
1150.386966	-0.021394
1150.542066	-0.031019
1150.697149	-0.032247
1150.852214	-0.033076
1151.007260	-0.030162
1151.162288	-0.036427
1151.317298	-0.029925
1151.472289	-0.041113
1151.627263	-0.048188
1151.782218	-0.029309
1151.937155	-0.016266
1152.092073	-0.031348
1152.246974	-0.034687
1152.401856	-0.039633
1152.556720	-0.031085
1152.711566	-0.038211
1152.866393	-0.038023
1153.021203	-0.040873
1153.175994	-0.054854
1153.330767	-0.061562
1153.485521	-0.046562
1153.640258	-0.034991
1153.794976	-0.029199
1153.949676	-0.032434
1154.104358	-0.034633
1154.259021	-0.040538
1154.413667	-0.039830
1154.568294	-0.041481
1154.722903	-0.049617
1154.877493	-0.052526
1155.032066	-0.057345
1155.186620	-0.054991
1155.341156	-0.055308
1155.495674	-0.045257
1155.650173	-0.043579
1155.804654	-0.035741
1155.959118	-0.035554
1156.113562	-0.027147
1156.267989	-0.032722
1156.422397	-0.024120
1156.576788	-0.022840
1156.731160	-0.024394
1156.885513	-0.030058
1157.039849	-0.025598
1157.194166	-0.028062
1157.348465	-0.024820
1157.502746	-0.022428
1157.657009	-0.028146
1157.811253	-0.035090
1157.965479	-0.033506
1158.119687	-0.025901
1158.273877	-0.023980
1158.428048	-0.018307
1158.582201	-0.028331
1158.736337	-0.039317
1158.890453	-0.040827
1159.044552	-0.029094
1159.198632	-0.040135
1159.352694	-0.051070
1159.506738	-0.070285
1159.660764	-0.069261
1159.814771	-0.079183
1159.968761	-0.074052
1160.122732	-0.071608
1160.276685	-0.073612
1160.430619	-0.068009
1160.584535	-0.053695
1160.738434	-0.043445
1160.892313	-0.015277
1161.046175	-0.005874
1161.200019	-0.001458
1161.353844	0.007775
1161.507651	0.015168
1161.661440	0.025828
1161.815210	0.012887
1161.968962	-0.000677
1162.122697	-0.003755
1162.276412	-0.011935
1162.430110	-0.032418
1162.583789	-0.041571
1162.737451	-0.044143
1162.891094	-0.044837
1163.044718	-0.053977
1163.198325	-0.044398
1163.351913	-0.042770
1163.505483	-0.051811
1163.659035	-0.053918
1163.812569	-0.042466
1163.966084	-0.030010
1164.119581	-0.038698
1164.273060	-0.053885
1164.426521	-0.069564
1164.579964	-0.073609
1164.733388	-0.080061
1164.886794	-0.071548
1165.040182	-0.066726
1165.193551	-0.070832
1165.346903	-0.065605
1165.500236	-0.069267
1165.653551	-0.048624
1165.806848	-0.033841
1165.960126	-0.034233
1166.113386	-0.025100
1166.266628	-0.014785
1166.419852	-0.020969
1166.573058	-0.022163
1166.726245	-0.027328
1166.879414	-0.021352
1167.032565	-0.032092
1167.185698	-0.027990
1167.338812	-0.034519
1167.491909	-0.029085
1167.644987	-0.043137
1167.798046	-0.033413
1167.951088	-0.028195
1168.104111	-0.023939
1168.257117	-0.017391
1168.410103	-0.027217
1168.563072	-0.028157
1168.716023	-0.026521
1168.868955	-0.031859
1169.021869	-0.028082
1169.174765	-0.042029
1169.327642	-0.042519
1169.480501	-0.046647
1169.633343	-0.040332
1169.786165	-0.028687
1169.938970	-0.040317
1170.091757	-0.030643
1170.244525	-0.023812
1170.397275	-0.018682
1170.550007	-0.017980
1170.702720	-0.039227
1170.855415	-0.051571
1171.008092	-0.054624
1171.160751	-0.044177
1171.313392	-0.023191
1171.466014	-0.118242
1171.618619	0.046291
1171.771205	0.046291
1171.923772	0.046291
