sample name	sample
index	944
start time	 04-12-2021  02:24:21 PM
880	0.028765
Peak Time (s)	122.037
Peak Height 	0.02877
calc peak height	120,123
Baseline Time (s)	10.536
Baseline Value 	-0.005373
subtract baseline	10,4
Abs	0.053357
Peak Time (s)	120.041
Peak Height 	0.05336
calc peak height	120,123
Baseline Time (s)	10.536
Baseline Value 	0.002005
subtract baseline	10,3
PK_550	0.027397
Peak Time (s)	122.537
Peak Height 	0.0274
calc peak height	120,123
Baseline Time (s)	9.536
Baseline Value 	4.1166E-4
subtract baseline	10,2
PK_880	0.044148
Peak Time (s)	122.537
Peak Height 	0.04415
calc peak height	120,123
Baseline Time (s)	8.535
Baseline Value 	0.002768
subtract baseline	10,1


Time (s)	A880-A510	A880-A775	A880-A975	A880	I510	I775	I975	I880	
0.038000	-0.002083	0.000083	0.002040	0.001967	7158.176714	43423.165241	3956.523885	23309.318229
0.536000	-0.002674	0.000055	-0.000342	0.004359	7128.965943	43198.340267	3944.399142	23197.153463
1.035000	-0.003909	-0.000225	-0.001680	0.003539	7124.915191	43248.341200	3943.092738	23235.536795
1.536000	-0.004797	-0.000334	-0.001419	0.007238	7080.439629	42896.875546	3934.455643	23063.014502
2.036500	-0.001926	0.000790	-0.003152	0.001484	7164.459493	43534.010488	3944.563603	23331.998994
2.537000	-0.000007	0.000319	0.002761	0.001247	7185.739318	43512.267565	3960.208010	23343.187873
3.037000	-0.000106	0.000459	0.000165	-0.001124	7208.254008	43747.276022	3959.628887	23455.109618
3.535000	-0.000013	0.000177	-0.001736	0.001345	7184.711276	43489.835666	3948.497844	23338.571673
4.035000	-0.001052	0.000003	-0.002569	0.000448	7183.300418	43557.273033	3948.659465	23380.813086
4.535500	-0.000164	0.000288	-0.002634	0.000686	7189.734930	43561.750562	3947.892057	23369.613797
5.036000	-0.001240	0.000263	-0.005354	0.000644	7179.503230	43563.251763	3941.127804	23371.569940
5.536000	-0.000832	-0.000314	-0.004714	0.000049	7189.421927	43564.937847	3944.243547	23399.661395
6.036500	-0.000080	0.000449	0.002319	0.000633	7191.086152	43581.725022	3960.647237	23372.099809
6.537000	-0.001271	0.000246	-0.001263	0.000330	7182.298266	43590.990482	3952.275217	23386.381852
7.037000	-0.002500	0.000293	0.002099	-0.000113	7174.539014	43636.899033	3961.993767	23407.294262
7.537000	-0.001209	-0.000179	0.003147	-0.000489	7191.017030	43627.879358	3965.655205	23425.080427
8.037500	0.001415	-0.000552	-0.000185	-0.000448	7216.675234	43589.220333	3957.008952	23423.166039
8.535000	0.000000	0.000715	-0.000052	0.000450	7193.687902	43623.701575	3955.053020	23380.721878
9.035000	0.000046	-0.000423	-0.001769	-0.000925	7207.800933	43645.958754	3954.184258	23445.729124
9.535500	0.000517	0.000000	0.004349	-0.000471	7207.962745	43643.036113	3968.707464	23424.249002
10.036000	0.000863	0.000990	0.006765	0.000756	7199.209692	43620.788877	3971.780690	23366.298638
10.536000	-0.000513	-0.000445	0.000000	0.000000	7193.067184	43557.300793	3956.335084	23401.977094
11.036500	-0.000655	-0.000328	-0.002342	-0.000361	7195.232658	43601.981759	3951.289333	23419.025801
11.537000	-0.001316	0.000798	0.003459	0.000429	7180.888840	43633.506412	3964.097547	23381.748261
12.037000	-0.002097	0.000788	-0.004980	0.005242	7125.977473	43184.389434	3930.546499	23155.893133
12.537500	0.000284	0.000735	0.003401	-0.000048	7201.439792	43672.238734	3965.174647	23404.226912
13.034500	-0.000689	-0.000194	-0.002261	-0.001093	7202.159624	43683.072539	3953.356603	23453.662019
13.537500	0.000377	0.000529	0.004649	0.000205	7199.866380	43629.238321	3967.738931	23392.315375
14.038000	-0.002149	-0.000179	0.002529	0.004254	7135.112404	43186.380226	3951.941408	23202.055974
14.535500	-0.000774	-0.000107	-0.001265	0.001916	7171.559932	43410.186339	3948.245628	23311.708136
15.036000	-0.000262	0.000299	-0.002899	-0.000204	7197.575804	43645.982466	3949.476155	23411.609569
15.536500	0.000225	-0.000203	-0.001978	-0.000704	7207.375624	43645.809705	3953.089204	23435.256885
16.036500	-0.000643	0.000480	0.001293	0.004221	7150.176250	43250.451011	3948.885533	23203.600616
16.536500	-0.000633	0.000510	-0.000372	-0.000364	7195.485382	43680.766182	3956.315926	23419.194250
17.037000	0.002137	0.000410	0.000241	-0.003150	7250.909164	43933.352359	3965.025439	23551.296757
17.536500	-0.002063	0.000129	0.001146	0.000831	7169.545005	43533.256198	3957.138847	23362.762032
18.035000	-0.001538	-0.000390	0.002303	0.002779	7155.552977	43303.628664	3955.122891	23271.174520
18.537500	-0.001216	-0.000458	0.001038	0.000850	7177.708320	43476.734247	3956.814729	23361.882322
19.035000	0.001133	0.000603	-0.000295	0.001719	7192.346858	43494.669886	3951.205484	23320.959974
19.536000	-0.001599	0.000006	0.003730	0.000877	7173.659692	43517.530732	3963.640677	23360.592646
20.036000	-0.002073	0.000413	0.003406	0.003201	7146.161813	43338.927953	3956.858607	23251.363358
20.536000	0.001302	0.000105	-0.001270	0.001510	7196.086930	43467.725778	3949.262325	23330.791439
21.037000	-0.001496	0.000233	0.002060	0.000828	7175.161314	43543.304403	3959.482915	23362.895920
21.539500	-0.000989	-0.000898	-0.003825	0.000371	7184.684398	43480.344838	3945.673994	23384.456000
22.037000	-0.001681	-0.000226	-0.002266	0.003195	7150.059202	43280.190812	3942.481236	23251.638114
22.534500	-0.001012	-0.000312	0.000629	0.000779	7180.421832	43496.969890	3955.952285	23365.211436
23.035500	-0.000908	-0.000015	0.002701	0.001217	7177.121841	43483.801418	3960.129430	23344.577869
23.535500	-0.000302	0.000478	0.004822	0.001419	7181.121752	43510.968441	3965.056923	23335.079702
24.035500	-0.001158	-0.000445	-0.004599	0.002891	7158.190252	43288.108844	3937.381312	23265.925091
24.536000	-0.001702	-0.000531	-0.001592	0.000806	7173.357560	43474.111718	3950.230410	23363.963545
25.036500	-0.000717	-0.000104	0.000602	0.001256	7178.623957	43471.918502	3954.666915	23342.735641
25.539000	-0.001259	0.000238	0.002948	0.001331	7172.547656	43496.823020	3960.471433	23339.227036
26.037000	-0.003221	-0.000531	-0.001363	0.000466	7161.736642	43505.729188	3951.675661	23379.967730
26.537000	-0.000959	-0.000584	-0.002007	0.000801	7180.736860	43469.592790	3949.189821	23364.196821
27.037500	-0.000472	-0.000241	0.002039	-0.000656	7199.972806	43637.733249	3963.236016	23432.979602
27.535000	0.000456	0.001234	0.002269	-0.000218	7204.838599	43734.943670	3962.701666	23412.279076
28.037500	0.000928	-0.000380	-0.002387	-0.000740	7214.724440	43632.566818	3952.138178	23436.950423
28.538000	-0.000224	0.000455	0.002225	-0.000020	7196.127445	43643.340674	3962.081454	23402.913231
29.036000	-0.000743	0.000037	0.001866	0.000899	7181.895933	43518.353631	3958.806413	23359.578689
29.536000	0.000866	-0.000057	0.003126	-0.000093	7207.678202	43602.293224	3964.582528	23406.380716
30.036500	-0.004054	0.000250	-0.003415	0.005375	7105.644165	43122.412970	3934.123262	23149.717818
30.537000	-0.001105	0.000322	0.001381	0.002497	7162.573078	43395.965478	3953.488684	23284.371584
31.037000	-0.001296	0.000355	-0.000896	0.002657	7159.126196	43384.136835	3947.301367	23276.868061
31.539500	0.000767	0.000446	-0.000111	-0.000035	7206.116055	43643.950109	3956.141843	23403.626082
32.037000	-0.004996	-0.000778	-0.001528	0.004595	7104.071544	43099.411682	3940.814874	23186.102297
32.537500	0.000899	0.000612	0.004753	0.000154	7205.548500	43641.764619	3968.137361	23394.712019
33.035000	-0.001229	0.000336	0.000876	0.001652	7169.672232	43475.975617	3954.356688	23324.103310
33.535500	0.001655	0.000852	-0.000227	-0.001093	7225.494099	43781.282321	3958.548414	23453.653534
34.036000	-0.003877	0.000057	0.001661	0.004048	7120.267931	43227.254037	3950.256937	23211.682797
34.536000	-0.000103	-0.000010	-0.006331	0.001503	7182.254885	43457.584280	3936.515408	23331.111104
35.036500	-0.001029	0.000523	0.001498	0.002263	7165.632993	43436.573418	3954.383886	23295.404197
35.537000	-0.000775	-0.000025	0.003647	0.001453	7176.110994	43460.898659	3961.949442	23333.462747
36.037000	-0.002361	-0.000054	-0.000581	0.002927	7146.021790	43321.036168	3947.415873	23264.200689
36.538000	-0.002367	-0.000694	0.001385	0.001509	7159.880564	43393.376220	3956.018093	23330.839686
37.037500	-0.001554	0.000532	-0.001046	0.002303	7160.070342	43433.637483	3947.820603	23293.523132
37.535500	-0.001138	0.000702	0.005707	0.002399	7163.216178	43440.514077	3964.813262	23289.006046
38.035500	0.001059	0.000601	0.002990	0.003554	7173.475596	43323.690209	3954.895617	23234.828488
38.542000	-0.000891	-0.000244	0.003476	0.001573	7173.781682	43429.349123	3961.203448	23327.821278
39.036000	-0.001529	0.000652	0.002862	0.001825	7165.015931	43489.322234	3958.982907	23315.949595
39.536500	-0.003234	0.000096	0.000001	0.001366	7152.773801	43480.358131	3952.856663	23337.591375
40.036500	-0.001693	0.000622	0.000956	0.003326	7148.662425	43346.843824	3950.302760	23245.520317
40.537000	-0.000927	0.000282	-0.000189	0.001839	7170.808874	43453.607549	3951.170919	23315.322866
41.037000	0.001428	0.000757	-0.000896	0.002646	7186.096195	43422.640456	3947.329993	23277.411257
41.538000	0.000750	0.000253	-0.002884	0.002282	7182.986081	43409.609845	3943.226782	23294.510953
42.035000	-0.001854	0.000564	0.002054	0.004151	7139.009149	43264.797483	3950.995184	23206.887135
42.535500	-0.000779	-0.000222	0.001551	0.001530	7175.307365	43435.333602	3956.388051	23329.832709
43.036000	0.002720	0.000544	0.001820	0.002012	7205.175960	43461.817965	3955.844165	23307.156275
43.536000	-0.000244	0.000330	0.004416	0.001915	7176.796190	43450.923423	3962.737884	23311.738731
44.036000	-0.002564	0.000098	0.006303	0.003019	7143.133471	43326.554347	3964.748951	23259.881654
44.540000	0.001674	0.000854	0.001021	0.000831	7206.513595	43601.016750	3956.820065	23362.749246
45.036500	-0.002913	0.000424	0.000129	0.005031	7120.081463	43170.274648	3943.892903	23165.765384
45.536500	-0.000710	-0.001158	0.003789	-0.000795	7198.996742	43565.001513	3968.098665	23439.545842
46.037000	-0.002122	0.000184	0.000748	0.004067	7137.204852	43237.361147	3947.894915	23210.801918
46.537500	0.000001	0.000075	0.002370	0.000395	7194.240239	43568.967258	3961.387446	23383.309836
47.035500	-0.001994	0.000093	0.002558	0.003575	7143.272951	43274.532282	3953.742484	23233.824429
47.535500	-0.000384	0.000917	0.000081	0.002535	7169.301175	43447.906995	3950.090738	23282.627837
48.035500	-0.000858	0.000304	-0.002619	0.004952	7140.911918	43166.542712	3937.178000	23169.459554
48.536000	0.002329	0.000623	0.001721	0.000548	7215.851496	43605.965009	3959.331899	23376.107152
49.036500	-0.001416	-0.000430	0.001120	0.004038	7144.403910	43183.116000	3948.910631	23212.168871
49.536500	0.000607	-0.000260	-0.000004	-0.002230	7226.384094	43783.609114	3962.033135	23507.578836
50.037000	-0.001597	-0.000020	0.002330	0.005052	7132.703198	43127.258104	3949.406800	23164.758163
50.537500	-0.007290	-0.002084	0.004529	0.009091	7038.719725	42566.954988	3944.752713	22977.130034
51.037500	-0.045474	-0.010900	0.026744	0.350457	4621.804205	20653.031891	3373.820860	12043.977821
51.535000	-0.059776	-0.016369	-0.004763	-0.015595	6781.524572	43526.580656	3984.334968	24151.850536
52.035000	-0.060084	-0.040025	-0.010308	-0.198653	8816.993997	61509.006454	4558.228019	35297.314048
52.535500	-0.034824	-0.039252	0.005881	-0.204627	9258.884317	62425.368365	4647.785376	35746.140929
53.036000	-0.026471	-0.019183	0.001179	-0.147755	8585.767678	57595.027548	4409.842002	31713.639592
53.536000	-0.012756	-0.015640	-0.001766	-0.150797	8809.787379	58429.528953	4410.188361	31916.218302
54.036500	-0.000319	-0.012508	-0.008309	-0.151562	8992.481701	58929.359259	4389.540203	31967.384067
54.536500	0.005865	-0.009080	-0.006211	-0.136109	8863.636613	57401.396500	4342.848610	30951.052151
55.036500	0.002333	-0.005700	-0.003895	-0.112596	8503.048641	54935.911131	4271.626156	29472.319678
55.534500	0.007278	-0.005141	-0.000265	-0.102744	8439.975936	53835.746080	4251.369750	28876.093510
56.034500	0.004385	-0.003941	-0.003611	-0.086580	8201.755703	52113.183126	4189.711593	27926.791759
56.535500	0.004259	-0.001837	0.000441	-0.062472	7913.524482	49685.700581	4129.147440	26575.002634
57.035000	0.002996	0.000855	-0.000470	-0.024857	7483.441002	46076.598627	4020.367726	24610.081008
57.536000	0.003642	-0.000284	0.000177	-0.035302	7602.235473	47010.221722	4050.704378	25138.778157
58.036000	-0.000243	0.000246	0.002889	-0.011898	7315.306807	44750.894926	3994.731430	23971.636951
58.537000	0.000675	0.000177	0.005419	-0.007040	7275.349154	44279.649164	3988.599937	23737.152535
59.037000	0.000307	0.001547	0.002882	0.001575	7185.595391	43596.373180	3959.676828	23327.754526
59.537000	-0.000386	0.000447	0.003879	0.005918	7136.088616	43090.427602	3951.144100	23124.410264
60.040000	0.000039	0.000472	0.005971	0.009720	7103.205018	42743.046694	3946.807521	22948.065353
60.537500	0.004443	0.002424	0.005570	0.016221	7082.916821	42328.671483	3929.477369	22650.076603
61.035000	-0.001597	0.001730	-0.000706	0.020546	6984.045024	41876.532584	3903.391864	22454.287304
61.535000	0.002749	0.003222	0.011817	0.015462	7073.897456	42470.048194	3947.070323	22684.642555
62.035500	0.000314	0.003231	0.010381	0.017255	7033.373731	42308.129538	3938.927694	22603.085491
62.536000	0.003627	0.002499	0.011842	0.001577	7218.527310	43685.282254	3982.850796	23327.640129
63.036000	0.003217	0.003188	0.008286	0.004911	7181.381739	43438.025656	3964.983213	23171.338510
63.536500	0.012872	0.004447	0.010653	-0.019401	7530.415051	45892.004907	4035.768248	24338.959231
64.037000	0.012887	0.004249	0.012971	-0.028324	7626.893255	46762.992462	4066.924225	24784.191987
64.537000	0.014533	0.004671	0.010836	-0.024878	7607.306658	46459.113973	4051.353974	24611.154499
65.037000	0.015525	0.003587	0.011353	-0.043559	7825.865143	48257.165318	4105.753187	25565.759012
65.535000	0.016410	0.003298	0.018660	-0.061199	8040.919531	50102.934749	4180.135418	26505.691788
66.035000	0.013344	0.004561	0.010775	-0.052042	7897.989674	49254.030072	4128.863827	26012.983922
66.535500	0.017228	0.004411	0.016592	-0.055106	7978.743935	49565.550743	4155.330703	26176.696534
67.035500	0.014886	0.004807	0.016264	-0.049161	7882.577399	48974.068496	4136.579262	25860.114832
67.535500	0.017683	0.004653	0.015514	-0.050494	7930.282643	49099.180785	4138.311294	25930.750792
68.036500	0.015020	0.005421	0.014517	-0.046847	7857.589470	48794.381781	4124.584035	25738.095893
68.536500	0.014547	0.004959	0.021503	-0.043568	7814.860497	48401.384213	4135.530409	25566.242558
69.036500	0.011368	0.006126	0.016753	-0.033262	7664.320355	47455.423602	4091.649154	25034.504836
69.534500	0.014425	0.006521	0.025022	-0.035156	7719.048269	47690.467418	4121.100898	25131.281944
70.037000	0.010810	0.006241	0.021480	-0.025772	7576.689772	46706.569755	4083.761357	24655.925816
70.534500	0.015127	0.006557	0.022986	-0.029109	7659.991532	47075.910933	4097.621523	24823.785403
71.035000	0.015464	0.007512	0.028211	-0.026333	7633.293527	46891.446669	4104.690512	24684.056346
71.535500	0.015398	0.007291	0.024535	-0.024433	7611.869824	46677.497195	4088.654974	24588.931472
72.035000	0.011820	0.007238	0.019006	-0.017751	7501.647424	46004.988567	4054.248452	24257.655446
72.536000	0.014380	0.008379	0.024468	-0.020831	7561.920498	46425.225796	4078.216578	24409.722701
73.036500	0.012918	0.007884	0.023704	-0.014556	7479.434372	45753.077742	4058.431467	24101.023478
73.537000	0.017038	0.009392	0.030202	-0.018229	7562.513350	46266.403403	4087.118954	24281.147993
74.040000	0.013551	0.009245	0.023611	-0.012152	7460.763758	45650.524613	4051.492218	23983.986765
74.537500	0.016530	0.009154	0.021832	-0.016902	7542.822452	46110.755202	4059.753726	24215.925793
75.035000	0.015829	0.009900	0.025158	-0.011972	7482.884120	45697.117269	4055.285134	23975.204938
75.534500	0.018953	0.010499	0.035062	-0.014971	7548.085242	46052.523711	4091.700176	24121.292646
76.035500	0.015249	0.010248	0.022758	-0.008559	7440.861836	45396.733557	4039.228629	23810.170161
76.535500	0.019393	0.011600	0.030622	-0.012636	7527.813893	45930.410492	4072.445197	24007.496099
77.035500	0.015528	0.010457	0.029437	-0.007766	7435.489161	45339.756548	4055.488825	23772.041491
77.536000	0.019995	0.011482	0.028131	-0.012271	7530.347163	45882.639910	4064.416299	23989.731593
78.036000	0.018005	0.011443	0.027361	-0.006096	7443.929261	45273.023207	4045.116392	23691.882061
78.539500	0.021257	0.012099	0.029183	-0.010778	7527.875851	45796.092163	4063.183001	23917.327223
79.037500	0.019126	0.012351	0.023851	-0.005152	7445.791416	45269.607387	4032.899384	23646.729564
79.537500	0.022829	0.013033	0.029017	-0.010253	7539.065729	45836.471200	4061.250291	23891.924192
80.038000	0.021065	0.013837	0.032344	-0.003760	7451.524575	45278.634826	4052.434758	23580.295112
80.537500	0.025758	0.013161	0.027590	-0.009633	7563.847675	45787.902401	4055.542239	23861.960906
81.035500	0.020845	0.012944	0.030096	-0.004393	7455.880671	45253.471486	4047.965650	23610.508911
81.535500	0.026327	0.014083	0.036592	-0.008871	7561.767332	45803.781348	4078.679921	23825.219168
82.036500	0.023108	0.013831	0.030223	-0.002898	7463.949565	45194.279453	4044.189638	23539.306530
82.536500	0.027223	0.014694	0.032781	-0.008304	7565.316489	45808.145039	4066.333913	23797.909173
83.039500	0.025228	0.014363	0.031710	-0.003254	7490.094740	45280.610310	4049.276857	23556.217316
83.536500	0.027288	0.014823	0.036277	-0.008171	7564.580155	45807.718949	4075.804739	23791.501941
84.037000	0.027888	0.015241	0.034682	-0.007878	7567.886322	45820.040168	4070.477990	23777.400474
84.537500	0.029960	0.016056	0.033381	-0.006920	7579.904977	45805.920950	4064.135904	23731.411283
85.035000	0.025805	0.015614	0.037289	-0.001955	7482.454563	45276.034032	4061.177631	23494.507663
85.535000	0.030167	0.016142	0.035591	-0.006512	7577.725916	45774.180067	4069.190073	23711.805152
86.035500	0.028053	0.015612	0.027402	-0.001808	7504.724978	45261.506614	4033.463635	23487.537499
86.536000	0.029182	0.015079	0.033682	-0.007882	7581.891543	45804.472484	4067.679307	23777.627884
87.036000	0.029759	0.016359	0.036549	-0.002058	7525.545502	45358.679133	4059.398795	23499.385956
87.536000	0.032771	0.016792	0.038486	-0.006083	7601.259112	45795.939873	4076.148550	23691.264986
88.037000	0.032182	0.016950	0.033922	-0.006321	7597.454168	45835.031926	4063.971512	23702.672102
88.537000	0.030274	0.016188	0.038947	-0.006511	7578.868734	45778.677920	4078.665496	23711.786081
89.034500	0.030668	0.015963	0.041405	-0.002188	7536.652028	45332.766318	4073.390285	23505.569872
89.535000	0.032424	0.018121	0.036130	-0.005104	7586.893111	45830.431624	4066.750228	23644.419853
90.037500	0.031844	0.017601	0.040007	-0.005179	7581.437874	45786.647423	4077.895610	23648.026732
90.535500	0.034320	0.018318	0.040213	-0.004297	7598.686019	45770.337937	4075.981680	23605.910393
91.035500	0.032365	0.017934	0.038474	-0.004881	7583.848562	45790.006059	4072.718896	23633.776637
91.536000	0.033785	0.017726	0.041280	-0.004659	7596.810573	45747.591588	4080.028465	23623.161482
92.036500	0.030682	0.017967	0.040629	0.001029	7502.518396	45214.632413	4062.174343	23353.449910
92.536500	0.033616	0.017928	0.037157	-0.003949	7587.293764	45697.650824	4066.391235	23589.319302
93.037000	0.035372	0.018252	0.042091	-0.003427	7600.662851	45678.230043	4078.837169	23564.478837
93.537500	0.035261	0.018669	0.041261	-0.002854	7593.259143	45662.870387	4074.865815	23537.220586
94.034500	0.034514	0.019068	0.037988	-0.002404	7580.306025	45657.833686	4064.389996	23515.817016
94.535000	0.034796	0.018923	0.041331	-0.002408	7583.400773	45644.025513	4073.802829	23516.019130
95.035500	0.033144	0.018902	0.038101	0.000862	7530.522613	45321.907354	4055.590248	23361.315907
95.535500	0.034379	0.018977	0.038767	-0.001713	7571.394421	45581.093798	4064.637341	23483.043028
96.036000	0.033663	0.019393	0.042962	-0.001545	7561.875042	45605.367386	4075.971473	23475.060205
96.536000	0.035805	0.019347	0.045115	-0.001145	7580.655590	45561.611163	4080.940657	23456.115066
97.039000	0.035961	0.019965	0.044964	0.001652	7552.220878	45348.600752	4072.598848	23324.125871
97.537000	0.038526	0.020883	0.042400	0.001092	7585.881769	45492.938648	4066.958411	23350.462512
98.037500	0.032378	0.019614	0.042582	0.005550	7472.622873	44936.016782	4055.014138	23141.558359
98.540000	0.036475	0.020466	0.042106	0.001621	7558.075680	45400.448335	4064.648909	23325.562220
99.034500	0.034562	0.020215	0.041843	0.003462	7517.904336	45196.598738	4058.769855	23239.128452
99.535000	0.036953	0.020345	0.042061	0.002304	7555.867716	45321.936705	4062.610110	23293.447902
100.035500	0.033891	0.020636	0.041491	0.008895	7453.330948	44712.201332	4042.745661	22986.193871
100.535500	0.036355	0.021040	0.045354	0.003753	7533.942863	45248.552524	4067.782090	23225.513662
101.036000	0.035789	0.020689	0.043818	0.005849	7505.565070	45011.031512	4057.619424	23127.608256
101.539000	0.036494	0.020619	0.042188	0.004700	7525.302017	45115.615369	4056.280796	23181.220330
102.036500	0.034504	0.020589	0.037364	0.010093	7447.194863	44592.735471	4028.183310	22930.839712
102.536500	0.038582	0.020814	0.042971	0.005587	7538.148066	45048.543573	4055.992138	23139.838739
103.034500	0.037460	0.021041	0.042063	0.008073	7499.692332	44830.290284	4046.585984	23024.259791
103.537500	0.037418	0.021883	0.041478	0.007029	7510.344201	45012.435648	4047.855586	23072.722903
104.034500	0.037809	0.021401	0.043582	0.007566	7508.793615	44913.884537	4052.194178	23047.782245
104.535000	0.036712	0.020908	0.043352	0.006940	7503.779893	44926.751671	4053.291797	23076.846055
105.036000	0.038528	0.021812	0.046993	0.009992	7490.678105	44719.811195	4054.927656	22935.509758
105.535500	0.038544	0.022233	0.047471	0.009123	7500.051531	44843.928700	4058.677676	22975.632354
106.036500	0.038370	0.021635	0.046732	0.009278	7496.566753	44771.392943	4056.188530	22968.479933
106.536500	0.039047	0.022361	0.045248	0.009767	7498.557864	44794.234819	4050.709336	22945.881532
107.037000	0.038073	0.022283	0.042144	0.010245	7483.174987	44740.657829	4040.827823	22923.820308
107.537000	0.040209	0.023116	0.044780	0.011629	7491.139234	44687.778292	4044.271834	22860.090945
108.034500	0.037199	0.023000	0.044959	0.017893	7393.935665	44079.435207	4027.623123	22574.122659
108.534500	0.041376	0.022620	0.045679	0.012099	7498.518387	44595.064718	4045.453593	22838.467426
109.035000	0.040446	0.023584	0.044266	0.012676	7482.566423	44632.206720	4039.978754	22812.010310
109.535500	0.041946	0.024057	0.048647	0.013696	7487.637657	44579.692885	4049.241776	22765.250428
110.035500	0.036202	0.023675	0.039231	0.019358	7368.483641	44004.768747	4008.242157	22507.857143
110.536000	0.042953	0.024026	0.046095	0.014519	7489.598580	44498.056117	4039.941262	22727.666397
111.036000	0.041947	0.023546	0.052232	0.014904	7474.879753	44415.419640	4055.836146	22710.071004
111.536500	0.041348	0.023872	0.045941	0.015151	7465.954758	44422.915025	4037.784807	22698.783760
112.034000	0.038234	0.023900	0.043212	0.021254	7369.890844	43847.246101	4013.827801	22422.430687
112.537000	0.042550	0.024127	0.046158	0.016147	7468.131695	44352.275723	4035.653897	22653.443713
113.034500	0.040541	0.024582	0.047122	0.017964	7427.991330	44222.724506	4033.323962	22570.946473
113.535000	0.041793	0.023822	0.048242	0.016523	7456.212202	44287.398280	4040.332927	22636.326329
114.037500	0.038058	0.024152	0.045621	0.022642	7353.787740	43740.445846	4016.571125	22360.090028
114.535500	0.041949	0.025153	0.052896	0.017836	7444.060045	44289.098170	4049.543430	22576.707486
115.036000	0.040852	0.024265	0.046155	0.018980	7420.625666	44096.340487	4027.920198	22524.946489
115.538000	0.041649	0.024255	0.047952	0.017809	7441.195689	44206.336083	4036.014165	22577.942719
116.036500	0.038817	0.024748	0.048518	0.024327	7344.286445	43638.308223	4019.839538	22284.710472
116.536500	0.042318	0.025045	0.049792	0.019387	7431.686686	44131.552544	4036.728587	22506.537383
117.039500	0.042492	0.025131	0.046120	0.020362	7423.324998	44047.486809	4024.077620	22462.577495
117.537500	0.041672	0.025648	0.046011	0.020344	7414.957182	44098.108218	4023.831188	22463.395989
118.037000	0.042962	0.025092	0.050766	0.020558	7426.174976	44025.214890	4036.189142	22453.717697
118.535000	0.043603	0.024804	0.045569	0.020347	7435.084901	44018.009473	4022.624107	22463.248683
119.035000	0.044147	0.025802	0.047311	0.022396	7419.369308	43918.772884	4021.794868	22371.136327
119.535500	0.042972	0.025566	0.052590	0.021497	7416.494921	43981.354242	4038.617351	22411.507689
120.041500	0.042262	0.026862	0.053357	0.022888	7394.648974	43972.418576	4036.906801	22349.087255
120.536500	0.042680	0.025368	0.047794	0.021883	7409.427240	43926.218116	4024.488667	22394.138324
121.036000	0.042123	0.026023	0.046472	0.023060	7391.424085	43877.025892	4017.738839	22341.367847
121.537000	0.042776	0.025971	0.049646	0.023233	7396.403073	43855.848073	4025.850896	22333.614895
122.036500	0.038905	0.025616	0.049276	0.028765	7299.903524	43305.457718	4009.950073	22087.544230
122.536500	0.044148	0.027397	0.053307	0.025148	7390.772140	43809.843830	4030.596044	22248.073805
123.037000	0.043254	0.026300	0.048508	0.024626	7386.918528	43755.808340	4019.005342	22271.377291
123.535500	0.043515	0.026299	0.051561	0.024724	7388.611854	43746.522226	4027.002153	22267.003149
124.038000	0.040185	0.026079	0.047735	0.029418	7306.273608	43287.811405	4004.092278	22058.717753
124.538000	0.043514	0.027003	0.049698	0.025311	7382.517371	43757.530057	4020.367502	22240.822867
125.038000	0.043305	0.027973	0.053215	0.027048	7362.442717	43685.536937	4025.185446	22163.608630
125.536500	0.044047	0.027016	0.050109	0.026043	7380.462721	43690.003058	4019.502200	22208.235077
126.036500	0.043738	0.026901	0.051894	0.026320	7374.414780	43653.271032	4023.576940	22195.924520
126.537000	0.045430	0.027464	0.049169	0.026707	7387.910847	43669.815590	4015.183954	22178.745958
127.037000	0.041161	0.026853	0.045594	0.027122	7339.658504	43573.727266	4004.502878	22160.285023
127.540500	0.045321	0.027451	0.053156	0.027785	7375.626276	43567.679285	4023.027718	22130.922933
128.040500	0.039301	0.026411	0.044274	0.032368	7267.456105	43045.510391	3987.146510	21928.948512
128.535000	0.044356	0.027264	0.048576	0.027386	7369.790248	43587.575631	4011.769172	22148.614492
129.038500	0.044771	0.027658	0.052036	0.028560	7361.973287	43514.705613	4017.912990	22096.627376
129.536000	0.045558	0.028388	0.052329	0.029229	7363.174160	43520.297090	4016.897722	22067.041214
130.036000	0.043374	0.027663	0.046702	0.034542	7286.636663	42960.559024	3987.813079	21833.893996
