sample name	sample
index	573
start time	 03-16-2021  03:12:58 PM


Wavelength (nm)	Absorbance
494.344910	-0.681077
494.563924	-0.681077
494.782919	-0.681077
495.001897	-0.464944
495.220856	-0.320699
495.439797	-0.244927
495.658719	-0.062108
495.877624	0.158120
496.096510	0.230564
496.315378	-0.003386
496.534227	0.174011
496.753059	0.095718
496.971872	0.059049
497.190667	-0.003692
497.409444	0.005279
497.628203	-0.002170
497.846943	-0.003910
498.065665	-0.000221
498.284369	-0.001334
498.503055	-0.002114
498.721723	-0.001494
498.940372	-0.001097
499.159003	-0.001479
499.377616	-0.003198
499.596210	-0.001815
499.814787	-0.000707
500.033345	-0.001878
500.251885	0.000179
500.470406	-0.001369
500.688910	-0.000317
500.907395	-0.001319
501.125862	-0.000743
501.344311	-0.000051
501.562742	-0.000466
501.781154	0.000198
501.999548	0.000405
502.217924	-0.001305
502.436282	0.000712
502.654621	-0.000284
502.872942	-0.000654
503.091245	-0.001129
503.309530	-0.000854
503.527797	-0.001091
503.746045	-0.002153
503.964275	-0.002303
504.182487	-0.002090
504.400681	-0.003342
504.618856	-0.003096
504.837013	-0.001683
505.055152	-0.001517
505.273273	-0.002541
505.491376	-0.002456
505.709460	-0.003009
505.927526	-0.002877
506.145574	-0.002644
506.363604	-0.002701
506.581615	-0.002772
506.799608	-0.002654
507.017583	-0.002746
507.235540	-0.002082
507.453478	-0.001969
507.671399	-0.001187
507.889301	-0.001825
508.107185	-0.000932
508.325050	-0.000156
508.542898	-0.000907
508.760727	-0.001597
508.978538	-0.000395
509.196330	-0.000261
509.414105	-0.000634
509.631861	-0.000431
509.849599	-0.000365
510.067319	-0.001527
510.285021	-0.001779
510.502704	-0.000933
510.720369	-0.000949
510.938016	-0.002178
511.155645	-0.002258
511.373255	-0.001441
511.590848	-0.002270
511.808422	-0.001827
512.025977	-0.001162
512.243515	-0.000625
512.461034	-0.001484
512.678536	-0.000934
512.896018	-0.000326
513.113483	-0.000301
513.330930	-0.000339
513.548358	-0.000170
513.765768	-0.000027
513.983160	-0.000214
514.200533	-0.001124
514.417889	-0.000702
514.635226	-0.000658
514.852545	-0.000566
515.069845	-0.000929
515.287128	-0.001622
515.504392	-0.000688
515.721638	-0.000095
515.938866	-0.000260
516.156075	0.000029
516.373267	0.000734
516.590440	0.000457
516.807594	-0.000131
517.024731	0.001214
517.241850	0.000685
517.458950	0.000192
517.676032	-0.000174
517.893095	0.000200
518.110141	0.000004
518.327168	-0.001122
518.544177	-0.001155
518.761168	-0.000834
518.978141	-0.001362
519.195095	-0.000380
519.412031	-0.000409
519.628949	0.000386
519.845849	-0.000048
520.062731	0.000148
520.279594	0.000292
520.496439	0.000393
520.713266	0.000248
520.930074	-0.000650
521.146865	0.000091
521.363637	0.000136
521.580391	-0.000419
521.797127	-0.000895
522.013844	-0.000447
522.230543	0.000179
522.447224	0.000245
522.663887	0.000475
522.880532	0.000934
523.097158	-0.000330
523.313766	0.000110
523.530356	0.000122
523.746928	0.000422
523.963481	0.000306
524.180017	0.000403
524.396534	0.000621
524.613032	0.000185
524.829513	0.000065
525.045975	0.000334
525.262420	0.000644
525.478845	0.000623
525.695253	0.001052
525.911643	0.000666
526.128014	0.000308
526.344367	0.000106
526.560702	0.000275
526.777018	0.000191
526.993316	0.000636
527.209597	-0.000089
527.425858	-0.000675
527.642102	-0.000547
527.858328	0.000112
528.074535	0.000409
528.290724	0.000867
528.506894	0.001230
528.723047	0.001508
528.939181	0.001588
529.155297	0.001623
529.371395	0.001715
529.587475	0.002149
529.803536	0.002342
530.019579	0.001613
530.235604	0.001401
530.451611	0.000837
530.667600	0.000224
530.883570	-0.000601
531.099522	-0.000742
531.315456	-0.000614
531.531372	-0.000982
531.747269	-0.001307
531.963148	-0.000593
532.179009	-0.001491
532.394852	-0.000696
532.610676	-0.000199
532.826482	0.000420
533.042271	0.001096
533.258040	0.001286
533.473792	0.000417
533.689525	0.000888
533.905240	0.000775
534.120937	0.001269
534.336616	0.000755
534.552277	0.000801
534.767919	0.000735
534.983543	0.000663
535.199149	0.000900
535.414736	0.001736
535.630306	0.001402
535.845857	0.001523
536.061390	0.001845
536.276904	0.002488
536.492401	0.002785
536.707879	0.002423
536.923339	0.001906
537.138781	0.002285
537.354204	0.002501
537.569610	0.003126
537.784997	0.003618
538.000366	0.003724
538.215716	0.003667
538.431049	0.003782
538.646363	0.004084
538.861659	0.003865
539.076937	0.003881
539.292196	0.003705
539.507438	0.003489
539.722661	0.003287
539.937866	0.003123
540.153052	0.002670
540.368221	0.002760
540.583371	0.003393
540.798503	0.003852
541.013617	0.003611
541.228712	0.003481
541.443789	0.003038
541.658848	0.003203
541.873889	0.003525
542.088912	0.003620
542.303916	0.003741
542.518902	0.003457
542.733870	0.003612
542.948820	0.003452
543.163752	0.003786
543.378665	0.004136
543.593560	0.003781
543.808437	0.003369
544.023295	0.003303
544.238136	0.002677
544.452958	0.002875
544.667762	0.003123
544.882548	0.003005
545.097315	0.002858
545.312064	0.003157
545.526795	0.003406
545.741508	0.003603
545.956203	0.003581
546.170879	0.003783
546.385537	0.003924
546.600177	0.003484
546.814799	0.003730
547.029402	0.003677
547.243988	0.003176
547.458555	0.003708
547.673103	0.003950
547.887634	0.004057
548.102146	0.004172
548.316640	0.003778
548.531116	0.004000
548.745574	0.004387
548.960013	0.004562
549.174435	0.004692
549.388838	0.004364
549.603222	0.004577
549.817589	0.005057
550.031937	0.005477
550.246267	0.005754
550.460579	0.006111
550.674873	0.005464
550.889148	0.005515
551.103405	0.005260
551.317644	0.005064
551.531865	0.004859
551.746068	0.005033
551.960252	0.004457
552.174418	0.004324
552.388566	0.004185
552.602696	0.004651
552.816807	0.004684
553.030900	0.005006
553.244975	0.005284
553.459032	0.005142
553.673070	0.004879
553.887091	0.005494
554.101093	0.005842
554.315077	0.005748
554.529042	0.005487
554.742990	0.005402
554.956919	0.005303
555.170830	0.005086
555.384722	0.005025
555.598597	0.005083
555.812453	0.004791
556.026291	0.004699
556.240111	0.005006
556.453913	0.004973
556.667696	0.004907
556.881461	0.004895
557.095208	0.004889
557.308937	0.005161
557.522647	0.005037
557.736339	0.005344
557.950013	0.005337
558.163669	0.005105
558.377307	0.005155
558.590926	0.005416
558.804527	0.005938
559.018110	0.005852
559.231675	0.006008
559.445221	0.006330
559.658749	0.006036
559.872259	0.005828
560.085751	0.005732
560.299225	0.005818
560.512680	0.005255
560.726117	0.004889
560.939536	0.005002
561.152937	0.004741
561.366319	0.004379
561.579683	0.004325
561.793029	0.004414
562.006357	0.004410
562.219667	0.004504
562.432958	0.004778
562.646231	0.004914
562.859486	0.004481
563.072723	0.004676
563.285941	0.004852
563.499141	0.005116
563.712323	0.004872
563.925487	0.004967
564.138632	0.005076
564.351760	0.005279
564.564869	0.005303
564.777960	0.005869
564.991032	0.005620
565.204087	0.005690
565.417123	0.005441
565.630141	0.005399
565.843140	0.005484
566.056122	0.005626
566.269085	0.005811
566.482030	0.005662
566.694957	0.005824
566.907866	0.005893
567.120756	0.005930
567.333628	0.006322
567.546482	0.007071
567.759318	0.006970
567.972135	0.006924
568.184935	0.006642
568.397716	0.006526
568.610478	0.006017
568.823223	0.005895
569.035949	0.005767
569.248657	0.005799
569.461347	0.005432
569.674019	0.005779
569.886672	0.005592
570.099308	0.005807
570.311925	0.005824
570.524523	0.006337
570.737104	0.006502
570.949666	0.006782
571.162210	0.006647
571.374736	0.006609
571.587244	0.006322
571.799733	0.006207
572.012205	0.006111
572.224658	0.006447
572.437092	0.006106
572.649509	0.006150
572.861907	0.005885
573.074287	0.005725
573.286649	0.005690
573.498993	0.005503
573.711318	0.006013
573.923625	0.005810
574.135914	0.005647
574.348185	0.005604
574.560438	0.005668
574.772672	0.005571
574.984888	0.005411
575.197086	0.005603
575.409266	0.005554
575.621427	0.005516
575.833570	0.005721
576.045695	0.005441
576.257802	0.005708
576.469890	0.005820
576.681961	0.005807
576.894013	0.006254
577.106046	0.006147
577.318062	0.006250
577.530059	0.005852
577.742039	0.006145
577.954000	0.006377
578.165942	0.006470
578.377867	0.006292
578.589773	0.006452
578.801661	0.006485
579.013531	0.006110
579.225382	0.006306
579.437216	0.006205
579.649031	0.006201
579.860828	0.006136
580.072606	0.005875
580.284367	0.005977
580.496109	0.006235
580.707833	0.005757
580.919539	0.006196
581.131227	0.006121
581.342896	0.006212
581.554547	0.005759
581.766180	0.006000
581.977795	0.006177
582.189391	0.006211
582.400969	0.005918
582.612529	0.006061
582.824071	0.005958
583.035595	0.006053
583.247100	0.006337
583.458587	0.006581
583.670056	0.006653
583.881506	0.006921
584.092939	0.006993
584.304353	0.007252
584.515749	0.007468
584.727127	0.007363
584.938486	0.007320
585.149828	0.007230
585.361151	0.007232
585.572456	0.007171
585.783742	0.006563
585.995011	0.006074
586.206261	0.005951
586.417493	0.005938
586.628706	0.006165
586.839902	0.006276
587.051079	0.006247
587.262238	0.006069
587.473379	0.005950
587.684502	0.006078
587.895606	0.006322
588.106692	0.006173
588.317760	0.005911
588.528810	0.005800
588.739841	0.005886
588.950855	0.005626
589.161850	0.005872
589.372827	0.005580
589.583785	0.005703
589.794726	0.005858
590.005648	0.005976
590.216552	0.006148
590.427437	0.006336
590.638305	0.005731
590.849154	0.006139
591.059985	0.005755
591.270798	0.006118
591.481592	0.005998
591.692369	0.006149
591.903127	0.005885
592.113867	0.006008
592.324588	0.005738
592.535292	0.005642
592.745977	0.005478
592.956644	0.005587
593.167293	0.005551
593.377923	0.005845
593.588536	0.005646
593.799130	0.005780
594.009706	0.005665
594.220263	0.005585
594.430803	0.005946
594.641324	0.005981
594.851827	0.006031
595.062312	0.006396
595.272778	0.006487
595.483227	0.006861
595.693657	0.007004
595.904069	0.007158
596.114462	0.007437
596.324838	0.007823
596.535195	0.007543
596.745534	0.007442
596.955855	0.007048
597.166157	0.006935
597.376441	0.006799
597.586707	0.006791
597.796955	0.006364
598.007185	0.006391
598.217396	0.006170
598.427589	0.006482
598.637764	0.006495
598.847921	0.006729
599.058060	0.006555
599.268180	0.006429
599.478282	0.006500
599.688366	0.006833
599.898431	0.007016
600.108479	0.007222
600.318508	0.006931
600.528519	0.007255
600.738511	0.007036
600.948486	0.007288
601.158442	0.007015
601.368380	0.007000
601.578300	0.007282
601.788202	0.006699
601.998085	0.006591
602.207950	0.006640
602.417797	0.006580
602.627626	0.006872
602.837436	0.006859
603.047228	0.007056
603.257002	0.006702
603.466758	0.006511
603.676496	0.006509
603.886215	0.006310
604.095916	0.006516
604.305599	0.006219
604.515264	0.006352
604.724910	0.006156
604.934538	0.005862
605.144148	0.006194
605.353740	0.005993
605.563314	0.006324
605.772869	0.006660
605.982406	0.006898
606.191925	0.007039
606.401425	0.006969
606.610908	0.007187
606.820372	0.007755
607.029818	0.007813
607.239246	0.008104
607.448655	0.007985
607.658047	0.007910
607.867420	0.008035
608.076775	0.008231
608.286111	0.007793
608.495430	0.007577
608.704730	0.007384
608.914012	0.007487
609.123275	0.007258
609.332521	0.007203
609.541748	0.007132
609.750957	0.006821
609.960148	0.006948
610.169321	0.007125
610.378475	0.007298
610.587611	0.007295
610.796729	0.007071
611.005829	0.007113
611.214910	0.007230
611.423974	0.007404
611.633019	0.007624
611.842045	0.007386
612.051054	0.007534
612.260044	0.007573
612.469017	0.007570
612.677970	0.007801
612.886906	0.007908
613.095824	0.008032
613.304723	0.007898
613.513604	0.007784
613.722467	0.007825
613.931311	0.007748
614.140138	0.007861
614.348946	0.007943
614.557736	0.007956
614.766507	0.007787
614.975261	0.007888
615.183996	0.007882
615.392713	0.007969
615.601412	0.008341
615.810092	0.008559
616.018754	0.008411
616.227399	0.008238
616.436024	0.007873
616.644632	0.008015
616.853222	0.008149
617.061793	0.008270
617.270346	0.008309
617.478880	0.008173
617.687397	0.008109
617.895895	0.008050
618.104375	0.008334
618.312837	0.008763
618.521281	0.009079
618.729706	0.008877
618.938113	0.008996
619.146502	0.008851
619.354873	0.008901
619.563226	0.008785
619.771560	0.008982
619.979876	0.008962
620.188174	0.008824
620.396453	0.008469
620.604715	0.008455
620.812958	0.008165
621.021183	0.008499
621.229390	0.008385
621.437578	0.008548
621.645748	0.008682
621.853900	0.008434
622.062034	0.008869
622.270150	0.009102
622.478247	0.009302
622.686326	0.009810
622.894387	0.009476
623.102430	0.009558
623.310454	0.009479
623.518461	0.009281
623.726449	0.009468
623.934418	0.009167
624.142370	0.009265
624.350303	0.009264
624.558218	0.009090
624.766115	0.009213
624.973994	0.009129
625.181855	0.009116
625.389697	0.009194
625.597521	0.009287
625.805327	0.009172
626.013114	0.009133
626.220883	0.009187
626.428634	0.009244
626.636367	0.009085
626.844082	0.009346
627.051778	0.009412
627.259457	0.009438
627.467117	0.009231
627.674758	0.009152
627.882382	0.009010
628.089987	0.008976
628.297574	0.008804
628.505143	0.009017
628.712694	0.008659
628.920226	0.008651
629.127740	0.008494
629.335236	0.008579
629.542714	0.008719
629.750174	0.008866
629.957615	0.008669
630.165038	0.008622
630.372443	0.008625
630.579829	0.008981
630.787198	0.009105
630.994548	0.009164
631.201880	0.009520
631.409194	0.009515
631.616489	0.009473
631.823766	0.009920
632.031025	0.010156
632.238266	0.010312
632.445489	0.010323
632.652693	0.010246
632.859879	0.010351
633.067047	0.010181
633.274197	0.010316
633.481329	0.010544
633.688442	0.010530
633.895537	0.010437
634.102614	0.010247
634.309672	0.010110
634.516713	0.010032
634.723735	0.009986
634.930739	0.010083
635.137724	0.010132
635.344692	0.010040
635.551641	0.009866
635.758572	0.009957
635.965485	0.010066
636.172379	0.010179
636.379256	0.010244
636.586114	0.010431
636.792954	0.010277
636.999775	0.010204
637.206579	0.010156
637.413364	0.010145
637.620131	0.010004
637.826880	0.009797
638.033610	0.009818
638.240323	0.009747
638.447017	0.009816
638.653692	0.009961
638.860350	0.010429
639.066990	0.010539
639.273611	0.010617
639.480214	0.010876
639.686798	0.011030
639.893365	0.011064
640.099913	0.011163
640.306443	0.011268
640.512955	0.011255
640.719449	0.011093
640.925924	0.010872
641.132381	0.011044
641.338820	0.010996
641.545241	0.011094
641.751644	0.011209
641.958028	0.011465
642.164394	0.011321
642.370742	0.011376
642.577071	0.011142
642.783383	0.011351
642.989676	0.011514
643.195951	0.011493
643.402207	0.011598
643.608446	0.011464
643.814666	0.011217
644.020868	0.011185
644.227052	0.011191
644.433218	0.011422
644.639365	0.011546
644.845494	0.011398
645.051605	0.011649
645.257698	0.011714
645.463772	0.011856
645.669828	0.011967
645.875866	0.012071
646.081886	0.012047
646.287888	0.011995
646.493871	0.011866
646.699836	0.011720
646.905783	0.011603
647.111712	0.011433
647.317622	0.011301
647.523514	0.011447
647.729388	0.011378
647.935244	0.011514
648.141082	0.011495
648.346901	0.011660
648.552702	0.011818
648.758485	0.011749
648.964250	0.011944
649.169996	0.012248
649.375724	0.012193
649.581434	0.012227
649.787126	0.012136
649.992800	0.012034
650.198455	0.011982
650.404092	0.011907
650.609711	0.011846
650.815311	0.011843
651.020894	0.011784
651.226458	0.011888
651.432004	0.011920
651.637532	0.012052
651.843041	0.012175
652.048532	0.012198
652.254006	0.012188
652.459460	0.012442
652.664897	0.012497
652.870315	0.012437
653.075716	0.012450
653.281097	0.012571
653.486461	0.012574
653.691807	0.012591
653.897134	0.012628
654.102443	0.012750
654.307734	0.012829
654.513006	0.012828
654.718261	0.012846
654.923497	0.012821
655.128715	0.012961
655.333915	0.013053
655.539096	0.013226
655.744259	0.013283
655.949404	0.013253
656.154531	0.013115
656.359640	0.013062
656.564730	0.013040
656.769802	0.013193
656.974856	0.012774
657.179892	0.012761
657.384909	0.012635
657.589908	0.012596
657.794889	0.012708
657.999852	0.012643
658.204797	0.012811
658.409723	0.013018
658.614631	0.012819
658.819521	0.013212
659.024393	0.013288
659.229246	0.013367
659.434081	0.013340
659.638898	0.013495
659.843697	0.013695
660.048478	0.013554
660.253240	0.013470
660.457984	0.013656
660.662710	0.013741
660.867417	0.013745
661.072107	0.013929
661.276778	0.013955
661.481431	0.013724
661.686066	0.013598
661.890682	0.013829
662.095281	0.013803
662.299861	0.013763
662.504422	0.013576
662.708966	0.013641
662.913491	0.013571
663.117999	0.013711
663.322488	0.013949
663.526958	0.014006
663.731411	0.013967
663.935845	0.013943
664.140261	0.014090
664.344659	0.014320
664.549038	0.014363
664.753400	0.014400
664.957743	0.014220
665.162068	0.014075
665.366375	0.014220
665.570663	0.014151
665.774933	0.014408
665.979185	0.014369
666.183419	0.014253
666.387635	0.013992
666.591832	0.014093
666.796011	0.014233
667.000172	0.014222
667.204315	0.014160
667.408439	0.014369
667.612545	0.014315
667.816634	0.014278
668.020703	0.014400
668.224755	0.014750
668.428788	0.014680
668.632803	0.014811
668.836800	0.014892
669.040779	0.014847
669.244739	0.014809
669.448681	0.014646
669.652605	0.014864
669.856511	0.014866
670.060399	0.014793
670.264268	0.014693
670.468119	0.014735
670.671952	0.015052
670.875767	0.015293
671.079563	0.015221
671.283341	0.015444
671.487101	0.015351
671.690843	0.015360
671.894567	0.015401
672.098272	0.015396
672.301959	0.015381
672.505628	0.015155
672.709278	0.015040
672.912911	0.015140
673.116525	0.015112
673.320121	0.014993
673.523699	0.014878
673.727258	0.014726
673.930799	0.014819
674.134322	0.014679
674.337827	0.014445
674.541314	0.014376
674.744782	0.014501
674.948232	0.014571
675.151664	0.014656
675.355078	0.014835
675.558474	0.015018
675.761851	0.015381
675.965210	0.015621
676.168551	0.015902
676.371873	0.016063
676.575178	0.016067
676.778464	0.016147
676.981732	0.016304
677.184981	0.016370
677.388213	0.016541
677.591426	0.016361
677.794621	0.016298
677.997798	0.016392
678.200956	0.016493
678.404097	0.016449
678.607219	0.016364
678.810323	0.016308
679.013408	0.016318
679.216476	0.016304
679.419525	0.016222
679.622556	0.016290
679.825569	0.016248
680.028563	0.016205
680.231540	0.016155
680.434498	0.016312
680.637438	0.016494
680.840359	0.016598
681.043263	0.016581
681.246148	0.016747
681.449015	0.016709
681.651864	0.016828
681.854694	0.016863
682.057506	0.016974
682.260301	0.016849
682.463076	0.016802
682.665834	0.016801
682.868573	0.016720
683.071295	0.016721
683.273998	0.016801
683.476682	0.016807
683.679349	0.016743
683.881997	0.016666
684.084627	0.016720
684.287239	0.016859
684.489833	0.016889
684.692408	0.016762
684.894965	0.016601
685.097504	0.016619
685.300025	0.016497
685.502527	0.016600
685.705012	0.016576
685.907478	0.016419
686.109925	0.016166
686.312355	0.016064
686.514766	0.016358
686.717159	0.016438
686.919534	0.016407
687.121891	0.016643
687.324230	0.016603
687.526550	0.016622
687.728852	0.016768
687.931136	0.016993
688.133401	0.017071
688.335649	0.017058
688.537878	0.017103
688.740089	0.017331
688.942281	0.017278
689.144456	0.017275
689.346612	0.017486
689.548750	0.017645
689.750870	0.017539
689.952971	0.017605
690.155055	0.017534
690.357120	0.017674
690.559167	0.017654
690.761195	0.017600
690.963206	0.017914
691.165198	0.017939
691.367172	0.018072
691.569128	0.018234
691.771065	0.018307
691.972984	0.018419
692.174885	0.018269
692.376768	0.018168
692.578633	0.018386
692.780479	0.018304
692.982308	0.018164
693.184118	0.017939
693.385909	0.017777
693.587683	0.017796
693.789438	0.017785
693.991175	0.017840
694.192894	0.017831
694.394595	0.017843
694.596277	0.017987
694.797941	0.018206
694.999587	0.018248
695.201215	0.018605
695.402824	0.018418
695.604416	0.018474
695.805989	0.018532
696.007543	0.018653
696.209080	0.018576
696.410598	0.018301
696.612099	0.018373
696.813580	0.018425
697.015044	0.018292
697.216490	0.018326
697.417917	0.018240
697.619326	0.018387
697.820717	0.018327
698.022089	0.018305
698.223444	0.018461
698.424780	0.018296
698.626098	0.018326
698.827397	0.018361
699.028679	0.018394
699.229942	0.018599
699.431187	0.018543
699.632414	0.018424
699.833622	0.018428
700.034813	0.018273
700.235985	0.018325
700.437139	0.018395
700.638274	0.018180
700.839392	0.018220
701.040491	0.018078
701.241572	0.018064
701.442635	0.018047
701.643679	0.017837
701.844706	0.017949
702.045714	0.017719
702.246704	0.017623
702.447675	0.017743
702.648629	0.017658
702.849564	0.017749
703.050481	0.017913
703.251380	0.018098
703.452260	0.018164
703.653122	0.018140
703.853966	0.018294
704.054792	0.018496
704.255600	0.018390
704.456389	0.018661
704.657160	0.018566
704.857913	0.018424
705.058648	0.018292
705.259365	0.018355
705.460063	0.018518
705.660743	0.018675
705.861405	0.018651
706.062048	0.018758
706.262674	0.018774
706.463281	0.018890
706.663870	0.018852
706.864441	0.018902
707.064993	0.018933
707.265527	0.018810
707.466043	0.018612
707.666541	0.018407
707.867021	0.018659
708.067482	0.018603
708.267925	0.018584
708.468350	0.018557
708.668757	0.018677
708.869145	0.018667
709.069516	0.018665
709.269868	0.018768
709.470201	0.018985
709.670517	0.018843
709.870814	0.018775
710.071093	0.018527
710.271354	0.018565
710.471597	0.018540
710.671821	0.018593
710.872028	0.018403
711.072216	0.018433
711.272385	0.018405
711.472537	0.018272
711.672670	0.018372
711.872785	0.018642
712.072882	0.018663
712.272961	0.018697
712.473021	0.018791
712.673063	0.018888
712.873087	0.018806
713.073093	0.018614
713.273081	0.018556
713.473050	0.018474
713.673001	0.018268
713.872934	0.018245
714.072849	0.018120
714.272745	0.017977
714.472623	0.017810
714.672483	0.017782
714.872325	0.017921
715.072148	0.017940
715.271954	0.017631
715.471741	0.017613
715.671509	0.017531
715.871260	0.017580
716.070992	0.017499
716.270707	0.017660
716.470403	0.017718
716.670080	0.017843
716.869740	0.017900
717.069381	0.017929
717.269004	0.018069
717.468609	0.018090
717.668195	0.017928
717.867764	0.017880
718.067314	0.017863
718.266846	0.017727
718.466360	0.017368
718.665855	0.017232
718.865332	0.017403
719.064791	0.017378
719.264232	0.017225
719.463655	0.017210
719.663059	0.017298
719.862445	0.017192
720.061813	0.017183
720.261163	0.016968
720.460494	0.016928
720.659807	0.016703
720.859102	0.016496
721.058379	0.016635
721.257638	0.016805
721.456878	0.016912
721.656100	0.017070
721.855304	0.017067
722.054490	0.017222
722.253657	0.017095
722.452806	0.017285
722.651937	0.017450
722.851050	0.017283
723.050145	0.017141
723.249221	0.016878
723.448279	0.016588
723.647319	0.016539
723.846340	0.016382
724.045344	0.016330
724.244329	0.016253
724.443296	0.016212
724.642245	0.016071
724.841175	0.015964
725.040088	0.015958
725.238982	0.015928
725.437857	0.015941
725.636715	0.016002
725.835554	0.016129
726.034376	0.016010
726.233179	0.015757
726.431963	0.015832
726.630730	0.015794
726.829478	0.015797
727.028208	0.015736
727.226920	0.015922
727.425614	0.015924
727.624289	0.015889
727.822946	0.015870
728.021585	0.016012
728.220206	0.016001
728.418808	0.015887
728.617392	0.015861
728.815958	0.015889
729.014506	0.015538
729.213036	0.015727
729.411547	0.015617
729.610040	0.015476
729.808515	0.015330
730.006972	0.015234
730.205410	0.015410
730.403831	0.015327
730.602233	0.015336
730.800616	0.015343
730.998982	0.015032
731.197329	0.015094
731.395658	0.015090
731.593969	0.015124
731.792262	0.015030
731.990536	0.014785
732.188793	0.014756
732.387031	0.014587
732.585250	0.014418
732.783452	0.014268
732.981635	0.014223
733.179800	0.014207
733.377947	0.014128
733.576076	0.014308
733.774186	0.014306
733.972278	0.014332
734.170352	0.014200
734.368408	0.014190
734.566446	0.014201
734.764465	0.013817
734.962466	0.013732
735.160449	0.013509
735.358413	0.013371
735.556360	0.013537
735.754288	0.013272
735.952198	0.013450
736.150090	0.013646
736.347963	0.013743
736.545818	0.013924
736.743655	0.013955
736.941474	0.014198
737.139275	0.014052
737.337057	0.014065
737.534821	0.013924
737.732567	0.013947
737.930295	0.013704
738.128005	0.013753
738.325696	0.013817
738.523369	0.013537
738.721024	0.013401
738.918660	0.013572
739.116279	0.013192
739.313879	0.013347
739.511461	0.013306
739.709024	0.013471
739.906570	0.013367
740.104097	0.013406
740.301606	0.013509
740.499097	0.013351
740.696569	0.013146
740.894024	0.013283
741.091460	0.013161
741.288878	0.013159
741.486277	0.013104
741.683659	0.013074
741.881022	0.012772
742.078367	0.012881
742.275694	0.012861
742.473002	0.012676
742.670293	0.012736
742.867565	0.012778
743.064819	0.012663
743.262054	0.012420
743.459272	0.012304
743.656471	0.012510
743.853652	0.012548
744.050815	0.012577
744.247959	0.012790
744.445085	0.012628
744.642194	0.012756
744.839283	0.012842
745.036355	0.012944
745.233408	0.012997
745.430444	0.012851
745.627461	0.012894
745.824459	0.012904
746.021440	0.012695
746.218402	0.012701
746.415346	0.012643
746.612272	0.012396
746.809180	0.012341
747.006069	0.012459
747.202940	0.012597
747.399793	0.012323
747.596628	0.012246
747.793444	0.012359
747.990243	0.012250
748.187023	0.012083
748.383784	0.012020
748.580528	0.012010
748.777253	0.011956
748.973960	0.011796
749.170649	0.011797
749.367320	0.012019
749.563973	0.012162
749.760607	0.012097
749.957223	0.012283
750.153821	0.012306
750.350400	0.012235
750.546962	0.012144
750.743505	0.012355
750.940030	0.012726
751.136536	0.012457
751.333025	0.012413
751.529495	0.012721
751.725947	0.012657
751.922381	0.012909
752.118796	0.013087
752.315194	0.013163
752.511573	0.012873
752.707934	0.012620
752.904276	0.012902
753.100601	0.012739
753.296907	0.012780
753.493195	0.012845
753.689465	0.012747
753.885716	0.012628
754.081949	0.012634
754.278164	0.012690
754.474361	0.012736
754.670540	0.012682
754.866700	0.012829
755.062843	0.012469
755.258967	0.012282
755.455072	0.012228
755.651160	0.012295
755.847229	0.012099
756.043280	0.012058
756.239313	0.012033
756.435328	0.012046
756.631324	0.011847
756.827302	0.011889
757.023262	0.011871
757.219204	0.011831
757.415127	0.011760
757.611033	0.011891
757.806920	0.011935
758.002788	0.011614
758.198639	0.011358
758.394471	0.011459
758.590286	0.011661
758.786081	0.011614
758.981859	0.011743
759.177619	0.011521
759.373360	0.011506
759.569083	0.011503
759.764788	0.011761
759.960474	0.011673
760.156143	0.011591
760.351793	0.011559
760.547425	0.011704
760.743038	0.011614
760.938634	0.011996
761.134211	0.012003
761.329770	0.012051
761.525311	0.012067
761.720833	0.012070
761.916338	0.012098
762.111824	0.012235
762.307292	0.012525
762.502741	0.012371
762.698173	0.012166
762.893586	0.012181
763.088981	0.012226
763.284358	0.012390
763.479716	0.012628
763.675057	0.012889
763.870379	0.012613
764.065683	0.012330
764.260968	0.012626
764.456236	0.012703
764.651485	0.012756
764.846716	0.012611
765.041929	0.012375
765.237123	0.012384
765.432299	0.012225
765.627457	0.012271
765.822597	0.012311
766.017719	0.012166
766.212822	0.012241
766.407907	0.012229
766.602974	0.012318
766.798023	0.012273
766.993054	0.012233
767.188066	0.012281
767.383060	0.012238
767.578036	0.012284
767.772993	0.012240
767.967933	0.012018
768.162854	0.011967
768.357757	0.012025
768.552642	0.012151
768.747508	0.012034
768.942356	0.012012
769.137186	0.011898
769.331998	0.011975
769.526792	0.012015
769.721567	0.012551
769.916324	0.012499
770.111063	0.012708
770.305784	0.012712
770.500486	0.012802
770.695171	0.012809
770.889837	0.012966
771.084484	0.012825
771.279114	0.012867
771.473725	0.012755
771.668318	0.012963
771.862893	0.012651
772.057450	0.012697
772.251988	0.012662
772.446509	0.012641
772.641011	0.012824
772.835494	0.012834
773.029960	0.012785
773.224407	0.012460
773.418836	0.012178
773.613247	0.012090
773.807640	0.011783
774.002014	0.011893
774.196370	0.012058
774.390708	0.011835
774.585028	0.011911
774.779330	0.011884
774.973613	0.012044
775.167878	0.012378
775.362125	0.012624
775.556354	0.012801
775.750564	0.012834
775.944756	0.012696
776.138930	0.012878
776.333086	0.013071
776.527223	0.013121
776.721343	0.012987
776.915444	0.012696
777.109526	0.012451
777.303591	0.012635
777.497637	0.012356
777.691666	0.012332
777.885676	0.012263
778.079667	0.011714
778.273641	0.011776
778.467596	0.011652
778.661533	0.011500
778.855452	0.011779
779.049352	0.011703
779.243235	0.012035
779.437099	0.012062
779.630945	0.012139
779.824773	0.012366
780.018582	0.012361
780.212373	0.012658
780.406146	0.012815
780.599901	0.012644
780.793638	0.012779
780.987356	0.012552
781.181056	0.012389
781.374738	0.012487
781.568402	0.012508
781.762047	0.012538
781.955674	0.012327
782.149283	0.012643
782.342874	0.012752
782.536447	0.012826
782.730001	0.012998
782.923537	0.013342
783.117055	0.013198
783.310555	0.013095
783.504036	0.012906
783.697499	0.013094
783.890944	0.012887
784.084371	0.012971
784.277780	0.012758
784.471170	0.012696
784.664542	0.012543
784.857896	0.012362
785.051231	0.012531
785.244549	0.012732
785.437848	0.012639
785.631129	0.012559
785.824392	0.012342
786.017636	0.012246
786.210863	0.012368
786.404071	0.012632
786.597260	0.012844
786.790432	0.013039
786.983585	0.013057
787.176721	0.013291
787.369838	0.013322
787.562936	0.013736
787.756017	0.013893
787.949079	0.014129
788.142123	0.013815
788.335149	0.013738
788.528156	0.013648
788.721146	0.013701
788.914117	0.013684
789.107070	0.013734
789.300005	0.013475
789.492921	0.013362
789.685819	0.013042
789.878699	0.013118
790.071561	0.013251
790.264405	0.013190
790.457230	0.013209
790.650037	0.013069
790.842826	0.013336
791.035597	0.013260
791.228349	0.013439
791.421084	0.013658
791.613800	0.013684
791.806497	0.013670
791.999177	0.013926
792.191838	0.014001
792.384481	0.013868
792.577106	0.013707
792.769713	0.013620
792.962301	0.013491
793.154871	0.013371
793.347423	0.013566
793.539957	0.013723
793.732473	0.013477
793.924970	0.013441
794.117449	0.013828
794.309910	0.013872
794.502353	0.014234
794.694777	0.014430
794.887183	0.014532
795.079571	0.014283
795.271941	0.014192
795.464293	0.014237
795.656626	0.014246
795.848941	0.014008
796.041238	0.013885
796.233516	0.013830
796.425777	0.013725
796.618019	0.013508
796.810243	0.013644
797.002449	0.013719
797.194636	0.013718
797.386805	0.013712
797.578956	0.013868
797.771089	0.013942
797.963204	0.013865
798.155300	0.013979
798.347378	0.014305
798.539438	0.014441
798.731480	0.014485
798.923503	0.014577
799.115509	0.014544
799.307496	0.014336
799.499465	0.014484
799.691415	0.014632
799.883348	0.014714
800.075262	0.014611
800.267158	0.014668
800.459035	0.014694
800.650895	0.014621
800.842736	0.014735
801.034559	0.014919
801.226364	0.015091
801.418150	0.014958
801.609919	0.014955
801.801669	0.014828
801.993401	0.014610
802.185114	0.014653
802.376810	0.014986
802.568487	0.015129
802.760146	0.015223
802.951787	0.015267
803.143409	0.015313
803.335014	0.015186
803.526600	0.015156
803.718168	0.015389
803.909717	0.015449
804.101249	0.015322
804.292762	0.015446
804.484257	0.015351
804.675734	0.015115
804.867192	0.015168
805.058632	0.015349
805.250054	0.015417
805.441458	0.015625
805.632844	0.015502
805.824211	0.015466
806.015561	0.015379
806.206891	0.015593
806.398204	0.015616
806.589499	0.015882
806.780775	0.016110
806.972033	0.016216
807.163273	0.015977
807.354495	0.016057
807.545698	0.015957
807.736883	0.016081
807.928050	0.015989
808.119199	0.016169
808.310329	0.016111
808.501441	0.016068
808.692535	0.016145
808.883611	0.016219
809.074669	0.016503
809.265708	0.016682
809.456729	0.016618
809.647732	0.016654
809.838717	0.016664
810.029683	0.016843
810.220632	0.016718
810.411562	0.016728
810.602474	0.016565
810.793367	0.016250
810.984242	0.016292
811.175100	0.016252
811.365938	0.016442
811.556759	0.016488
811.747562	0.016270
811.938346	0.016356
812.129112	0.016467
812.319860	0.016648
812.510589	0.016780
812.701300	0.016848
812.891994	0.016991
813.082668	0.016853
813.273325	0.016680
813.463964	0.016758
813.654584	0.016741
813.845186	0.017093
814.035769	0.017207
814.226335	0.017398
814.416882	0.017304
814.607411	0.017249
814.797922	0.017368
814.988415	0.017574
815.178889	0.017704
815.369345	0.017733
815.559783	0.017562
815.750203	0.017552
815.940605	0.017394
816.130988	0.017712
816.321353	0.017737
816.511700	0.017713
816.702028	0.017835
816.892339	0.017866
817.082631	0.017924
817.272905	0.018014
817.463161	0.018268
817.653398	0.018432
817.843617	0.018305
818.033819	0.018441
818.224001	0.018524
818.414166	0.018594
818.604312	0.018665
818.794440	0.018648
818.984550	0.018373
819.174642	0.018216
819.364716	0.018130
819.554771	0.018075
819.744808	0.017986
819.934827	0.017794
820.124827	0.017517
820.314810	0.017311
820.504774	0.017697
820.694720	0.017735
820.884647	0.017762
821.074557	0.017747
821.264448	0.017726
821.454321	0.017781
821.644176	0.018029
821.834012	0.018082
822.023831	0.018078
822.213631	0.018095
822.403413	0.018206
822.593176	0.018289
822.782922	0.018438
822.972649	0.018581
823.162358	0.018660
823.352049	0.018625
823.541721	0.018855
823.731376	0.019179
823.921012	0.019031
824.110629	0.018947
824.300229	0.018769
824.489811	0.018848
824.679374	0.018813
824.868919	0.018731
825.058445	0.018680
825.247954	0.018482
825.437444	0.018313
825.626916	0.018225
825.816370	0.018397
826.005806	0.018686
826.195223	0.018713
826.384622	0.018718
826.574003	0.018871
826.763366	0.019101
826.952711	0.019353
827.142037	0.019416
827.331345	0.019304
827.520635	0.019437
827.709906	0.019329
827.899160	0.019411
828.088395	0.019388
828.277612	0.019325
828.466810	0.019258
828.655991	0.019470
828.845153	0.019600
829.034297	0.019703
829.223423	0.019640
829.412531	0.019728
829.601620	0.019505
829.790691	0.019671
829.979744	0.019949
830.168779	0.019926
830.357795	0.019609
830.546793	0.019731
830.735773	0.019916
830.924735	0.019821
831.113679	0.019744
831.302604	0.019722
831.491511	0.019864
831.680400	0.019936
831.869271	0.019934
832.058123	0.020360
832.246957	0.020011
832.435773	0.019898
832.624571	0.020287
832.813351	0.020325
833.002112	0.020633
833.190855	0.020633
833.379580	0.020505
833.568287	0.020583
833.756975	0.020396
833.945645	0.020538
834.134297	0.020671
834.322931	0.020331
834.511547	0.020295
834.700144	0.020266
834.888723	0.020297
835.077284	0.020157
835.265826	0.020363
835.454351	0.020473
835.642857	0.020971
835.831345	0.021109
836.019815	0.021292
836.208266	0.021426
836.396699	0.021518
836.585114	0.021637
836.773511	0.021734
836.961890	0.021728
837.150250	0.021402
837.338592	0.021002
837.526916	0.020972
837.715222	0.021148
837.903510	0.021241
838.091779	0.021399
838.280030	0.021479
838.468263	0.021474
838.656477	0.021157
838.844674	0.021652
839.032852	0.021680
839.221012	0.021602
839.409153	0.021482
839.597277	0.021537
839.785382	0.021342
839.973469	0.021231
840.161538	0.021381
840.349589	0.021720
840.537621	0.021378
840.725635	0.021425
840.913631	0.021593
841.101609	0.021737
841.289568	0.021659
841.477509	0.021741
841.665432	0.021904
841.853337	0.021929
842.041224	0.021826
842.229092	0.022023
842.416942	0.022118
842.604774	0.022232
842.792588	0.022145
842.980383	0.022129
843.168160	0.022093
843.355919	0.021985
843.543660	0.021956
843.731382	0.022447
843.919087	0.022683
844.106773	0.022930
844.294441	0.022945
844.482090	0.023128
844.669722	0.023344
844.857335	0.023747
845.044930	0.023801
845.232507	0.023590
845.420065	0.023394
845.607605	0.023195
845.795127	0.023164
845.982631	0.023225
846.170117	0.023459
846.357584	0.023679
846.545033	0.023602
846.732464	0.023819
846.919877	0.024080
847.107272	0.024289
847.294648	0.024188
847.482006	0.024313
847.669346	0.024413
847.856667	0.024433
848.043971	0.024547
848.231256	0.024720
848.418523	0.024807
848.605771	0.025034
848.793002	0.024879
848.980214	0.025153
849.167408	0.025208
849.354584	0.025101
849.541742	0.025226
849.728881	0.024937
849.916002	0.024830
850.103105	0.024870
850.290190	0.024926
850.477256	0.025034
850.664304	0.025431
850.851334	0.025309
851.038346	0.025673
851.225340	0.025501
851.412315	0.025913
851.599272	0.025941
851.786211	0.026112
851.973132	0.026360
852.160034	0.026730
852.346918	0.026368
852.533784	0.026631
852.720632	0.026540
852.907462	0.026818
853.094273	0.026835
853.281066	0.027003
853.467841	0.027088
853.654598	0.027013
853.841336	0.027220
854.028056	0.027655
854.214758	0.027675
854.401442	0.027827
854.588107	0.028090
854.774755	0.028183
854.961384	0.028172
855.147995	0.028245
855.334587	0.028277
855.521162	0.027949
855.707718	0.027849
855.894256	0.027876
856.080775	0.027983
856.267277	0.027976
856.453760	0.027680
856.640225	0.027923
856.826672	0.027710
857.013101	0.028146
857.199511	0.028411
857.385903	0.028635
857.572277	0.029002
857.758633	0.029032
857.944970	0.028811
858.131290	0.029112
858.317591	0.029022
858.503873	0.029119
858.690138	0.029040
858.876384	0.028779
859.062612	0.028885
859.248822	0.028713
859.435014	0.028609
859.621188	0.028706
859.807343	0.029150
859.993480	0.029219
860.179599	0.029784
860.365699	0.029710
860.551781	0.030284
860.737846	0.030039
860.923891	0.030173
861.109919	0.030436
861.295929	0.030610
861.481920	0.030233
861.667893	0.030342
861.853848	0.029862
862.039784	0.029924
862.225702	0.029729
862.411603	0.029933
862.597484	0.029768
862.783348	0.029783
862.969193	0.029797
863.155021	0.030323
863.340830	0.030516
863.526620	0.030920
863.712393	0.031239
863.898147	0.030867
864.083883	0.030820
864.269601	0.030953
864.455301	0.031166
864.640982	0.031401
864.826645	0.031044
865.012290	0.031061
865.197917	0.030976
865.383526	0.030651
865.569116	0.031061
865.754688	0.031198
865.940242	0.031460
866.125777	0.031289
866.311295	0.031087
866.496794	0.031387
866.682275	0.031179
866.867737	0.031207
867.053182	0.031638
867.238608	0.031750
867.424016	0.031559
867.609406	0.031547
867.794778	0.031431
867.980131	0.031373
868.165466	0.031334
868.350783	0.031778
868.536082	0.032052
868.721362	0.032054
868.906625	0.032024
869.091869	0.032179
869.277094	0.032254
869.462302	0.032410
869.647491	0.032596
869.832662	0.032455
870.017815	0.032442
870.202950	0.032262
870.388066	0.032128
870.573165	0.032124
870.758245	0.032219
870.943306	0.032478
871.128350	0.032559
871.313375	0.032774
871.498382	0.032922
871.683371	0.032916
871.868342	0.033008
872.053294	0.033154
872.238229	0.033341
872.423144	0.033341
872.608042	0.033129
872.792922	0.033247
872.977783	0.033270
873.162626	0.033474
873.347451	0.033604
873.532258	0.033545
873.717046	0.033752
873.901816	0.033583
874.086568	0.033799
874.271302	0.034087
874.456017	0.034180
874.640715	0.034194
874.825394	0.034424
875.010055	0.034400
875.194697	0.034884
875.379322	0.034978
875.563928	0.035243
875.748516	0.035293
875.933085	0.035439
876.117637	0.035445
876.302170	0.035592
876.486685	0.035262
876.671182	0.035434
876.855661	0.035274
877.040121	0.034952
877.224563	0.035098
877.408987	0.035463
877.593393	0.035028
877.777780	0.035134
877.962150	0.034969
878.146501	0.035045
878.330833	0.035069
878.515148	0.035275
878.699444	0.035416
878.883722	0.035709
879.067982	0.035811
879.252224	0.036430
879.436447	0.036872
879.620653	0.037133
879.804840	0.037597
879.989008	0.037682
880.173159	0.037385
880.357291	0.037598
880.541405	0.037411
880.725501	0.037207
880.909579	0.036927
881.093638	0.036819
881.277680	0.036625
881.461703	0.036278
881.645707	0.036184
881.829694	0.036102
882.013662	0.035937
882.197612	0.035673
882.381544	0.035683
882.565458	0.035706
882.749353	0.035358
882.933230	0.035787
883.117089	0.036093
883.300930	0.035831
883.484753	0.036119
883.668557	0.036332
883.852343	0.037039
884.036111	0.037131
884.219861	0.037355
884.403592	0.037592
884.587305	0.037374
884.771000	0.037056
884.954677	0.037426
885.138335	0.037292
885.321976	0.037152
885.505598	0.036786
885.689201	0.036788
885.872787	0.037029
886.056354	0.037039
886.239904	0.037161
886.423434	0.036995
886.606947	0.036876
886.790442	0.037338
886.973918	0.037355
887.157376	0.037372
887.340816	0.036994
887.524237	0.036664
887.707641	0.036911
887.891026	0.036711
888.074393	0.036861
888.257741	0.036979
888.441072	0.036658
888.624384	0.036453
888.807678	0.036210
888.990954	0.036430
889.174211	0.036356
889.357451	0.036090
889.540672	0.036162
889.723875	0.036296
889.907059	0.036203
890.090226	0.035873
890.273374	0.036259
890.456504	0.036420
890.639616	0.036750
890.822709	0.036826
891.005785	0.036962
891.188842	0.037015
891.371881	0.037039
891.554901	0.037168
891.737904	0.037669
891.920888	0.037510
892.103854	0.037387
892.286802	0.037206
892.469731	0.036893
892.652643	0.036583
892.835536	0.036605
893.018410	0.036514
893.201267	0.036322
893.384106	0.036419
893.566926	0.036536
893.749728	0.036674
893.932511	0.036819
894.115277	0.037044
894.298024	0.037163
894.480753	0.036971
894.663464	0.037262
894.846157	0.037404
895.028831	0.037091
895.211487	0.036933
895.394125	0.037348
895.576745	0.037144
895.759346	0.037314
895.941930	0.037167
896.124495	0.036887
896.307041	0.036682
896.489570	0.036472
896.672080	0.036651
896.854573	0.036882
897.037046	0.036562
897.219502	0.036522
897.401940	0.036252
897.584359	0.036355
897.766760	0.036604
897.949143	0.036266
898.131507	0.036399
898.313854	0.036312
898.496182	0.036008
898.678492	0.035882
898.860783	0.035992
899.043057	0.035798
899.225312	0.036205
899.407549	0.036202
899.589768	0.036467
899.771968	0.036737
899.954151	0.036583
900.136315	0.036796
900.318461	0.036970
900.500588	0.036624
900.682698	0.037128
900.864789	0.036675
901.046862	0.036869
901.228917	0.037076
901.410953	0.036394
901.592971	0.036339
901.774972	0.036342
901.956953	0.036134
902.138917	0.036711
902.320862	0.036609
902.502790	0.036361
902.684699	0.036234
902.866589	0.035799
903.048462	0.036085
903.230316	0.036203
903.412152	0.036086
903.593970	0.036177
903.775770	0.035964
903.957551	0.035795
904.139314	0.036259
904.321059	0.036429
904.502786	0.036544
904.684494	0.036300
904.866185	0.036483
905.047857	0.036604
905.229510	0.036439
905.411146	0.036075
905.592763	0.036040
905.774363	0.035795
905.955943	0.035710
906.137506	0.035486
906.319051	0.035730
906.500577	0.035259
906.682085	0.034707
906.863575	0.034710
907.045046	0.034444
907.226500	0.034093
907.407935	0.034026
907.589352	0.033803
907.770750	0.033979
907.952131	0.033894
908.133493	0.033868
908.314837	0.034126
908.496163	0.034218
908.677470	0.034684
908.858760	0.034916
909.040031	0.035004
909.221284	0.035114
909.402518	0.035428
909.583735	0.035389
909.764933	0.035692
909.946113	0.035810
910.127275	0.035390
910.308418	0.035352
910.489544	0.035413
910.670651	0.035155
910.851740	0.034607
911.032810	0.033996
911.213863	0.033925
911.394897	0.033577
911.575913	0.033272
911.756911	0.033228
911.937890	0.033123
912.118851	0.032521
912.299794	0.032575
912.480719	0.032989
912.661626	0.032842
912.842514	0.032659
913.023384	0.032358
913.204236	0.031948
913.385070	0.031883
913.565886	0.031349
913.746683	0.031347
913.927462	0.031145
914.108223	0.030390
914.288965	0.030144
914.469690	0.030113
914.650396	0.030052
914.831084	0.030012
915.011754	0.029732
915.192405	0.030063
915.373038	0.029721
915.553653	0.029512
915.734250	0.029727
915.914829	0.029865
916.095389	0.030048
916.275931	0.029971
916.456455	0.029609
916.636961	0.029297
916.817448	0.028969
916.997917	0.029148
917.178368	0.029125
917.358801	0.028695
917.539216	0.028516
917.719612	0.027841
917.899990	0.027784
918.080350	0.028107
918.260692	0.028088
918.441015	0.027610
918.621320	0.027600
918.801607	0.027458
918.981876	0.027816
919.162127	0.027738
919.342359	0.027334
919.522573	0.026841
919.702769	0.026416
919.882947	0.026581
920.063106	0.027075
920.243247	0.026712
920.423370	0.026775
920.603475	0.026211
920.783562	0.026067
920.963630	0.026452
921.143680	0.026748
921.323712	0.027154
921.503725	0.026984
921.683721	0.026329
921.863698	0.026323
922.043657	0.026505
922.223598	0.026921
922.403520	0.026798
922.583424	0.026673
922.763311	0.026360
922.943178	0.025603
923.123028	0.024884
923.302859	0.024830
923.482673	0.024628
923.662467	0.023368
923.842244	0.022634
924.022003	0.022663
924.201743	0.022049
924.381465	0.021463
924.561169	0.021555
924.740854	0.021345
924.920522	0.021493
925.100171	0.021342
925.279802	0.021042
925.459414	0.021438
925.639009	0.021076
925.818585	0.020954
925.998143	0.020851
926.177683	0.020547
926.357205	0.020791
926.536708	0.020046
926.716193	0.019537
926.895660	0.020104
927.075109	0.019419
927.254539	0.018703
927.433951	0.018347
927.613345	0.018188
927.792721	0.018098
927.972079	0.017835
928.151418	0.017849
928.330739	0.018042
928.510042	0.017240
928.689327	0.017775
928.868593	0.018128
929.047841	0.018306
929.227071	0.018242
929.406283	0.017726
929.585476	0.017445
929.764652	0.017136
929.943809	0.016614
930.122948	0.016515
930.302068	0.015654
930.481171	0.015437
930.660255	0.014966
930.839321	0.014557
931.018369	0.014398
931.197398	0.013934
931.376409	0.013853
931.555402	0.013795
931.734377	0.013849
931.913334	0.013760
932.092272	0.013059
932.271192	0.012705
932.450094	0.012315
932.628978	0.012081
932.807844	0.011434
932.986691	0.010720
933.165520	0.010114
933.344331	0.009466
933.523123	0.008721
933.701898	0.008193
933.880654	0.007839
934.059392	0.007706
934.238111	0.007130
934.416813	0.008253
934.595496	0.008045
934.774161	0.008220
934.952808	0.008302
935.131437	0.008479
935.310047	0.008530
935.488639	0.008434
935.667213	0.008724
935.845769	0.008149
936.024306	0.007431
936.202825	0.007095
936.381326	0.007024
936.559809	0.006619
936.738274	0.005630
936.916720	0.005729
937.095148	0.006417
937.273558	0.005209
937.451950	0.005993
937.630323	0.005157
937.808678	0.005029
937.987015	0.004209
938.165334	0.004009
938.343635	0.004612
938.521917	0.004242
938.700181	0.003095
938.878427	0.003806
939.056655	0.003307
939.234864	0.003766
939.413055	0.004231
939.591228	0.004212
939.769383	0.003778
939.947519	0.002887
940.125638	0.001913
940.303738	0.001246
940.481820	0.000968
940.659883	0.000425
940.837929	0.000113
941.015956	-0.001088
941.193965	-0.001556
941.371955	-0.001977
941.549928	-0.001704
941.727882	-0.001288
941.905818	-0.001327
942.083736	-0.001712
942.261636	-0.001558
942.439517	-0.001962
942.617380	-0.001360
942.795225	-0.002288
942.973052	-0.002428
943.150860	-0.003514
943.328651	-0.003788
943.506423	-0.003780
943.684176	-0.003719
943.861912	-0.004084
944.039629	-0.004602
944.217328	-0.005277
944.395009	-0.004876
944.572672	-0.004666
944.750317	-0.004842
944.927943	-0.005174
945.105551	-0.004854
945.283141	-0.005417
945.460712	-0.005783
945.638265	-0.005825
945.815801	-0.006180
945.993317	-0.006205
946.170816	-0.007981
946.348297	-0.008257
946.525759	-0.008020
946.703203	-0.009245
946.880629	-0.010107
947.058036	-0.010734
947.235425	-0.010362
947.412797	-0.011648
947.590149	-0.012346
947.767484	-0.011149
947.944800	-0.010893
948.122099	-0.012548
948.299379	-0.011727
948.476640	-0.012652
948.653884	-0.012288
948.831109	-0.012921
949.008316	-0.011418
949.185505	-0.010186
949.362676	-0.009816
949.539828	-0.009897
949.716962	-0.009575
949.894078	-0.010982
950.071176	-0.010576
950.248256	-0.011484
950.425317	-0.013856
950.602360	-0.013917
950.779385	-0.015192
950.956391	-0.016084
951.133380	-0.015952
951.310350	-0.015881
951.487302	-0.015893
951.664235	-0.015656
951.841151	-0.013834
952.018048	-0.011214
952.194927	-0.010806
952.371788	-0.010186
952.548631	-0.011144
952.725455	-0.011820
952.902261	-0.011644
953.079049	-0.011234
953.255819	-0.009709
953.432570	-0.012037
953.609303	-0.012834
953.786018	-0.014009
953.962715	-0.013334
954.139394	-0.014255
954.316054	-0.013577
954.492696	-0.013645
954.669320	-0.013703
954.845926	-0.015318
955.022513	-0.015645
955.199083	-0.017542
955.375634	-0.017602
955.552166	-0.019055
955.728681	-0.016480
955.905177	-0.017302
956.081655	-0.018576
956.258115	-0.017059
956.434557	-0.017864
956.610980	-0.016710
956.787385	-0.014585
956.963772	-0.013480
957.140141	-0.013867
957.316492	-0.014659
957.492824	-0.013860
957.669138	-0.013141
957.845434	-0.013992
958.021712	-0.013585
958.197971	-0.012695
958.374212	-0.013557
958.550435	-0.015366
958.726640	-0.014080
958.902826	-0.015634
959.078995	-0.015205
959.255145	-0.014585
959.431277	-0.014462
959.607390	-0.015044
959.783486	-0.016073
959.959563	-0.016270
960.135622	-0.015164
960.311662	-0.015454
960.487685	-0.013578
960.663689	-0.011463
960.839675	-0.010704
961.015643	-0.013298
961.191593	-0.011043
961.367524	-0.011807
961.543437	-0.009928
961.719332	-0.010658
961.895209	-0.012193
962.071067	-0.010286
962.246907	-0.011749
962.422730	-0.011528
962.598533	-0.009226
962.774319	-0.008319
962.950086	-0.008445
963.125835	-0.009064
963.301566	-0.009942
963.477279	-0.009013
963.652973	-0.009618
963.828650	-0.011536
964.004308	-0.010611
964.179947	-0.013144
964.355569	-0.017604
964.531172	-0.017295
964.706757	-0.015531
964.882324	-0.014158
965.057873	-0.011508
965.233403	-0.012805
965.408916	-0.011717
965.584410	-0.015736
965.759885	-0.013798
965.935343	-0.010867
966.110782	-0.010250
966.286203	-0.012824
966.461606	-0.011707
966.636991	-0.014713
966.812357	-0.014992
966.987705	-0.013691
967.163035	-0.012457
967.338347	-0.011645
967.513641	-0.009933
967.688916	-0.010025
967.864173	-0.006861
968.039412	-0.004584
968.214632	-0.004291
968.389835	-0.003452
968.565019	-0.005558
968.740185	-0.002698
968.915333	-0.004136
969.090462	-0.003151
969.265573	-0.001886
969.440667	-0.002869
969.615741	-0.004994
969.790798	-0.004251
969.965836	-0.003472
970.140856	0.000204
970.315858	-0.000805
970.490842	-0.000874
970.665808	-0.003532
970.840755	-0.004763
971.015684	-0.006788
971.190595	-0.006242
971.365487	-0.005293
971.540362	-0.007812
971.715218	-0.011487
971.890056	-0.011982
972.064875	-0.011633
972.239677	-0.010147
972.414460	-0.008493
972.589225	-0.009530
972.763972	-0.011138
972.938700	-0.010964
973.113411	-0.008641
973.288103	-0.008531
973.462777	-0.006693
973.637432	-0.007092
973.812070	-0.008544
973.986689	-0.007446
974.161290	-0.005071
974.335873	-0.005139
974.510437	-0.006084
974.684984	-0.006669
974.859512	-0.005333
975.034022	-0.006381
975.208513	-0.003895
975.382987	-0.003813
975.557442	-0.004458
975.731879	-0.005547
975.906298	-0.005361
976.080698	-0.005293
976.255080	-0.005814
976.429445	-0.005697
976.603790	-0.006528
976.778118	-0.008212
976.952427	-0.009093
977.126719	-0.010757
977.300992	-0.011772
977.475246	-0.011626
977.649483	-0.009760
977.823701	-0.008841
977.997901	-0.008192
978.172083	-0.005981
978.346247	-0.005509
978.520392	-0.006914
978.694519	-0.002811
978.868628	-0.002798
979.042719	-0.001964
979.216791	-0.004973
979.390845	-0.005947
979.564882	-0.005987
979.738899	-0.007577
979.912899	-0.006950
980.086880	-0.005780
980.260843	-0.010359
980.434788	-0.007373
980.608715	-0.006553
980.782623	-0.005843
980.956514	-0.003805
981.130386	-0.005671
981.304240	-0.006022
981.478075	-0.005966
981.651892	-0.006205
981.825692	-0.006725
981.999472	-0.007616
982.173235	-0.009612
982.346980	-0.008511
982.520706	-0.010739
982.694414	-0.009437
982.868104	-0.008302
983.041775	-0.010642
983.215428	-0.008001
983.389064	-0.006203
983.562680	-0.008022
983.736279	-0.007632
983.909860	-0.008103
984.083422	-0.006385
984.256966	-0.007865
984.430491	-0.007184
984.603999	-0.006372
984.777488	-0.009012
984.950959	-0.009217
985.124412	-0.005712
985.297847	-0.005928
985.471263	-0.005996
985.644661	-0.004850
985.818041	-0.003427
985.991403	-0.003661
986.164747	-0.003635
986.338072	-0.003314
986.511379	-0.000678
986.684668	-0.003427
986.857938	-0.002406
987.031191	-0.000808
987.204425	-0.001263
987.377641	-0.002014
987.550839	-0.004567
987.724018	-0.004334
987.897179	-0.002154
988.070322	-0.004254
988.243447	-0.003715
988.416554	-0.005426
988.589642	-0.006704
988.762712	-0.007040
988.935764	-0.004892
989.108798	-0.005282
989.281813	-0.004316
989.454811	-0.003730
989.627790	-0.002493
989.800751	-0.003041
989.973693	-0.001439
990.146617	-0.001914
990.319524	-0.003433
990.492412	-0.005279
990.665281	-0.004415
990.838133	-0.004850
991.010966	-0.004647
991.183781	-0.005672
991.356578	-0.006725
991.529356	-0.007599
991.702117	-0.008293
991.874859	-0.006994
992.047583	-0.007660
992.220288	-0.005088
992.392976	-0.004786
992.565645	-0.006345
992.738296	-0.006808
992.910929	-0.004600
993.083543	-0.004352
993.256139	-0.003124
993.428718	-0.004727
993.601277	-0.004495
993.773819	-0.006284
993.946342	-0.007590
994.118848	-0.006542
994.291335	-0.007675
994.463803	-0.008400
994.636254	-0.007377
994.808686	-0.007857
994.981100	-0.007057
995.153496	-0.007069
995.325874	-0.005890
995.498233	-0.003276
995.670574	-0.003633
995.842897	-0.002534
996.015202	-0.002051
996.187488	-0.002621
996.359757	-0.003885
996.532007	-0.004517
996.704239	-0.004912
996.876452	-0.006189
997.048648	-0.006010
997.220825	-0.006503
997.392984	-0.006806
997.565124	-0.007008
997.737247	-0.006796
997.909351	-0.006959
998.081437	-0.005624
998.253505	-0.004796
998.425554	-0.003878
998.597586	-0.005247
998.769599	-0.005020
998.941594	-0.005194
999.113571	-0.003660
999.285529	-0.003175
999.457469	-0.001653
999.629391	-0.001608
999.801295	-0.002955
999.973181	-0.003359
1000.145048	-0.003643
1000.316897	-0.003034
1000.488728	-0.000658
1000.660541	-0.002529
1000.832335	-0.002792
1001.004111	-0.002403
1001.175869	-0.002215
1001.347609	-0.001121
1001.519331	-0.000621
1001.691034	-0.002593
1001.862719	-0.005047
1002.034386	-0.007749
1002.206035	-0.007519
1002.377665	-0.006822
1002.549277	-0.008847
1002.720871	-0.010359
1002.892447	-0.010796
1003.064004	-0.009948
1003.235544	-0.008260
1003.407065	-0.006017
1003.578568	-0.004804
1003.750052	-0.004361
1003.921519	-0.005360
1004.092967	-0.004076
1004.264397	-0.003083
1004.435809	-0.002014
1004.607202	-0.001757
1004.778577	-0.000244
1004.949934	-0.001292
1005.121273	-0.001713
1005.292594	-0.002475
1005.463896	-0.002275
1005.635180	-0.001482
1005.806446	-0.003214
1005.977694	-0.004133
1006.148923	-0.006611
1006.320135	-0.010216
1006.491328	-0.009975
1006.662503	-0.009148
1006.833659	-0.007219
1007.004798	-0.005659
1007.175918	-0.005051
1007.347020	-0.004338
1007.518103	-0.003419
1007.689169	-0.002237
1007.860216	0.000830
1008.031245	-0.000528
1008.202256	0.000502
1008.373248	-0.001449
1008.544223	-0.003829
1008.715179	-0.006390
1008.886117	-0.005678
1009.057036	-0.005534
1009.227938	-0.006217
1009.398821	-0.005224
1009.569686	-0.004691
1009.740533	-0.006702
1009.911361	-0.005533
1010.082172	-0.006580
1010.252964	-0.004211
1010.423738	-0.003558
1010.594493	-0.003358
1010.765231	-0.003341
1010.935950	-0.003965
1011.106651	-0.003094
1011.277334	-0.003409
1011.447998	-0.003592
1011.618645	-0.001497
1011.789273	-0.002903
1011.959882	-0.003650
1012.130474	-0.004917
1012.301048	-0.003361
1012.471603	-0.003819
1012.642140	-0.004792
1012.812658	-0.004773
1012.983159	-0.006503
1013.153641	-0.007770
1013.324105	-0.005371
1013.494551	-0.006406
1013.664979	-0.005941
1013.835388	-0.006219
1014.005779	-0.007333
1014.176152	-0.008103
1014.346507	-0.006787
1014.516843	-0.005674
1014.687162	-0.004580
1014.857462	-0.005640
1015.027744	-0.002977
1015.198007	-0.003976
1015.368252	-0.003783
1015.538480	-0.003261
1015.708689	-0.001140
1015.878879	-0.001254
1016.049052	-0.001672
1016.219206	-0.001260
1016.389342	-0.003059
1016.559460	-0.004222
1016.729559	-0.002079
1016.899641	-0.002684
1017.069704	-0.002705
1017.239749	-0.003385
1017.409775	-0.002789
1017.579784	-0.002359
1017.749774	-0.002721
1017.919746	0.000082
1018.089700	0.000823
1018.259635	-0.001472
1018.429553	0.000204
1018.599452	0.000425
1018.769333	0.001160
1018.939195	0.000412
1019.109040	0.000538
1019.278866	0.000054
1019.448674	-0.002384
1019.618464	-0.003333
1019.788235	-0.001732
1019.957989	-0.003115
1020.127724	-0.002065
1020.297441	-0.004425
1020.467139	-0.004666
1020.636820	-0.004955
1020.806482	-0.004589
1020.976126	-0.004310
1021.145752	-0.003534
1021.315359	-0.004352
1021.484948	-0.002475
1021.654519	-0.003813
1021.824072	-0.001824
1021.993607	-0.001993
1022.163123	-0.000816
1022.332621	-0.001309
1022.502101	-0.000635
1022.671563	-0.000981
1022.841007	0.000027
1023.010432	-0.000700
1023.179839	-0.001031
1023.349228	-0.000976
1023.518598	-0.001146
1023.687951	-0.001610
1023.857285	-0.003251
1024.026601	-0.003496
1024.195899	-0.004299
1024.365178	-0.003773
1024.534439	-0.005828
1024.703682	-0.005529
1024.872907	-0.005210
1025.042114	-0.004795
1025.211302	-0.003145
1025.380472	-0.002123
1025.549624	-0.001895
1025.718758	-0.002368
1025.887873	-0.003543
1026.056970	-0.001779
1026.226049	-0.001336
1026.395110	-0.000885
1026.564153	-0.000799
1026.733177	-0.002559
1026.902183	-0.000915
1027.071171	0.000224
1027.240141	0.000648
1027.409092	-0.000277
1027.578026	-0.002094
1027.746940	-0.000898
1027.915837	-0.001069
1028.084716	-0.001802
1028.253576	-0.002128
1028.422418	-0.002312
1028.591242	-0.003981
1028.760048	-0.002855
1028.928835	-0.001475
1029.097604	-0.000207
1029.266355	-0.002081
1029.435088	-0.003749
1029.603803	-0.000690
1029.772499	0.000249
1029.941177	-0.000299
1030.109837	0.000564
1030.278478	-0.000466
1030.447102	0.000114
1030.615707	-0.001147
1030.784294	-0.002552
1030.952863	-0.001530
1031.121413	-0.003794
1031.289945	-0.005612
1031.458460	-0.005617
1031.626955	-0.005593
1031.795433	-0.006484
1031.963892	-0.007711
1032.132334	-0.007321
1032.300756	-0.006399
1032.469161	-0.006699
1032.637548	-0.008107
1032.805916	-0.006366
1032.974266	-0.006837
1033.142598	-0.006763
1033.310911	-0.006031
1033.479207	-0.006701
1033.647484	-0.007518
1033.815743	-0.006810
1033.983983	-0.007911
1034.152206	-0.006046
1034.320410	-0.006190
1034.488596	-0.006419
1034.656764	-0.008341
1034.824914	-0.008027
1034.993045	-0.005987
1035.161158	-0.003784
1035.329253	-0.001737
1035.497330	0.000287
1035.665388	0.000521
1035.833428	-0.000590
1036.001450	0.000609
1036.169454	0.001583
1036.337440	0.002203
1036.505407	0.000839
1036.673356	-0.001181
1036.841287	-0.003545
1037.009200	-0.004485
1037.177094	-0.004176
1037.344970	-0.001290
1037.512828	-0.002661
1037.680668	-0.003232
1037.848489	-0.004635
1038.016293	-0.004005
1038.184078	-0.002611
1038.351845	-0.001097
1038.519593	-0.002439
1038.687324	-0.003650
1038.855036	-0.005714
1039.022730	-0.004878
1039.190406	-0.003043
1039.358063	-0.000180
1039.525702	0.000296
1039.693323	-0.000172
1039.860926	-0.000942
1040.028511	-0.000072
1040.196077	0.000723
1040.363625	0.000298
1040.531155	-0.000831
1040.698667	-0.002799
1040.866161	-0.004752
1041.033636	-0.005121
1041.201093	-0.006275
1041.368532	-0.006838
1041.535952	-0.006348
1041.703355	-0.009307
1041.870739	-0.010170
1042.038105	-0.010409
1042.205452	-0.010115
1042.372782	-0.012310
1042.540093	-0.013191
1042.707386	-0.011746
1042.874661	-0.011622
1043.041918	-0.009422
1043.209156	-0.008258
1043.376376	-0.006702
1043.543578	-0.005651
1043.710762	-0.005968
1043.877927	-0.005446
1044.045074	-0.004694
1044.212203	-0.006691
1044.379314	-0.007589
1044.546407	-0.008701
1044.713481	-0.006596
1044.880537	-0.007919
1045.047575	-0.008564
1045.214595	-0.007888
1045.381596	-0.005162
1045.548579	-0.004443
1045.715544	-0.004554
1045.882491	-0.002404
1046.049420	-0.003123
1046.216330	-0.003677
1046.383222	-0.003192
1046.550096	-0.003381
1046.716951	-0.004429
1046.883789	-0.004690
1047.050608	-0.006429
1047.217409	-0.006003
1047.384192	-0.006191
1047.550956	-0.007775
1047.717703	-0.008058
1047.884431	-0.008665
1048.051140	-0.007667
1048.217832	-0.006134
1048.384505	-0.007160
1048.551161	-0.005872
1048.717798	-0.005575
1048.884416	-0.006935
1049.051017	-0.004128
1049.217599	-0.005444
1049.384163	-0.004400
1049.550709	-0.004848
1049.717237	-0.003561
1049.883746	-0.003073
1050.050237	-0.003447
1050.216710	-0.002963
1050.383165	-0.002449
1050.549601	-0.003237
1050.716019	-0.001140
1050.882420	-0.002885
1051.048801	-0.002120
1051.215165	-0.002744
1051.381510	-0.002135
1051.547837	-0.001652
1051.714146	-0.002674
1051.880437	-0.003407
1052.046709	-0.003816
1052.212964	-0.003114
1052.379200	-0.002472
1052.545417	-0.004054
1052.711617	-0.006230
1052.877798	-0.006201
1053.043961	-0.005743
1053.210106	-0.004793
1053.376233	-0.002762
1053.542341	-0.003361
1053.708432	-0.007217
1053.874504	-0.008354
1054.040557	-0.005954
1054.206593	-0.004620
1054.372610	-0.006445
1054.538609	-0.006940
1054.704590	-0.006434
1054.870553	-0.007737
1055.036497	-0.007784
1055.202424	-0.005460
1055.368331	-0.002896
1055.534221	-0.003412
1055.700093	-0.002663
1055.865946	-0.001714
1056.031781	-0.001862
1056.197598	-0.001551
1056.363397	-0.001410
1056.529177	-0.000450
1056.694939	0.000390
1056.860683	0.000979
1057.026409	-0.000925
1057.192116	-0.001700
1057.357806	-0.003648
1057.523477	-0.003272
1057.689130	-0.004111
1057.854764	-0.004836
1058.020381	-0.006737
1058.185979	-0.008312
1058.351559	-0.010252
1058.517120	-0.010727
1058.682664	-0.012144
1058.848189	-0.009732
1059.013696	-0.008875
1059.179185	-0.006948
1059.344656	-0.006936
1059.510108	-0.005766
1059.675542	-0.004925
1059.840958	-0.002763
1060.006356	-0.001852
1060.171735	0.000242
1060.337096	0.000396
1060.502439	-0.001664
1060.667764	-0.003951
1060.833071	-0.003569
1060.998359	-0.002911
1061.163629	-0.002650
1061.328881	-0.002271
1061.494115	-0.001530
1061.659330	0.000518
1061.824527	-0.001023
1061.989706	-0.000430
1062.154867	-0.000934
1062.320010	-0.000776
1062.485134	-0.001602
1062.650240	-0.001650
1062.815328	-0.004538
1062.980398	-0.005482
1063.145449	-0.009220
1063.310482	-0.006361
1063.475497	-0.004973
1063.640494	-0.004343
1063.805473	-0.004920
1063.970433	-0.004445
1064.135375	-0.007780
1064.300299	-0.005795
1064.465204	-0.006596
1064.630092	-0.005423
1064.794961	-0.008955
1064.959812	-0.009570
1065.124645	-0.009322
1065.289459	-0.007800
1065.454256	-0.008679
1065.619034	-0.005903
1065.783793	-0.008863
1065.948535	-0.008253
1066.113258	-0.007380
1066.277964	-0.007015
1066.442651	-0.007842
1066.607319	-0.006955
1066.771970	-0.007306
1066.936602	-0.007467
1067.101216	-0.007606
1067.265812	-0.004200
1067.430389	-0.002393
1067.594949	-0.003941
1067.759490	-0.002198
1067.924013	-0.002738
1068.088518	-0.001728
1068.253004	-0.002883
1068.417472	-0.001643
1068.581922	-0.001914
1068.746354	-0.002133
1068.910768	-0.002790
1069.075163	-0.002634
1069.239540	-0.003003
1069.403899	-0.001314
1069.568240	-0.002817
1069.732562	-0.003336
1069.896866	-0.002988
1070.061152	-0.002629
1070.225420	-0.002532
1070.389670	-0.002673
1070.553901	-0.003666
1070.718114	-0.001593
1070.882309	-0.002772
1071.046486	-0.003898
1071.210644	-0.002696
1071.374784	-0.006273
1071.538906	-0.006555
1071.703010	-0.006532
1071.867096	-0.008165
1072.031163	-0.007118
1072.195212	-0.010575
1072.359243	-0.012322
1072.523256	-0.011770
1072.687250	-0.012004
1072.851226	-0.008997
1073.015184	-0.007137
1073.179124	-0.007736
1073.343045	-0.005011
1073.506949	-0.004761
1073.670834	-0.003946
1073.834701	-0.004220
1073.998549	-0.003015
1074.162380	-0.004675
1074.326192	-0.003324
1074.489986	-0.006500
1074.653761	-0.006911
1074.817519	-0.009830
1074.981258	-0.011736
1075.144979	-0.011607
1075.308682	-0.009176
1075.472367	-0.009392
1075.636033	-0.007356
1075.799681	-0.011599
1075.963311	-0.010362
1076.126923	-0.010583
1076.290516	-0.008052
1076.454092	-0.006398
1076.617649	-0.005917
1076.781187	-0.007240
1076.944708	-0.009385
1077.108210	-0.010151
1077.271695	-0.006510
1077.435160	-0.005612
1077.598608	-0.005905
1077.762038	-0.008237
1077.925449	-0.005970
1078.088842	-0.006401
1078.252217	-0.005146
1078.415573	-0.003197
1078.578912	-0.000918
1078.742232	-0.003207
1078.905534	-0.003215
1079.068817	-0.002701
1079.232083	-0.000092
1079.395330	-0.002516
1079.558559	-0.002971
1079.721770	-0.003228
1079.884962	-0.004234
1080.048136	-0.007850
1080.211293	-0.006769
1080.374430	-0.008909
1080.537550	-0.010959
1080.700651	-0.012881
1080.863735	-0.012883
1081.026800	-0.014728
1081.189846	-0.014860
1081.352875	-0.015247
1081.515885	-0.011923
1081.678877	-0.012276
1081.841851	-0.010615
1082.004807	-0.007267
1082.167744	-0.005805
1082.330663	-0.005226
1082.493564	-0.005253
1082.656447	-0.004315
1082.819312	-0.004256
1082.982158	-0.002822
1083.144986	-0.001396
1083.307796	-0.001470
1083.470587	-0.002724
1083.633361	-0.003381
1083.796116	-0.004081
1083.958853	0.000929
1084.121571	-0.001058
1084.284272	0.000435
1084.446954	-0.003532
1084.609618	-0.004582
1084.772264	-0.004085
1084.934892	-0.002008
1085.097501	-0.003767
1085.260092	-0.003781
1085.422665	-0.006406
1085.585220	-0.008068
1085.747756	-0.008334
1085.910274	-0.007215
1086.072774	-0.006583
1086.235256	-0.005997
1086.397720	-0.006539
1086.560165	-0.005546
1086.722592	-0.004384
1086.885001	-0.006717
1087.047392	-0.004027
1087.209764	-0.005973
1087.372119	-0.006921
1087.534455	-0.004531
1087.696772	-0.009336
1087.859072	-0.011938
1088.021353	-0.011260
1088.183616	-0.010060
1088.345861	-0.007755
1088.508088	-0.008794
1088.670296	-0.004927
1088.832486	-0.004517
1088.994658	-0.006466
1089.156812	-0.004763
1089.318948	-0.003178
1089.481065	-0.003473
1089.643164	-0.006278
1089.805245	-0.008271
1089.967308	-0.005025
1090.129352	-0.004472
1090.291378	-0.004088
1090.453386	-0.006678
1090.615376	-0.005638
1090.777347	-0.002935
1090.939301	-0.004094
1091.101236	-0.004618
1091.263153	-0.000705
1091.425051	-0.002600
1091.586932	-0.005131
1091.748794	-0.004411
1091.910638	-0.002817
1092.072463	-0.004230
1092.234271	-0.008870
1092.396060	-0.007207
1092.557831	-0.003662
1092.719584	-0.005187
1092.881319	-0.006723
1093.043035	-0.006810
1093.204733	-0.008261
1093.366413	-0.005629
1093.528075	-0.001875
1093.689718	0.000883
1093.851343	0.002348
1094.012950	0.000703
1094.174539	0.001885
1094.336110	0.002414
1094.497662	0.000505
1094.659196	-0.000459
1094.820712	-0.004720
1094.982210	-0.003324
1095.143689	-0.002540
1095.305151	-0.004818
1095.466594	-0.004605
1095.628018	-0.006403
1095.789425	-0.006563
1095.950813	-0.004281
1096.112183	-0.003636
1096.273535	-0.000821
1096.434869	-0.008177
1096.596184	-0.010914
1096.757482	-0.009727
1096.918761	-0.011685
1097.080021	-0.009948
1097.241264	-0.011799
1097.402488	-0.008988
1097.563694	-0.009166
1097.724882	-0.010082
1097.886052	-0.005614
1098.047203	-0.005280
1098.208336	-0.004885
1098.369451	-0.001747
1098.530548	-0.004567
1098.691627	-0.001869
1098.852687	-0.004450
1099.013729	-0.005021
1099.174753	-0.008409
1099.335758	-0.007606
1099.496746	-0.010668
1099.657715	-0.009502
1099.818666	-0.007387
1099.979599	-0.010165
1100.140513	-0.008622
1100.301409	-0.012382
1100.462287	-0.011315
1100.623147	-0.009109
1100.783989	-0.009089
1100.944812	-0.008403
1101.105617	-0.011892
1101.266404	-0.018592
1101.427173	-0.012958
1101.587923	-0.012100
1101.748656	-0.005614
1101.909370	-0.008001
1102.070066	-0.006419
1102.230743	-0.008952
1102.391403	-0.006845
1102.552044	-0.003862
1102.712667	-0.003337
1102.873271	-0.005254
1103.033858	-0.007196
1103.194426	-0.009206
1103.354976	-0.006535
1103.515508	-0.011347
1103.676021	-0.011394
1103.836517	-0.015087
1103.996994	-0.016166
1104.157453	-0.013186
1104.317893	-0.011700
1104.478316	-0.009404
1104.638720	-0.007968
1104.799106	-0.008210
1104.959474	-0.006373
1105.119823	-0.004804
1105.280155	-0.001534
1105.440468	-0.002782
1105.600763	-0.005718
1105.761039	-0.007839
1105.921298	-0.011328
1106.081538	-0.014462
1106.241760	-0.014457
1106.401964	-0.010386
1106.562149	-0.010900
1106.722316	-0.012579
1106.882465	-0.015000
1107.042596	-0.014576
1107.202709	-0.016202
1107.362803	-0.015578
1107.522879	-0.013489
1107.682937	-0.014796
1107.842977	-0.018088
1108.002999	-0.018536
1108.163002	-0.013829
1108.322987	-0.011179
1108.482954	-0.010416
1108.642902	-0.008464
1108.802833	-0.005506
1108.962745	-0.006338
1109.122639	-0.001400
1109.282515	-0.000900
1109.442372	0.000585
1109.602211	-0.003605
1109.762032	-0.000374
1109.921835	0.001304
1110.081620	0.006470
1110.241386	0.001552
1110.401134	-0.002689
1110.560864	-0.004436
1110.720576	-0.007444
1110.880269	-0.006896
1111.039945	-0.007821
1111.199602	-0.007402
1111.359240	-0.005272
1111.518861	-0.011799
1111.678463	-0.010374
1111.838047	-0.006926
1111.997613	-0.005244
1112.157161	-0.003934
1112.316690	-0.004014
1112.476202	-0.001375
1112.635695	-0.002492
1112.795169	-0.005011
1112.954626	-0.003555
1113.114064	-0.004623
1113.273484	-0.004473
1113.432886	-0.002914
1113.592270	0.003665
1113.751635	0.000908
1113.910983	0.004179
1114.070312	0.002856
1114.229622	0.000374
1114.388915	0.000686
1114.548189	-0.000463
1114.707445	-0.002726
1114.866683	-0.004011
1115.025903	-0.006849
1115.185104	-0.001251
1115.344287	-0.000416
1115.503452	-0.003560
1115.662599	-0.002421
1115.821727	-0.002772
1115.980838	0.002792
1116.139930	0.002586
1116.299004	0.001084
1116.458059	-0.001531
1116.617097	-0.005329
1116.776116	-0.009638
1116.935117	-0.008739
1117.094099	-0.005338
1117.253064	-0.001689
1117.412010	-0.005559
1117.570938	-0.004962
1117.729848	-0.009803
1117.888740	-0.005390
1118.047613	-0.005891
1118.206468	-0.006701
1118.365305	-0.006318
1118.524124	-0.008672
1118.682924	-0.009463
1118.841707	-0.008756
1119.000471	-0.006513
1119.159216	-0.005576
1119.317944	-0.009059
1119.476653	-0.010861
1119.635344	-0.008144
1119.794017	-0.006523
1119.952672	-0.007834
1120.111308	-0.010373
1120.269927	-0.007904
1120.428527	-0.010968
1120.587108	-0.011921
1120.745672	-0.008466
1120.904217	-0.009642
1121.062744	-0.017822
1121.221253	-0.017353
1121.379744	-0.016679
1121.538216	-0.018414
1121.696671	-0.020217
1121.855107	-0.016632
1122.013524	-0.012781
1122.171924	-0.019089
1122.330305	-0.022157
1122.488668	-0.019969
1122.647013	-0.023156
1122.805340	-0.023618
1122.963648	-0.023929
1123.121938	-0.024951
1123.280210	-0.028738
1123.438464	-0.027682
1123.596700	-0.026180
1123.754917	-0.020043
1123.913116	-0.014366
1124.071297	-0.015025
1124.229459	-0.014571
1124.387604	-0.015224
1124.545730	-0.014902
1124.703838	-0.010674
1124.861928	-0.011618
1125.019999	-0.008444
1125.178052	-0.003268
1125.336088	-0.004692
1125.494104	-0.002047
1125.652103	0.000997
1125.810083	0.004600
1125.968045	0.004076
1126.125989	0.001587
1126.283915	-0.000359
1126.441823	-0.000737
1126.599712	-0.005534
1126.757583	-0.006375
1126.915436	-0.010152
1127.073270	-0.016109
1127.231087	-0.013201
1127.388885	-0.009596
1127.546665	-0.012682
1127.704426	-0.017845
1127.862170	-0.021741
1128.019895	-0.021219
1128.177602	-0.020588
1128.335291	-0.017698
1128.492961	-0.016022
1128.650614	-0.021413
1128.808248	-0.028159
1128.965864	-0.024415
1129.123461	-0.016366
1129.281041	-0.012970
1129.438602	-0.010869
1129.596145	-0.011552
1129.753670	-0.010876
1129.911176	-0.011520
1130.068665	-0.012214
1130.226135	-0.006954
1130.383587	-0.010060
1130.541020	-0.009591
1130.698436	-0.012234
1130.855833	-0.013295
1131.013212	-0.012656
1131.170573	-0.009719
1131.327915	-0.007696
1131.485239	-0.005052
1131.642545	-0.006302
1131.799833	-0.000989
1131.957103	-0.005960
1132.114354	-0.004141
1132.271588	-0.004843
1132.428803	-0.006723
1132.585999	-0.013333
1132.743178	-0.010096
1132.900338	-0.006795
1133.057480	-0.006641
1133.214604	-0.006319
1133.371710	0.000422
1133.528797	0.002960
1133.685866	0.004763
1133.842917	0.003632
1133.999950	0.010066
1134.156964	0.002488
1134.313960	0.003009
1134.470938	-0.001478
1134.627898	-0.004688
1134.784840	-0.006803
1134.941763	-0.008276
1135.098668	-0.009205
1135.255555	-0.007144
1135.412424	-0.010242
1135.569274	-0.003522
1135.726107	-0.003430
1135.882921	0.002222
1136.039716	0.004223
1136.196494	0.001019
1136.353253	0.000310
1136.509995	-0.003548
1136.666717	-0.004043
1136.823422	-0.002329
1136.980109	-0.009525
1137.136777	-0.010791
1137.293427	-0.004729
1137.450059	-0.007984
1137.606672	-0.007739
1137.763267	-0.005454
1137.919844	-0.008405
1138.076403	-0.005554
1138.232944	-0.008282
1138.389466	-0.000140
1138.545971	-0.003184
1138.702457	-0.011391
1138.858924	-0.008605
1139.015374	-0.011709
1139.171805	-0.013900
1139.328218	-0.014608
1139.484613	-0.020813
1139.640990	-0.020506
1139.797348	-0.024284
1139.953688	-0.025155
1140.110010	-0.026254
1140.266314	-0.028548
1140.422600	-0.021193
1140.578867	-0.021338
1140.735116	-0.005717
1140.891347	0.002742
1141.047559	0.005635
1141.203754	0.011443
1141.359930	0.011568
1141.516088	0.009166
1141.672228	0.008630
1141.828349	0.006956
1141.984452	0.009393
1142.140537	-0.003072
1142.296604	-0.004967
1142.452653	-0.008352
1142.608683	-0.013183
1142.764695	-0.009378
1142.920689	-0.003274
1143.076665	-0.006756
1143.232622	-0.010477
1143.388562	-0.008535
1143.544483	-0.010020
1143.700385	-0.008575
1143.856270	-0.009436
1144.012136	-0.013655
1144.167985	-0.018763
1144.323814	-0.020427
1144.479626	-0.012324
1144.635420	-0.008789
1144.791195	-0.011074
1144.946952	-0.012495
1145.102691	-0.012156
1145.258411	-0.007862
1145.414113	-0.007338
1145.569798	-0.005647
1145.725463	-0.009686
1145.881111	-0.017260
1146.036741	-0.022848
1146.192352	-0.025054
1146.347945	-0.018772
1146.503519	-0.013109
1146.659076	-0.016014
1146.814614	-0.011983
1146.970134	-0.003091
1147.125636	0.000087
1147.281120	0.003179
1147.436585	0.006569
1147.592032	0.000955
1147.747461	0.003761
1147.902872	-0.001197
1148.058265	-0.002242
1148.213639	-0.004226
1148.368995	-0.010594
1148.524333	-0.010331
1148.679653	-0.002326
1148.834954	-0.005927
1148.990237	0.004849
1149.145502	0.000567
1149.300749	-0.010395
1149.455977	-0.005677
1149.611188	-0.000632
1149.766380	0.000772
1149.921553	0.001154
1150.076709	-0.007095
1150.231846	-0.010439
1150.386966	-0.016162
1150.542066	-0.014990
1150.697149	-0.006479
1150.852214	-0.004559
1151.007260	-0.008080
1151.162288	-0.015571
1151.317298	-0.009549
1151.472289	-0.005645
1151.627263	-0.006542
1151.782218	-0.001696
1151.937155	-0.002805
1152.092073	0.001021
1152.246974	-0.003046
1152.401856	-0.002623
1152.556720	0.001487
1152.711566	-0.002687
1152.866393	-0.009496
1153.021203	-0.006754
1153.175994	-0.008815
1153.330767	-0.006920
1153.485521	-0.018060
1153.640258	-0.014362
1153.794976	-0.020067
1153.949676	-0.026491
1154.104358	-0.032901
1154.259021	-0.021731
1154.413667	-0.013013
1154.568294	-0.015891
1154.722903	-0.023167
1154.877493	-0.021292
1155.032066	-0.023517
1155.186620	-0.020208
1155.341156	-0.015868
1155.495674	-0.008225
1155.650173	-0.018867
1155.804654	-0.030416
1155.959118	-0.034066
1156.113562	-0.034304
1156.267989	-0.029398
1156.422397	-0.026311
1156.576788	-0.023717
1156.731160	-0.023475
1156.885513	-0.035345
1157.039849	-0.035882
1157.194166	-0.029543
1157.348465	-0.029203
1157.502746	-0.021712
1157.657009	-0.024572
1157.811253	-0.033609
1157.965479	-0.040285
1158.119687	-0.046362
1158.273877	-0.036559
1158.428048	-0.031619
1158.582201	-0.023956
1158.736337	-0.022495
1158.890453	-0.031419
1159.044552	-0.036373
1159.198632	-0.034325
1159.352694	-0.030481
1159.506738	-0.022534
1159.660764	-0.026506
1159.814771	-0.025679
1159.968761	-0.032948
1160.122732	-0.031149
1160.276685	-0.022405
1160.430619	-0.015848
1160.584535	-0.013275
1160.738434	-0.008078
1160.892313	-0.013324
1161.046175	-0.014202
1161.200019	-0.015185
1161.353844	-0.010145
1161.507651	-0.017809
1161.661440	-0.015454
1161.815210	-0.022756
1161.968962	-0.032585
1162.122697	-0.034958
1162.276412	-0.029603
1162.430110	-0.018225
1162.583789	-0.015720
1162.737451	-0.022810
1162.891094	-0.014847
1163.044718	-0.016003
1163.198325	-0.008860
1163.351913	0.003156
1163.505483	0.004652
1163.659035	0.007575
1163.812569	-0.000599
1163.966084	-0.002650
1164.119581	-0.011875
1164.273060	-0.016957
1164.426521	-0.020147
1164.579964	-0.018245
1164.733388	-0.013419
1164.886794	-0.015693
1165.040182	-0.015711
1165.193551	-0.022133
1165.346903	-0.024680
1165.500236	-0.014854
1165.653551	-0.011052
1165.806848	-0.008113
1165.960126	-0.021959
1166.113386	-0.025897
1166.266628	-0.018565
1166.419852	-0.021694
1166.573058	-0.011821
1166.726245	-0.015651
1166.879414	-0.006184
1167.032565	-0.007367
1167.185698	-0.011443
1167.338812	-0.003485
1167.491909	-0.008106
1167.644987	-0.020446
1167.798046	-0.024866
1167.951088	-0.039212
1168.104111	-0.032224
1168.257117	-0.038368
1168.410103	-0.028952
1168.563072	-0.024692
1168.716023	-0.025021
1168.868955	-0.024445
1169.021869	-0.027014
1169.174765	-0.032179
1169.327642	-0.021239
1169.480501	-0.025960
1169.633343	-0.028685
1169.786165	-0.044864
1169.938970	-0.051914
1170.091757	-0.037380
1170.244525	-0.040302
1170.397275	-0.038949
1170.550007	-0.039974
1170.702720	-0.041567
1170.855415	-0.048281
1171.008092	-0.059279
1171.160751	-0.061385
1171.313392	-0.071280
1171.466014	-0.081776
1171.618619	-0.119850
1171.771205	-0.119850
1171.923772	-0.119850
