sample name	sample
index	1098
start time	 04-22-2021  12:30:28 PM
880	-0.032742
Peak Time (s)	100.037
Peak Height 	-0.03274
calc peak height	100,103
Baseline Time (s)	11.035
Baseline Value 	-0.003821
subtract baseline	10,4
Abs	-0.005746
Peak Time (s)	101.037
Peak Height 	-0.005746
calc peak height	100,103
Baseline Time (s)	8.536
Baseline Value 	0.001355
subtract baseline	10,3
PK_550	0.000219
Peak Time (s)	101.535
Peak Height 	2.1917E-4
calc peak height	100,103
Baseline Time (s)	8.536
Baseline Value 	6.4485E-4
subtract baseline	10,2
PK_880	-0.011688
Peak Time (s)	101.037
Peak Height 	-0.01169
calc peak height	100,103
Baseline Time (s)	9.539
Baseline Value 	0.001326
subtract baseline	10,1


Time (s)	A880-A510	A880-A775	A880-A975	A880	I510	I775	I975	I880	
0.039500	-0.000704	-0.000767	-0.003702	0.002799	6270.352287	43168.052171	3899.361449	22676.358741
0.537000	-0.004156	-0.000983	-0.005049	0.007818	6205.721239	42686.365752	3884.859657	22449.406842
1.037500	-0.002969	-0.000340	0.000897	0.003916	6244.391011	43104.149771	3907.383203	22625.608692
1.534500	-0.001206	-0.000547	0.000388	0.001706	6274.907301	43289.727105	3911.329012	22726.143774
2.034500	0.000425	-0.000537	-0.000901	0.001161	6291.734239	43341.346043	3909.602919	22751.007398
2.535000	-0.003388	-0.001151	-0.000875	0.005145	6231.826936	42916.170955	3900.467468	22569.965969
3.038500	0.002169	-0.000523	0.001504	-0.001720	6327.778792	43611.219862	3921.930904	22882.927739
3.536000	-0.000689	-0.000043	0.000131	0.000159	6290.870233	43480.564859	3914.329286	22796.792489
4.036500	0.000267	-0.000451	-0.000049	0.000393	6296.469644	43420.739679	3913.363456	22786.083849
4.536500	0.000283	-0.000346	-0.002153	0.001206	6290.288992	43354.880582	3906.598289	22748.945374
5.037000	-0.000788	-0.000382	-0.002683	-0.000234	6293.146086	43485.645083	3908.704412	22814.780227
5.537000	0.001423	-0.000143	0.000468	0.000585	6303.961052	43431.511962	3914.119588	22777.294409
6.034500	0.001371	-0.001197	-0.005137	-0.000276	6310.258752	43413.548673	3903.132659	22816.704063
6.535000	-0.000030	-0.000787	0.003214	-0.000105	6298.028431	43435.748961	3922.155165	22808.857411
7.035000	-0.001139	0.000192	-0.003088	0.000686	6283.301501	43453.361691	3905.640585	22772.686839
7.535000	-0.001470	-0.000309	0.002631	-0.000031	6286.287254	43473.493074	3920.614877	22805.496411
8.035500	-0.001142	-0.000674	0.001398	-0.000334	6291.171576	43467.660866	3918.436337	22819.343606
8.536000	0.000280	0.000000	0.000000	-0.000228	6301.390726	43520.660887	3914.924177	22814.486789
9.036500	0.000378	0.000108	0.000687	0.000127	6299.396749	43497.664652	3915.700225	22798.265147
9.539000	0.000000	0.000300	-0.001604	-0.000238	6299.293485	43549.672234	3911.216537	22814.957642
10.036500	-0.003244	-0.000197	-0.002413	0.000015	6272.229561	43479.619772	3908.753092	22803.359966
10.537000	0.000259	-0.000728	0.000622	0.000083	6298.809529	43423.855150	3915.650340	22800.270956
11.035000	-0.001135	0.000088	-0.003007	0.000000	6288.640924	43507.628463	3907.413190	22804.056182
11.535000	-0.001297	-0.000776	0.008155	-0.000378	6290.313005	43462.220068	3934.465713	22821.342496
12.035500	-0.002106	-0.000194	-0.000674	-0.000063	6281.612720	43487.176168	3912.971412	22806.937334
12.536000	-0.002602	-0.001336	0.002295	-0.001222	6286.740922	43488.793879	3922.618818	22860.061349
13.036000	0.000733	-0.000125	-0.001690	0.000115	6302.251026	43477.070468	3910.198119	22798.806357
13.536000	0.000332	0.000195	-0.000041	0.000591	6295.431128	43462.486671	3912.920856	22777.019049
14.037000	-0.001835	-0.000834	0.000427	0.002421	6264.550055	43196.844797	3909.758669	22693.560261
14.536500	-0.004177	-0.000927	-0.003074	0.001831	6251.103347	43242.883318	3903.031373	22720.429931
15.036500	-0.001027	0.000739	0.000738	0.000643	6284.492986	43508.328187	3914.612384	22774.625476
15.540000	-0.001169	-0.001154	-0.002395	0.000041	6288.058053	43388.019468	3908.733330	22802.177317
16.037500	-0.001641	-0.000451	-0.002284	-0.000151	6285.889960	43471.354991	3909.435222	22810.948947
16.535000	-0.000559	-0.000354	-0.003006	0.000987	6285.454227	43374.398923	3905.133053	22758.918816
17.035500	0.003077	-0.000508	-0.001471	-0.002914	6344.294852	43724.512461	3917.759991	22937.877256
17.535500	0.000026	-0.000624	-0.004618	0.001701	6284.459190	43283.026605	3899.779261	22726.339328
18.036000	0.000106	0.000266	-0.000816	0.002473	6279.110231	43293.983129	3906.761184	22691.187257
18.538500	-0.000374	0.000198	0.002975	0.002386	6276.077491	43295.716931	3915.764398	22695.125716
19.039000	-0.001987	-0.000801	0.001735	0.001134	6273.293572	43319.208652	3915.793541	22752.226326
19.537000	-0.003002	0.000065	-0.005977	0.001627	6261.682141	43353.871536	3896.832109	22729.705110
20.037000	0.000172	-0.000616	0.001566	0.001510	6287.068204	43301.545440	3914.524181	22735.064246
20.534500	-0.003574	-0.000833	0.001168	0.001182	6260.709190	43311.863561	3914.361286	22750.044101
21.035000	-0.002976	-0.000071	0.001310	0.001863	6260.068461	43319.330327	3913.104854	22718.951439
21.535000	-0.002678	-0.000037	0.003399	0.001898	6262.098358	43319.291032	3917.897856	22717.393622
22.035500	-0.002618	0.000100	-0.001092	0.002025	6261.578680	43320.134623	3907.157806	22711.570645
22.536000	-0.000041	0.000290	0.002008	0.001900	6282.403255	43349.507716	3914.645813	22717.299137
23.036000	0.000673	0.000387	0.003118	0.002268	6285.076055	43324.278660	3916.375745	22700.515051
23.536500	-0.002096	0.000668	-0.004194	0.002540	6261.631151	43325.077957	3898.827856	22688.138795
24.036500	-0.001085	0.001050	0.003787	0.002407	6270.433514	43373.027362	3917.612727	22694.197363
24.537000	-0.001983	0.000547	-0.005286	0.002163	6265.394791	43348.884733	3897.188537	22705.280184
25.034000	-0.001120	-0.000104	-0.004770	0.001488	6277.250942	43351.034040	3899.919984	22736.048454
25.534500	-0.002001	-0.000316	0.002863	0.001531	6270.124662	43327.405958	3917.499202	22734.087737
26.035500	-0.001068	0.000068	0.000996	0.001348	6278.731960	43380.179293	3913.574359	22742.461315
26.535500	-0.003800	0.000058	0.001060	0.001272	6258.280320	43386.187906	3913.899148	22745.900433
27.036000	-0.001210	-0.000637	0.000771	-0.001813	6302.127949	43609.283344	3920.429898	22887.220486
27.536000	0.003059	0.000292	-0.001256	-0.001115	6330.014129	43630.948154	3914.064745	22855.168223
28.036000	0.000335	0.000709	0.000684	0.000432	6296.685855	43525.231397	3914.980603	22784.277869
28.538500	0.002400	-0.000807	-0.004327	-0.000441	6319.585092	43465.326401	3905.381070	22824.267205
29.034000	-0.002079	-0.000114	0.001821	-0.000583	6285.843022	43543.193532	3920.008625	22830.742993
29.536500	-0.000762	-0.000065	0.002275	-0.000090	6292.226891	43501.734421	3919.917340	22808.160142
30.034500	-0.002156	0.000662	-0.001118	0.000608	6276.049724	43504.397233	3910.381067	22776.250764
30.535000	0.001029	-0.000216	-0.000620	0.002404	6286.780844	43255.608726	3907.373201	22694.325178
31.035000	-0.000823	-0.000107	0.001161	0.002120	6274.661198	43292.097953	3912.160730	22707.254497
31.535500	0.000300	0.000324	-0.002823	0.000094	6299.041601	43520.909051	3907.620391	22799.761359
32.037000	-0.001062	-0.000385	0.003473	0.000033	6288.949776	43460.418554	3922.437436	22802.540028
32.536000	-0.000278	0.000119	0.001057	0.000582	6290.773492	43456.285247	3915.501423	22777.455822
33.039500	0.001361	-0.000161	0.004150	-0.000364	6310.859361	43518.278594	3924.961974	22820.701209
33.536500	-0.001070	-0.000145	0.000828	-0.000172	6290.469432	43501.834488	3916.725185	22811.908279
34.037000	0.000452	0.000580	-0.002550	0.002546	6281.222393	43316.364400	3902.590494	22687.863710
34.534500	-0.000863	0.000175	0.003257	0.001828	6276.606161	43345.440054	3917.727904	22720.553081
35.037500	-0.001075	-0.000449	-0.003076	0.001537	6277.219518	43314.493067	3903.702606	22733.811987
35.535000	-0.003121	0.000288	0.005377	0.001805	6259.408512	43358.139663	3922.750365	22721.629124
36.035500	-0.000476	-0.000459	-0.002964	0.001786	6279.926360	43290.484563	3903.389832	22722.481400
36.535500	-0.000653	0.000461	-0.004882	0.002164	6275.638102	43340.787055	3898.111850	22705.263275
37.039000	-0.000801	0.000042	-0.002823	0.001729	6277.846857	43342.273277	3903.842882	22725.052662
37.536000	-0.000221	0.000282	-0.002658	0.001375	6285.065630	43397.539922	3905.040340	22741.203855
38.036500	-0.005161	0.000509	0.007049	0.002442	6238.913738	43319.437261	3925.183463	22692.606703
38.536500	-0.000592	0.000114	-0.000371	0.001869	6278.380271	43335.883199	3909.187137	22718.672680
39.037000	-0.000103	-0.000359	-0.000953	0.001699	6283.482286	43307.830104	3908.235061	22726.450929
39.537000	-0.002435	-0.000084	-0.007577	0.001626	6266.059433	43340.141804	3893.181344	22729.792676
40.037000	-0.002990	0.000200	0.001731	0.001852	6260.048549	43345.580478	3914.111549	22719.475503
40.535000	-0.001830	0.000057	0.002935	0.001563	6271.200877	43359.166105	3917.595823	22732.664386
41.035000	-0.000842	0.000539	-0.001374	0.002305	6273.092628	43334.913447	3905.858614	22698.841637
41.535500	-0.002790	-0.000086	0.001636	0.001400	6265.058813	43360.930980	3914.943491	22740.070714
42.036000	0.000150	-0.000240	0.003841	0.001641	6285.886897	43324.225101	3919.531683	22729.096039
42.542000	-0.001767	-0.000255	0.004506	0.001296	6273.745462	43354.990391	3921.899868	22744.846647
43.036500	-0.001711	-0.000142	-0.000557	0.001680	6271.207843	43329.701971	3909.195176	22727.293130
43.537000	0.001239	0.000883	0.004472	-0.002404	6325.854085	43807.273084	3930.539442	22914.408890
44.036500	0.001797	0.001496	0.001828	0.000308	6309.025023	43610.424282	3917.939702	22789.963255
44.535000	0.000811	0.000771	0.000518	0.000532	6299.610539	43521.667608	3914.359789	22779.719059
45.037500	0.000138	0.000745	0.008108	0.000945	6291.185064	43480.736211	3931.217801	22760.870177
45.535500	-0.000154	0.000126	0.003009	-0.000057	6296.690203	43516.543731	3921.561927	22806.676356
46.035500	-0.003678	-0.000366	-0.005109	0.002634	6248.776950	43220.414394	3896.515496	22683.846232
46.535500	0.001278	0.000226	0.004085	0.000185	6305.941392	43503.283248	3923.519046	22795.603317
47.035500	-0.000768	0.000691	0.002280	0.002612	6271.300879	43320.539051	3913.620853	22684.866505
47.536000	-0.002714	-0.000446	0.001403	0.001697	6263.363115	43299.984509	3913.709435	22726.555702
48.036500	-0.003913	-0.000388	-0.000011	0.002494	6248.053215	43231.310346	3908.575480	22690.223655
48.540000	-0.000815	0.000443	0.000273	0.000092	6290.403274	43532.093306	3914.813217	22799.825010
49.037500	0.001343	0.000681	-0.004327	0.000562	6303.511682	43510.498662	3903.067367	22778.335441
49.534500	0.001579	0.000141	0.002123	-0.002810	6331.709086	43775.761926	3925.950336	22933.108754
50.038000	-0.001872	0.000050	-0.001338	0.020903	6125.134275	41599.580240	3863.888052	21869.980341
50.535000	0.013448	-0.011724	0.011172	0.057586	5971.504029	37521.493967	3811.848296	20335.533801
51.038000	0.023177	-0.008634	-0.006433	0.385919	4387.659379	19310.943209	3312.622381	11100.308640
51.536000	-0.001569	-0.018941	-0.016113	-0.108176	7235.832768	52743.395222	4153.279510	28426.591562
52.039000	-0.024158	-0.047832	-0.023210	-0.211965	8122.178746	62111.190083	4465.137933	35310.701068
52.536500	-0.013647	-0.056677	-0.007864	-0.234410	8531.939640	63992.460568	4607.183722	37028.396907
53.037000	-0.010544	-0.034189	-0.008763	-0.196290	8097.576351	61835.274874	4460.726215	34162.720412
53.537000	-0.004811	-0.022503	0.001224	-0.163388	7783.874678	59028.877009	4380.649842	31883.620645
54.034500	-0.013877	-0.019858	-0.011305	-0.138839	7421.949664	56271.659264	4259.706981	30292.127845
54.538000	-0.010909	-0.020419	-0.011561	-0.154445	7618.465458	58150.408186	4308.528278	31293.411419
55.035000	-0.008560	-0.017820	-0.010749	-0.154246	7641.765940	58456.254323	4310.512682	31280.437610
55.535500	-0.008899	-0.013300	-0.008346	-0.142995	7517.533427	57602.953435	4282.121960	30555.280577
56.035500	-0.008143	-0.012409	-0.015183	-0.138685	7480.105537	57174.499692	4247.165097	30282.433612
56.539500	-0.002564	-0.011527	-0.006084	-0.129061	7437.881617	56094.574478	4245.544937	29682.917978
57.038500	-0.005009	-0.012540	-0.013939	-0.128952	7411.413460	55957.386645	4221.141354	29676.174347
57.536500	-0.008121	-0.006192	-0.015103	-0.079659	6901.397530	50968.841659	4076.527597	26805.955262
58.036500	-0.013909	-0.008570	-0.012095	-0.063506	6705.481753	48964.078502	4041.530919	25934.085863
58.534500	-0.011060	-0.010257	-0.007432	-0.061931	6716.584573	48619.894419	4049.656731	25850.775848
59.034500	-0.012422	-0.008846	-0.011509	-0.019752	6354.851807	44529.926053	3933.777799	23728.982515
59.535000	-0.019304	-0.009496	-0.020815	0.000667	6145.851634	42562.009090	3865.568013	22773.529369
60.036000	-0.024069	-0.007491	-0.019752	-0.005443	6155.849829	43308.720918	3881.602812	23054.744101
60.536000	-0.019535	-0.004742	-0.019340	-0.016040	6270.411428	44567.507495	3906.734881	23551.962048
61.037000	-0.019287	-0.003834	-0.018545	-0.024331	6336.843711	45457.930975	3927.961869	23949.515718
61.541500	-0.021254	-0.004632	-0.013092	-0.028910	6357.431225	45829.405476	3951.920596	24172.341462
62.044500	-0.021679	-0.005641	-0.015186	-0.032995	6386.480381	46133.938480	3956.741846	24373.113285
62.537000	-0.018617	-0.005207	-0.021561	-0.037856	6450.213282	46663.419909	3953.073798	24614.512972
63.036500	-0.021456	-0.004554	-0.021972	-0.040987	6452.589927	47045.825317	3959.672920	24771.479011
63.540000	-0.019882	-0.004860	-0.015517	-0.047337	6517.549492	47663.416777	3991.301036	25093.233468
64.037500	-0.023662	-0.004356	-0.023784	-0.047139	6484.788032	47694.907079	3970.287654	25083.131371
64.535000	-0.020749	-0.003830	-0.014693	-0.058453	6603.345193	48930.913633	4021.644901	25667.945671
65.035500	-0.019747	-0.003730	-0.016938	-0.063816	6657.657237	49512.638906	4029.707607	25950.507085
65.535500	-0.017435	-0.002925	-0.020856	-0.068940	6722.127114	50152.388522	4032.841529	26223.788959
66.039000	-0.020806	-0.002229	-0.018165	-0.068294	6687.156504	50157.783909	4038.175043	26189.123863
66.536500	-0.019741	-0.003143	-0.015649	-0.078337	6784.640961	51160.079245	4071.491158	26733.368933
67.036500	-0.016890	-0.003052	-0.013069	-0.080240	6827.125065	51381.837527	4083.617174	26837.908861
67.537000	-0.014516	-0.002512	-0.014339	-0.081460	6859.559095	51578.448345	4083.482546	26905.200400
68.037000	-0.020959	-0.002129	-0.017163	-0.075996	6753.135859	51013.144162	4061.161330	26605.391114
68.534500	-0.016081	-0.003388	-0.016679	-0.082191	6852.002863	51562.204137	4079.114483	26945.573474
69.035000	-0.014993	-0.001877	-0.015937	-0.080121	6843.128710	51499.661378	4075.523226	26831.364999
69.535500	-0.016113	-0.002751	-0.007419	-0.080198	6833.738436	51410.783634	4098.965264	26835.615486
70.035500	-0.019057	-0.001657	-0.013664	-0.073784	6750.398334	50820.903719	4064.599247	26485.059366
70.536000	-0.015429	-0.002859	-0.010287	-0.077967	6819.834947	51150.607094	4085.003451	26713.104607
71.036000	-0.015784	-0.002163	-0.016264	-0.075769	6797.004388	50984.253684	4062.954144	26593.005746
71.536500	-0.014602	-0.002539	-0.014580	-0.074341	6794.804872	50785.164497	4063.638977	26515.309827
72.039500	-0.018802	-0.002862	-0.016194	-0.068142	6703.239795	50072.616147	4042.941605	26181.014516
72.537000	-0.016221	-0.003187	-0.015951	-0.071883	6758.646779	50444.459224	4053.447237	26382.177064
73.037500	-0.018786	-0.002883	-0.019314	-0.070210	6721.416423	50295.056649	4040.181687	26291.994434
73.537500	-0.019176	-0.003001	-0.016622	-0.068615	6704.106221	50108.739563	4043.058813	26206.337620
74.035500	-0.019865	-0.003252	-0.022558	-0.061846	6639.753985	49353.103001	4010.182596	25846.320397
74.535500	-0.017404	-0.003089	-0.017411	-0.065961	6696.433682	49812.150775	4034.055151	26064.525451
75.036000	-0.019173	-0.003303	-0.016982	-0.064753	6670.667717	49658.964481	4032.024838	26000.222157
75.539000	-0.019113	-0.003956	-0.016397	-0.063685	6661.985812	49474.406466	4030.772606	25943.564630
76.039000	-0.024409	-0.003593	-0.021506	-0.056768	6558.345705	48777.864249	3999.962919	25579.858287
76.537000	-0.020817	-0.002932	-0.016681	-0.060336	6618.758012	49226.205916	4021.374576	25766.765257
77.036500	-0.020960	-0.004126	-0.019611	-0.058674	6603.437044	48922.963906	4009.610238	25679.522710
77.537500	-0.020339	-0.003808	-0.019502	-0.058427	6606.603137	48930.421186	4009.255910	25666.570958
78.034500	-0.020280	-0.003670	-0.020157	-0.057074	6595.645677	48802.093085	4004.152613	25595.824603
78.535000	-0.018925	-0.003718	-0.016091	-0.056179	6599.538272	48702.681025	4012.224097	25549.179684
79.035000	-0.017937	-0.003572	-0.021665	-0.054102	6590.334565	48499.811964	3992.850276	25441.248105
79.535500	-0.018344	-0.003630	-0.020377	-0.053077	6578.266698	48386.385918	3993.509855	25388.147858
80.036000	-0.020632	-0.004225	-0.016526	-0.052985	6558.294172	48314.634243	4002.989633	25383.372436
80.536500	-0.018255	-0.004055	-0.016717	-0.051862	6568.807697	48215.302145	3999.666894	25325.409263
81.036500	-0.019089	-0.004341	-0.017946	-0.050265	6548.461742	48019.498755	3992.552064	25243.184167
81.536500	-0.018584	-0.003856	-0.015242	-0.049815	6548.922426	48023.068385	3998.223450	25220.047259
82.037000	-0.021858	-0.004075	-0.013790	-0.049910	6522.490782	48010.273652	4002.133420	25224.935061
82.534500	-0.018315	-0.003552	-0.013249	-0.048916	6543.666800	47961.486497	4000.985847	25173.961933
83.038000	-0.018412	-0.002765	-0.012964	-0.047200	6528.589563	47865.395481	3997.374450	25086.232234
83.535000	-0.018042	-0.003583	-0.018138	-0.047478	6533.973652	47809.519805	3985.101462	25100.420121
84.035500	-0.020882	-0.003814	-0.015292	-0.042660	6470.890719	47291.328795	3980.197036	24855.770018
84.535500	-0.018548	-0.003063	-0.014010	-0.046508	6521.728755	47763.189229	3993.003013	25050.956800
85.039000	-0.019684	-0.003570	-0.014872	-0.044629	6496.847252	47517.700765	3986.142499	24955.436939
85.536500	-0.016788	-0.004065	-0.017842	-0.045244	6525.844825	47530.043041	3980.283518	24986.667698
86.036500	-0.017144	-0.004217	-0.018716	-0.044847	6519.595743	47473.758854	3977.132985	24966.471842
86.536500	-0.020392	-0.004459	-0.012218	-0.044351	6488.741647	47398.276177	3992.088118	24941.354726
87.034500	-0.019480	-0.003742	-0.016734	-0.041823	6475.503591	47213.341016	3974.559165	24813.538228
87.534500	-0.018536	-0.003867	-0.013448	-0.041967	6484.415443	47215.284493	3983.057637	24820.820657
88.034500	-0.019004	-0.003927	-0.018595	-0.036025	6432.258300	46608.067624	3955.823130	24523.300658
88.535500	-0.016761	-0.003225	-0.012766	-0.040220	6484.638472	47102.792877	3980.411915	24732.905693
89.035000	-0.017557	-0.003603	-0.016492	-0.038634	6465.168281	46903.710502	3967.308949	24653.402052
89.536000	-0.017310	-0.003034	-0.011808	-0.038472	6465.865187	46944.991359	3978.454864	24645.337706
90.036000	-0.018466	-0.002368	-0.017817	-0.032459	6407.888272	46406.887432	3949.083061	24346.672506
90.539000	-0.016194	-0.002650	-0.013808	-0.037372	6465.994984	46872.507751	3970.803361	24590.398898
91.036500	-0.014647	-0.002408	-0.012653	-0.036855	6474.403413	46844.738948	3972.371828	24564.611014
91.537000	-0.014118	-0.002059	-0.012510	-0.036253	6473.802804	46819.115680	3971.241383	24534.614764
92.034500	-0.017488	-0.001639	-0.012865	-0.030197	6397.604101	46253.864140	3955.584805	24235.396293
92.538000	-0.013569	-0.001454	-0.010271	-0.034753	6466.035498	46728.783537	3973.061326	24460.098253
93.035000	-0.013357	-0.001447	-0.014099	-0.034995	6469.749235	46754.005819	3964.261492	24472.131824
93.535500	-0.012030	-0.001596	-0.009385	-0.034894	6479.769022	46728.837005	3975.597120	24467.133749
94.036000	-0.014032	-0.001917	-0.010598	-0.032729	6445.816374	46479.006584	3967.282801	24359.985203
94.538500	-0.014375	-0.001532	-0.011296	-0.034982	6461.342536	46744.144420	3971.101865	24471.491110
95.036500	-0.012678	-0.001032	-0.011467	-0.033502	6463.111852	46645.440232	3967.049812	24398.191717
95.536500	-0.013271	-0.001710	-0.015660	-0.035011	6470.578062	46729.021045	3960.490592	24472.900597
96.036500	-0.015986	-0.000703	-0.013742	-0.030451	6411.672169	46372.571206	3954.074951	24247.861795
96.537500	-0.011925	-0.001706	-0.008361	-0.035994	6489.649576	46828.678524	3980.857528	24521.764051
97.034500	-0.014391	-0.000831	-0.012797	-0.033972	6452.990333	46713.014546	3964.942795	24421.435620
97.535000	-0.011991	-0.000187	-0.011547	-0.035070	6481.524357	46888.711291	3970.701559	24475.839053
98.035000	-0.015780	-0.001432	-0.012811	-0.032138	6426.905190	46468.342298	3960.431307	24330.822662
98.535500	-0.011291	-0.000285	-0.008490	-0.036208	6496.609943	46994.014190	3981.066847	24532.372225
99.038500	-0.013570	-0.000252	-0.007012	-0.035866	6475.118007	46962.740101	3983.890852	24515.366320
99.536000	-0.013083	-0.000949	-0.010398	-0.036850	6487.170310	46991.852249	3977.928708	24564.350700
100.036500	-0.016805	0.000022	-0.011598	-0.032742	6423.513745	46674.994857	3964.865402	24360.627269
100.539500	-0.012221	-0.000414	-0.012501	-0.036332	6489.982540	46993.506014	3971.456641	24538.531983
101.037000	-0.011688	-0.000166	-0.005746	-0.036439	6495.240983	47029.528795	3988.477771	24543.857398
101.534500	-0.011830	0.000219	-0.007413	-0.036430	6494.011700	47067.739647	3984.297700	24543.448060
102.037500	-0.015373	-0.000734	-0.007937	-0.033939	6444.754784	46719.379759	3976.813669	24419.788947
102.537500	-0.012578	-0.000124	-0.010593	-0.037103	6493.395824	47101.241926	3978.073270	24576.978303
103.035000	-0.011299	0.000213	-0.005213	-0.036854	6501.862407	47110.216648	3990.851963	24564.564302
103.538000	-0.011315	0.000844	-0.006047	-0.036662	6500.145760	47154.744318	3988.282877	24554.969695
104.036000	-0.013237	0.000457	-0.006814	-0.034754	6468.755730	46921.867096	3981.617275	24460.156757
