sample name	sample
index	1174
start time	 04-26-2021  11:19:01 AM
880	-0.038994
Peak Time (s)	90.035
Peak Height 	-0.03899
calc peak height	90,93
Baseline Time (s)	10.043
Baseline Value 	-0.006614
subtract baseline	10,4
Abs	-0.021708
Peak Time (s)	90.535
Peak Height 	-0.02171
calc peak height	90,93
Baseline Time (s)	10.537
Baseline Value 	-0.005944
subtract baseline	10,3
PK_550	0.000748
Peak Time (s)	91.536
Peak Height 	7.483E-4
calc peak height	90,93
Baseline Time (s)	10.043
Baseline Value 	0.001156
subtract baseline	10,2
PK_880	-0.016811
Peak Time (s)	91.035
Peak Height 	-0.01681
calc peak height	90,93
Baseline Time (s)	9.064
Baseline Value 	4.4018E-4
subtract baseline	10,1


Time (s)	A880-A510	A880-A775	A880-A975	A880	I510	I775	I975	I880	
0.035500	0.002249	-0.001199	-0.002187	0.006162	6128.854929	43183.203085	3826.039569	22357.322792
0.535500	-0.001295	-0.000776	0.001039	0.011144	6065.613395	42762.553573	3822.100662	22135.012182
1.036500	-0.002061	-0.000992	-0.001606	0.007426	6087.373421	43085.350692	3824.506562	22300.693393
1.536000	-0.001212	-0.000152	-0.001458	0.004838	6112.884338	43403.732227	3830.661122	22416.809489
2.039000	-0.000400	-0.000759	-0.006994	0.002952	6133.057562	43523.240696	3822.456041	22501.897750
2.534000	-0.002477	-0.001316	-0.001709	0.005191	6100.850218	43262.541735	3829.299272	22400.928094
3.034000	0.001810	-0.000601	0.002473	0.000151	6170.862242	43800.966630	3850.312946	22628.944183
3.534500	-0.001287	-0.001029	0.002728	0.002013	6133.445073	43585.858950	3846.617546	22544.391687
4.034500	-0.002340	-0.000817	0.000566	0.001633	6128.401063	43641.373888	3842.539277	22561.616578
4.535000	-0.001370	-0.000080	0.000896	0.002064	6132.442328	43670.082706	3842.306443	22542.081799
5.035000	-0.000025	-0.000424	-0.000173	0.001306	6148.258073	43709.027285	3841.598700	22576.490217
5.535500	-0.000695	-0.000732	-0.002402	0.000877	6146.438261	43720.334074	3837.498035	22595.947360
6.035500	-0.001518	-0.000232	0.001372	0.000813	6140.727236	43773.329078	3846.260980	22598.838921
6.536500	0.000512	-0.000192	0.002397	0.000959	6154.923372	43763.452005	3848.280534	22592.242177
7.054500	0.000361	-0.000229	-0.003280	0.000918	6154.097806	43763.835320	3835.412656	22594.104651
7.552000	0.001831	0.000135	0.004183	0.000855	6165.687497	43803.964546	3852.631917	22596.948172
8.053500	-0.000888	-0.000925	-0.001020	-0.000144	6152.682303	43798.245754	3842.975422	22642.403249
8.535500	0.000307	-0.000506	0.005626	0.000388	6157.688219	43787.660956	3857.051965	22618.196462
9.064000	0.000000	0.000537	-0.002847	0.000641	6153.460980	43862.062790	3837.023796	22606.688368
9.538000	-0.000480	-0.000355	-0.002402	0.000392	6151.716862	43801.405537	3838.601059	22617.993087
10.043500	-0.000087	0.000000	0.003714	0.000000	6157.642615	43871.868103	3853.522609	22635.828615
10.537500	0.001730	0.000170	0.000000	-0.000046	6171.751347	43892.269843	3845.084763	22637.909710
11.107500	0.002415	-0.000147	-0.000345	-0.000947	6183.813037	43947.437262	3846.359322	22678.990225
11.536500	-0.000289	0.000509	0.001647	-0.000235	6157.887780	43942.049052	3849.299865	22646.506697
12.036500	0.001319	-0.000581	0.003704	-0.000701	6173.602583	43883.185769	3855.120907	22667.772767
12.534500	0.000908	0.000403	0.003635	-0.000181	6166.540040	43927.051727	3853.758971	22644.082711
13.034500	0.002168	0.000167	0.000831	-0.000562	6178.996108	43940.701221	3848.175650	22661.416912
13.537500	0.001559	-0.000021	0.000943	-0.000810	6176.256064	43946.395403	3849.003839	22672.731140
14.036500	-0.002678	-0.000353	0.000521	0.001953	6123.483539	43654.838572	3841.703807	22547.116481
14.535500	0.000017	-0.000858	0.001170	0.001002	6150.862392	43696.771271	3845.365021	22590.289433
15.039000	0.000516	-0.000112	-0.002816	-0.000954	6169.434683	43951.430345	3840.724533	22679.312029
15.536500	0.000969	0.001043	0.003897	-0.000284	6167.786665	43997.346331	3854.604976	22648.780641
16.036500	-0.002749	-0.000948	0.003109	-0.001950	6152.265098	43966.561008	3856.635650	22724.800284
16.536500	-0.001295	-0.000103	0.003812	-0.001531	6160.087691	44006.827710	3857.296142	22705.664884
17.037000	0.001246	-0.000160	0.002157	-0.003241	6192.396817	44163.598171	3857.422664	22783.925561
17.542500	-0.001957	-0.000153	0.000534	-0.000161	6144.756644	43872.670386	3846.573152	22643.173794
18.034500	0.000936	-0.000084	0.005298	0.000294	6163.155759	43836.225984	3856.508526	22622.455251
18.535500	0.000846	0.000081	-0.003503	0.000367	6161.917484	43844.854323	3836.154518	22619.109320
19.035000	-0.000825	-0.000003	0.000645	0.000103	6151.291950	43861.882723	3846.223334	22631.157363
19.536000	-0.002295	0.000034	-0.002453	0.000661	6136.038671	43812.794284	3837.874294	22605.785226
20.036000	-0.000510	0.000418	0.000084	0.000829	6148.195966	43833.136166	3843.274305	22598.129134
20.536500	-0.000108	0.000342	0.001827	0.000027	6157.276350	43901.593146	3849.111357	22634.587431
21.036500	-0.002579	0.000414	-0.002347	0.000653	6133.956994	43849.292209	3838.130125	22606.108473
21.536500	-0.000829	-0.000054	-0.000449	-0.000027	6152.244347	43869.247021	3844.013533	22637.044175
22.035500	-0.000875	0.000222	-0.002440	0.000362	6148.968270	43858.689396	3838.583621	22619.370481
22.536500	-0.000884	0.001037	0.002790	0.000855	6145.179531	43889.014790	3849.423149	22596.954817
23.035000	-0.000522	0.000532	0.003631	0.000558	6150.151800	43869.459737	3852.043929	22610.458342
23.535000	-0.001624	-0.000820	-0.002220	-0.000491	6149.751789	43840.916428	3841.028734	22658.210948
24.035500	-0.001755	0.000011	-0.003378	0.000261	6143.091381	43848.272212	3836.678711	22623.929230
24.537500	-0.001672	-0.001019	0.002672	-0.000893	6152.417622	43859.961438	3853.178506	22676.508514
25.036000	-0.002599	-0.000772	0.001955	-0.000133	6139.712140	43811.667445	3849.774999	22641.890374
25.535500	-0.000767	0.000731	-0.001566	0.000633	6147.734491	43881.146545	3839.957194	22607.046749
26.036500	0.000988	0.000452	0.000590	0.000559	6161.542375	43861.820521	3845.050215	22610.404619
26.536500	0.000012	0.000008	0.004541	0.000693	6153.157316	43807.262262	3853.833662	22604.314493
27.034500	0.000545	0.000160	0.005810	-0.002119	6178.498022	44087.465136	3863.308551	22732.529682
27.538500	0.000785	-0.000027	0.004141	-0.001917	6178.783553	44050.516640	3858.953347	22723.277089
28.035000	0.001169	0.000357	0.001116	-0.001265	6176.752322	44025.224631	3850.448867	22693.511136
28.534500	0.002424	-0.000001	-0.004070	-0.000866	6183.259811	43953.539424	3837.669639	22675.295781
29.035500	0.000871	0.000211	0.004291	-0.001027	6172.671530	43988.831810	3857.234242	22682.613800
29.536000	-0.001877	0.000284	0.002635	-0.001681	6156.820755	44057.676225	3854.914514	22712.499473
30.036000	-0.000564	-0.000304	-0.000229	-0.002063	6169.646992	44038.122710	3849.188732	22729.938685
30.540000	-0.000730	-0.000208	0.001026	0.001684	6140.103307	43693.781723	3843.474381	22559.331895
31.037000	0.000433	0.000130	0.005112	0.000453	6158.143617	43841.354639	3855.708448	22615.202991
31.537000	0.001663	0.000172	0.002637	-0.001342	6181.096511	44015.010642	3854.137794	22697.031802
32.034500	0.000424	0.000153	0.001549	-0.001609	6173.704562	44038.445051	3852.241370	22709.223723
32.534000	0.000408	0.000346	0.002316	-0.001090	6169.642001	44007.553893	3852.813212	22685.518323
33.035000	0.003214	0.000263	0.000215	-0.002424	6201.188952	44126.153750	3851.043309	22746.459631
33.534500	0.000180	0.000955	0.002858	0.000221	6157.989907	43941.171494	3851.037905	22625.780058
34.038500	-0.002020	-0.000166	0.002129	0.000626	6138.356817	43797.219349	3848.426972	22607.339492
34.536000	-0.001428	-0.000516	-0.002379	0.000052	6147.128546	43818.303089	3839.428335	22633.459918
35.036500	-0.000474	-0.000161	0.001923	0.000528	6150.741440	43806.923625	3848.180763	22611.830290
35.536500	0.000462	-0.000462	0.001220	0.000435	6158.505583	43787.394517	3846.779545	22616.054542
36.034000	-0.000585	-0.000189	0.005276	0.000685	6148.713174	43789.411035	3855.550959	22604.651220
36.537000	-0.003101	0.000570	0.002637	0.000515	6131.081570	43877.084908	3849.853666	22612.401249
37.034500	-0.000975	-0.000050	0.001327	0.000207	6149.379150	43847.640494	3847.548518	22626.394612
37.535000	-0.001417	0.000535	-0.000772	0.000191	6146.166119	43904.403103	3842.776173	22627.146262
38.035000	-0.000940	0.000365	-0.005443	0.000926	6144.222835	43818.965239	3830.497488	22593.702171
38.535500	-0.002211	-0.000305	0.006109	-0.000464	6145.122810	43886.858451	3860.149910	22656.962180
39.035000	0.000367	-0.000071	-0.000774	0.000228	6159.353976	43843.673815	3842.687212	22625.458048
39.536000	-0.002614	-0.000201	-0.000445	0.000071	6138.066888	43846.244982	3843.800082	22632.599882
40.036000	-0.000961	-0.000116	0.001708	0.000273	6148.982598	43835.160558	3848.271445	22623.394123
40.537000	-0.001165	-0.000083	0.002678	0.000307	6147.192579	43835.081401	3850.423700	22621.839230
41.037000	-0.002164	-0.000112	0.003260	0.000049	6141.614909	43856.759670	3852.363760	22633.617299
41.534000	0.000446	0.000814	0.005486	0.000640	6156.834639	43888.294888	3856.142183	22606.737158
42.035000	-0.001526	0.000057	0.005241	0.000181	6145.417877	43860.190230	3856.637836	22627.582523
42.535500	0.001309	0.000263	0.000030	0.000993	6160.685583	43802.967529	3842.775123	22590.658613
43.038500	0.000710	0.000105	-0.000085	-0.000246	6165.535418	43905.016309	3845.348185	22647.024444
43.538500	0.000181	0.000114	0.001818	-0.005101	6198.468029	44366.858842	3860.955859	22869.386584
44.039000	-0.000128	0.000547	0.004440	-0.001818	6171.097821	44095.649442	3859.419168	22718.766203
44.536000	-0.000054	0.000533	-0.000036	-0.001137	6166.499821	44029.749951	3847.505622	22687.668577
45.036500	0.002353	0.000707	0.001921	-0.001222	6185.432794	44054.280199	3852.205910	22691.527681
45.534000	-0.000587	0.000489	0.001087	-0.001919	6168.385989	44099.773574	3851.890365	22723.394494
46.037500	-0.001825	-0.000004	-0.000469	-0.001469	6155.610693	44010.263836	3847.272410	22702.803766
46.537000	0.000519	0.000280	0.008132	-0.001012	6169.892650	43993.997289	3866.147893	22681.963724
47.034000	-0.001396	-0.000032	0.007652	0.000905	6140.949624	43783.574470	3860.553814	22594.665956
47.534500	0.001405	0.000329	0.002996	-0.000114	6169.802529	43913.733712	3852.129877	22641.024863
48.035500	0.002067	0.000741	0.004925	-0.001573	6185.925001	44090.755290	3859.976499	22707.557046
48.535500	0.001474	0.000687	0.002100	-0.001552	6181.250369	44083.673305	3853.379184	22706.592872
49.036000	-0.000800	0.000243	0.001449	-0.002479	6171.009380	44129.419459	3854.017057	22748.978912
49.536000	0.000221	0.000350	0.007054	-0.004163	6191.602181	44299.837658	3871.007461	22826.216160
50.036500	0.001251	0.001951	0.007236	0.019454	6023.556871	42253.422303	3817.384365	21769.844669
50.537000	0.006621	-0.008735	0.012347	0.101497	5514.107261	34686.815296	3660.375162	18515.894653
51.034500	0.012449	-0.016714	-0.011819	0.215469	4932.523238	26904.099144	3439.644818	14903.779175
51.535500	-0.009387	-0.032250	-0.028796	-0.147329	7385.534597	56303.617752	4157.149734	30620.065859
52.035000	-0.019224	-0.034938	-0.030081	-0.162944	7445.934009	57917.219719	4200.993429	31636.066073
52.535000	-0.018158	-0.058331	-0.023546	-0.233682	8267.617219	64254.325608	4464.040537	36725.218981
53.041000	-0.007942	-0.022833	-0.011972	-0.162312	7559.397357	59390.130892	4256.460808	31594.262547
53.536000	-0.002518	-0.018873	-0.005963	-0.116555	7144.003553	54206.489362	4133.469749	28721.511810
54.036000	-0.011667	-0.022113	-0.012542	-0.092494	6829.777064	51080.386888	4046.052167	27328.058974
54.536000	-0.013696	-0.012868	-0.019694	-0.084815	6742.374402	51254.485624	4005.905301	26899.365327
55.036500	-0.018666	-0.008837	-0.026281	-0.105519	6885.025446	54088.448146	4044.088196	28072.773019
55.534000	-0.013261	-0.010100	-0.023752	-0.135149	7221.869199	57543.907613	4135.849278	29852.523894
56.034500	-0.009728	-0.007368	-0.025551	-0.118591	7093.461523	55831.594299	4082.641584	28843.033821
56.535000	-0.010067	-0.006777	-0.016046	-0.105676	6966.676076	54350.452659	4073.000496	28081.890366
57.035000	-0.012844	-0.008480	-0.022874	-0.097007	6860.264253	53136.217483	4030.137658	27583.579680
57.535500	-0.013690	-0.006596	-0.020128	-0.071669	6627.130818	50495.112401	3970.326195	26182.795863
58.035500	-0.016059	-0.006643	-0.025329	-0.050635	6430.323514	48239.853853	3904.665889	25080.441168
58.536000	-0.013772	-0.004790	-0.022370	-0.043809	6393.365152	47723.616996	3895.317211	24734.025019
59.036500	-0.014486	-0.005089	-0.021257	-0.043119	6382.017661	47621.656950	3896.337884	24699.333366
59.536500	-0.018958	-0.005458	-0.024554	-0.016337	6138.553166	44911.254428	3826.335439	23393.666778
60.034000	-0.017593	-0.004887	-0.022408	-0.010125	6102.331879	44368.996376	3817.239890	23102.125693
60.534500	-0.018149	-0.005593	-0.024767	-0.007029	6075.315041	44007.587603	3805.169319	22958.375125
61.034500	-0.019485	-0.005996	-0.029023	-0.007854	6071.552439	44047.563622	3797.655612	22996.602520
61.534500	-0.019759	-0.006544	-0.021988	-0.004743	6046.736698	43702.330667	3806.253098	22852.904475
62.035500	-0.024294	-0.004036	-0.029617	-0.007721	6035.392320	44221.004950	3796.070379	22990.442938
62.538500	-0.024142	-0.004045	-0.030689	-0.012701	6072.947734	44696.720697	3804.619718	23222.495071
63.038500	-0.025207	-0.003640	-0.027958	-0.022299	6136.398463	45670.675972	3832.102018	23677.400103
63.536500	-0.024741	-0.001822	-0.034986	-0.025649	6165.165942	46182.667535	3823.820525	23838.505028
64.036500	-0.023505	-0.001610	-0.028614	-0.030405	6210.868315	46680.637329	3849.091819	24069.461864
64.536500	-0.023392	-0.001338	-0.029392	-0.033711	6237.228020	47042.843130	3854.922553	24231.459156
65.037000	-0.023079	-0.000523	-0.027512	-0.036167	6258.732012	47376.597596	3865.005123	24352.643538
65.534500	-0.024134	-0.000468	-0.032071	-0.038566	6269.217572	47628.632164	3859.969131	24471.633117
66.034000	-0.024588	-0.001165	-0.028774	-0.040379	6279.857386	47743.820395	3871.920169	24562.040836
66.535000	-0.024535	-0.000632	-0.028643	-0.041702	6290.653231	47935.736849	3875.345469	24628.201969
67.038000	-0.025446	-0.001967	-0.032720	-0.043609	6298.495588	47995.157198	3870.238332	24723.985580
67.535000	-0.024800	-0.000937	-0.032376	-0.043900	6305.890600	48132.557709	3871.729114	24738.626662
68.035500	-0.026341	-0.000962	-0.030836	-0.039773	6261.409159	47702.157009	3865.662465	24531.754669
68.536500	-0.027183	-0.000846	-0.032879	-0.043427	6283.407779	48092.827766	3869.436223	24714.831565
69.039500	-0.024371	-0.000016	-0.031770	-0.043202	6303.765642	48155.717238	3871.512650	24703.496342
69.537000	-0.028109	-0.000694	-0.031318	-0.044152	6281.830611	48184.117485	3874.816007	24751.326256
70.034000	-0.027706	-0.001086	-0.038530	-0.040607	6257.273721	47775.505943	3849.749677	24573.427889
70.534500	-0.028894	-0.000968	-0.036010	-0.043612	6271.451625	48099.411499	3862.547014	24724.146062
71.035000	-0.027490	-0.000882	-0.028724	-0.042946	6277.227473	48039.025280	3878.095850	24690.627398
71.535000	-0.027773	-0.001430	-0.033471	-0.043471	6279.121645	48036.578644	3868.150474	24717.027507
72.035500	-0.032088	-0.002140	-0.036024	-0.039537	6215.091552	47556.556263	3853.060402	24520.008365
72.535000	-0.027488	-0.000576	-0.037704	-0.041505	6265.976822	47921.173909	3853.725094	24618.337485
73.035500	-0.029064	-0.001260	-0.038996	-0.042481	6261.298633	47951.457152	3852.994129	24667.288443
73.536500	-0.029522	-0.001306	-0.034932	-0.042847	6260.573860	47984.709930	3863.275948	24685.658530
74.036500	-0.033598	-0.001058	-0.037705	-0.037689	6189.370203	47477.793026	3844.942319	24428.056095
74.536500	-0.030221	-0.001095	-0.034108	-0.041940	6248.080389	47912.480511	3863.082396	24640.140222
75.034500	-0.030595	-0.002015	-0.031125	-0.043271	6255.523773	47955.093635	3873.192921	24706.965629
75.534000	-0.027564	-0.001363	-0.030958	-0.043543	6281.327732	48051.062592	3874.228846	24720.666273
76.035000	-0.032655	-0.001909	-0.035598	-0.039531	6210.689259	47579.743093	3854.031258	24519.727981
76.538500	-0.027404	-0.002242	-0.037683	-0.043677	6283.629326	47973.624829	3858.804585	24727.383670
77.035500	-0.029424	-0.001839	-0.030242	-0.043855	6269.208333	48034.064881	3876.655626	24736.371368
77.536000	-0.027113	-0.002259	-0.033907	-0.044807	6294.806555	48089.381697	3870.263654	24784.378307
78.036500	-0.028193	-0.001807	-0.031891	-0.044534	6284.164864	48107.978937	3874.365368	24770.569193
78.537000	-0.026413	-0.002432	-0.030727	-0.044706	6299.518738	48060.808707	3877.519654	24779.249140
79.037000	-0.024432	-0.001745	-0.033882	-0.043753	6307.632298	48033.150574	3867.847771	24731.226560
79.537000	-0.025384	-0.002094	-0.031745	-0.043643	6299.253464	47985.603912	3872.610872	24725.716749
80.035000	-0.027644	-0.001770	-0.027714	-0.037279	6231.941118	47362.817658	3867.132349	24407.735275
80.535000	-0.025502	-0.001998	-0.024445	-0.043024	6293.451479	47931.337104	3888.458952	24694.576656
81.035500	-0.025922	-0.001150	-0.031726	-0.042553	6286.443236	47970.344507	3870.092205	24670.913699
81.535000	-0.025280	-0.000742	-0.031223	-0.042013	6287.243258	47956.736615	3870.005568	24643.819505
82.035500	-0.024379	-0.001257	-0.028577	-0.042172	6295.583009	47919.741135	3876.612505	24651.789787
82.536000	-0.023174	-0.000622	-0.030863	-0.041585	6300.451076	47924.719680	3869.843965	24622.354720
83.035500	-0.023516	-0.000777	-0.028246	-0.041607	6297.932035	47910.915791	3876.059530	24623.467103
83.536500	-0.023340	-0.001233	-0.025128	-0.042214	6304.103744	47926.585062	3884.894670	24653.870370
84.036500	-0.028686	-0.001486	-0.032311	-0.036399	6217.118879	47301.857619	3854.387842	24364.118667
84.534500	-0.022098	-0.000884	-0.028799	-0.041225	6306.102414	47860.284531	3873.852053	24604.314977
85.035000	-0.024724	-0.001766	-0.025553	-0.041396	6286.769282	47786.736560	3881.939857	24612.900226
85.535000	-0.021668	-0.001517	-0.027084	-0.041386	6310.769339	47811.390826	3878.283377	24612.383654
86.038000	-0.026747	-0.001069	-0.028935	-0.035582	6225.756366	47260.873779	3860.321583	24323.690245
86.535500	-0.021404	-0.000337	-0.029806	-0.040409	6305.139790	47832.512029	3869.565446	24563.535422
87.036000	-0.022231	-0.001330	-0.031961	-0.042254	6313.191045	47920.655057	3868.839283	24655.898291
87.535500	-0.021459	-0.000587	-0.023285	-0.041903	6316.519841	47961.270120	3888.552802	24638.276517
88.036500	-0.023724	-0.000647	-0.029017	-0.037333	6262.790274	47483.449286	3864.211947	24410.389650
88.537000	-0.020749	-0.001076	-0.024668	-0.042309	6325.374379	47952.723025	3886.218804	24658.663121
89.034000	-0.018703	-0.000734	-0.023738	-0.043390	6350.297484	48100.532643	3891.025715	24712.939373
89.534500	-0.018707	-0.000774	-0.024749	-0.043843	6353.892394	48143.576910	3889.690460	24735.737994
90.035000	-0.022478	-0.000293	-0.026193	-0.038994	6285.537480	47690.745410	3874.738098	24492.939437
90.535500	-0.019720	0.000259	-0.021708	-0.043001	6339.072773	48163.518100	3894.968598	24693.414065
91.035500	-0.016811	-0.000418	-0.023736	-0.044570	6374.964950	48256.504430	3893.864369	24772.390486
91.536000	-0.019155	0.000748	-0.030044	-0.044586	6356.261677	48380.258652	3878.852653	24773.225493
92.035500	-0.021123	0.000288	-0.025777	-0.040407	6307.347211	47896.955748	3879.062420	24563.447345
92.536500	-0.019490	0.000345	-0.027273	-0.044934	6356.368004	48374.464366	3886.268621	24790.785784
93.064000	-0.016347	0.000384	-0.027640	-0.045731	6388.081116	48462.037291	3887.291773	24831.014352
93.533500	-0.018723	0.000669	-0.026723	-0.045714	6368.784052	48490.174487	3889.445836	24830.181056
94.034000	-0.021554	0.000713	-0.032614	-0.039731	6298.605473	47870.967237	3861.415518	24529.683496
94.535000	-0.020376	0.000594	-0.026199	-0.045313	6352.301442	48440.265565	3889.739141	24809.919831
95.035000	-0.015833	0.001501	-0.026716	-0.045954	6394.048866	48602.764395	3890.035682	24842.295219
95.538000	-0.018270	0.001277	-0.024127	-0.046146	6375.909788	48599.438974	3896.714832	24852.026510
