sample name	sample
index	288
start time	 02-25-2021  12:39:25 PM
880	-0.031480
Peak Time (s)	92.537
Peak Height 	-0.03148
calc peak height	90,93
Baseline Time (s)	8.536
Baseline Value 	-0.002631
subtract baseline	10,4
Abs	-0.011751
Peak Time (s)	91.035
Peak Height 	-0.01175
calc peak height	90,93
Baseline Time (s)	11.537
Baseline Value 	0.001863
subtract baseline	10,3
PK_550	-0.006279
Peak Time (s)	90.035
Peak Height 	-0.006279
calc peak height	90,93
Baseline Time (s)	9.536
Baseline Value 	-6.4905E-5
subtract baseline	10,2
PK_880	-0.010656
Peak Time (s)	91.536
Peak Height 	-0.01066
calc peak height	90,93
Baseline Time (s)	11.036
Baseline Value 	0.001313
subtract baseline	10,1


Time (s)	A880-A510	A880-A775	A880-A975	A880	I510	I775	I975	I880	
0.036000	-0.000630	-0.001025	-0.004099	-0.001001	6881.003154	45828.168589	3999.252162	24297.728979
0.539000	-0.001163	-0.000094	0.000322	0.002645	6843.407373	45561.149881	4001.171498	24119.198345
1.036500	-0.002008	-0.000322	0.002550	0.005005	6814.807390	45307.993600	4000.842112	24004.397014
1.537500	0.000783	0.000690	-0.000946	0.000537	6879.869131	45845.699434	4003.251317	24222.231445
2.037000	0.000382	0.000059	-0.001777	-0.000129	6882.265046	45849.114394	4002.841096	24254.880718
2.540500	-0.001515	-0.000399	-0.003681	-0.000395	6867.545329	45830.173078	3998.787993	24267.939319
3.034500	-0.003493	-0.000029	-0.004269	0.004886	6802.691746	45348.195042	3984.383424	24010.167230
3.535000	-0.000012	0.000239	-0.002598	0.000066	6876.945287	45847.706102	4000.326783	24245.337519
4.035000	0.000047	0.000053	0.000048	-0.000073	6878.731502	45842.989289	4007.238301	24252.121722
4.536000	-0.000540	-0.000332	-0.001636	-0.000171	6874.315374	45814.666588	4003.295866	24256.946957
5.038500	0.000437	0.000572	-0.000229	0.000554	6876.591671	45832.319620	4004.989357	24221.374059
5.536000	0.001994	0.000533	0.001170	0.000221	6893.696136	45861.401482	4009.302422	24237.722548
6.036500	-0.000501	0.000561	-0.001961	-0.000353	6876.310339	45920.827965	4002.941624	24265.884361
6.537000	-0.001477	0.000127	0.003350	-0.000748	6871.074130	45916.995467	4017.189237	24285.304324
7.036500	-0.001555	0.000692	-0.001235	0.000143	6862.334911	45884.789638	4003.510677	24241.533161
7.540500	-0.000761	0.000110	-0.001683	-0.000377	6874.185825	45878.631647	4003.691215	24267.067583
8.037500	0.001310	0.000790	0.005072	0.000303	6886.756225	45878.620038	4018.876187	24233.698120
8.535500	0.000383	0.000760	0.004682	0.000000	6881.107999	45905.657751	4018.656194	24248.558973
9.035500	-0.000522	0.000299	-0.004083	-0.000349	6876.086914	45894.589495	3997.682043	24265.711253
9.536000	0.000355	0.000000	0.004827	0.000051	6880.390291	45825.495688	4018.891214	24246.041617
10.036500	-0.001162	-0.000085	0.000989	-0.000209	6869.046160	45842.825720	4009.924441	24258.818001
10.536000	0.001028	-0.000163	-0.002264	0.000073	6886.283435	45807.300697	4001.136416	24244.994658
11.036000	0.000000	-0.000102	-0.003369	-0.000018	6877.811911	45822.300548	3998.627217	24249.446802
11.537000	-0.000719	0.000484	0.000000	0.000039	6870.804953	45874.498469	4006.839958	24246.638597
12.037500	-0.001399	0.001102	-0.002112	0.000355	6861.840629	45904.407333	4000.812814	24231.161357
12.534500	0.000046	0.000937	0.005337	0.000288	6875.460909	45894.678064	4019.579060	24234.419906
13.035000	0.002827	0.000986	0.002729	-0.000177	6904.877120	45945.469432	4014.195505	24257.252004
13.535000	0.001349	0.000930	0.000133	0.000614	6884.292571	45861.789595	4005.740618	24218.470675
14.036500	0.000885	0.001361	-0.000130	0.000706	6879.261457	45895.199461	4004.856449	24213.930064
14.536000	0.000202	0.000310	0.002356	0.002918	6853.196275	45574.010660	4005.539182	24105.892811
15.036000	-0.000751	0.001612	0.000255	0.002617	6847.347895	45731.521936	4001.074653	24120.553238
15.561000	0.000342	0.000851	0.001546	0.000193	6878.997418	45895.528503	4010.311527	24239.086644
16.037000	0.001411	0.000395	0.002741	-0.000040	6890.771897	45873.423669	4013.882128	24250.502331
16.537000	0.000081	0.000178	0.002695	-0.000056	6878.885705	45853.656687	4013.806990	24251.290205
17.037500	-0.002195	0.000543	0.000770	0.002402	6836.343249	45647.523090	4002.881290	24131.041364
17.536500	0.000454	0.000280	-0.000128	-0.000004	6881.786426	45858.583908	4006.627333	24248.740658
18.035000	0.001005	0.001229	0.001257	0.000026	6886.496978	45949.374001	4010.003934	24247.259430
18.535500	-0.001294	0.000625	-0.005603	0.001539	6852.135327	45740.463333	3989.302879	24173.168228
19.038500	-0.000505	0.000720	-0.003500	0.002444	6851.100862	45660.716886	3992.239290	24128.976477
19.536000	-0.000292	0.000531	0.000921	0.001651	6860.132826	45720.148588	4005.121593	24167.708231
20.036000	0.000728	0.000189	0.000991	0.001326	6872.243678	45718.450400	4006.102451	24183.576907
20.536500	-0.001180	0.000416	0.003348	0.001528	6853.266188	45720.944754	4011.478483	24173.741173
21.037000	-0.000543	0.000720	-0.005684	0.002036	6854.426792	45700.891210	3987.889181	24148.900981
21.537000	-0.000515	0.000591	0.000765	0.001465	6859.805841	45744.371729	4005.196508	24176.800884
22.037500	-0.001986	0.000283	-0.002407	0.001464	6846.610919	45714.104397	3997.343345	24176.845526
22.537500	-0.001279	0.000362	-0.000322	0.001790	6850.023363	45689.798913	4001.692473	24160.895692
23.035000	0.000043	0.000456	-0.000398	0.001928	6860.652603	45685.558452	4001.161204	24154.164700
23.538000	-0.000095	0.000097	0.004553	0.001171	6866.229928	45724.736072	4015.390416	24191.204152
24.036000	0.000503	0.000965	0.001484	0.002129	6862.991945	45715.795462	4005.332341	24144.355468
24.536000	-0.000937	0.000346	-0.000577	0.001634	6854.491764	45703.607599	4001.445214	24168.520317
25.036500	-0.002136	-0.000168	0.002709	0.001184	6847.776859	45697.278074	4010.738963	24190.539549
25.537000	0.001053	0.000678	-0.000698	0.002370	6865.774876	45663.858138	3999.327146	24132.595958
26.036500	-0.000262	0.001419	0.005445	0.002482	6852.941772	45725.798457	4014.338482	24127.146431
26.537000	-0.000025	0.000262	0.001254	0.001492	6863.967614	45709.326885	4006.344373	24175.484104
27.037500	-0.000011	0.000924	0.004062	0.002511	6854.932290	45674.269425	4010.804994	24125.726894
27.535000	-0.001365	0.000386	-0.001896	0.001709	6849.984627	45700.179987	3998.000756	24164.886308
28.036000	0.003285	0.000875	0.004934	-0.001032	6916.843057	46019.173813	4021.894036	24299.273499
28.536000	-0.000559	0.000594	-0.000412	0.000868	6864.773416	45803.493815	4003.754114	24205.994977
29.036000	0.000059	0.000839	-0.000089	0.000420	6874.387461	45871.898957	4005.669610	24227.953108
29.536000	0.001117	0.000689	-0.003490	0.000375	6884.356209	45861.509185	3997.358596	24230.158833
30.036500	0.001315	0.000770	0.002177	0.000223	6887.518152	45884.584046	4011.812981	24237.605471
30.539500	-0.002228	-0.000083	0.003449	-0.000094	6858.424628	45831.725750	4015.794853	24253.187752
31.037000	-0.001887	0.000106	-0.003147	0.002067	6842.093405	45637.475874	3994.033980	24147.395085
31.558000	0.000117	0.000871	0.002234	0.000374	6875.327506	45879.654189	4011.578340	24230.217429
32.035000	-0.002107	0.000243	0.000922	0.002962	6832.129450	45563.031577	4001.870979	24103.712420
32.566500	-0.000239	-0.000037	0.001511	0.000369	6872.162203	45790.467104	4009.783719	24230.458197
33.063000	-0.001329	0.000382	0.002096	0.001330	6853.701476	45737.104166	4008.846291	24183.407582
33.538500	0.000262	0.000203	-0.001502	-0.000130	6881.194809	45863.398463	4003.527736	24254.938985
34.036000	-0.000495	0.000073	-0.001956	0.000056	6872.673432	45832.254306	4001.941160	24245.823563
34.536500	0.003343	0.000742	0.002866	0.000745	6901.186111	45830.242127	4012.231844	24212.040491
35.036500	-0.001455	0.000915	0.000757	0.002711	6840.196862	45653.622249	4002.082106	24115.941155
35.536500	0.000541	0.000399	0.003403	0.002548	6859.567495	45618.992636	4009.069433	24123.929820
36.037500	-0.001153	0.000495	0.000667	0.002345	6846.179682	45648.385450	4002.768144	24133.829535
36.540000	-0.002190	0.000836	0.002165	0.003142	6829.786550	45603.593374	4004.508507	24094.982989
37.035500	-0.001346	0.000040	-0.001708	0.002324	6844.633839	45605.708568	3996.944846	24134.819128
37.538000	-0.001025	0.000082	-0.000736	0.002415	6846.702028	45600.975240	3999.121355	24130.425069
38.038500	0.000161	0.000517	-0.000099	0.003035	6851.778944	45582.844208	3999.163425	24100.195603
38.536000	-0.002827	0.000446	0.001385	0.002529	6829.565842	45625.494777	4004.093776	24124.842403
39.036500	-0.002795	-0.000591	0.002071	0.001798	6836.384209	45595.467882	4007.617796	24160.523082
39.536500	-0.001267	0.000734	0.002828	0.002686	6842.104621	45638.346327	4007.292628	24117.194254
40.036500	-0.000088	-0.000122	0.000427	0.002122	6857.737801	45609.712656	4002.726813	24144.703804
40.540000	-0.000150	0.000333	0.005823	0.002289	6855.680729	45638.024206	4015.770805	24136.560615
41.037000	-0.001888	0.000756	0.002501	0.002665	6836.731452	45642.505854	4006.527321	24118.193982
41.537500	-0.000484	0.001059	0.003773	0.002867	6847.494885	45652.441503	4009.195954	24108.349318
42.038000	-0.001957	0.000128	0.005222	0.002035	6841.757378	45642.808567	4014.902354	24148.961350
42.535500	-0.000840	0.000282	0.000842	0.002016	6851.930677	45659.785257	4004.017898	24149.865515
43.035500	-0.001205	0.000085	-0.000183	0.002139	6847.556942	45628.285818	4001.173081	24143.872914
43.536500	0.000051	0.001042	-0.000443	0.003115	6850.069609	45626.479012	3998.115778	24096.261688
44.035500	-0.002581	0.000249	0.002758	0.002352	6833.348158	45623.582592	4007.949660	24133.485499
44.537500	-0.002728	0.000178	0.002696	0.002448	6831.175323	45607.062369	4007.553262	24128.781855
45.037000	-0.000300	0.001212	0.000729	0.002798	6849.767378	45674.324961	4001.797580	24111.712000
45.537500	0.001585	0.000088	0.001292	-0.000423	6895.826332	45881.018334	4011.213942	24269.319783
46.034500	0.001597	0.000152	0.000240	0.000140	6890.829507	45831.709563	4007.184956	24241.671264
46.560000	-0.000432	0.000787	0.002763	0.000327	6870.803026	45875.959515	4013.019752	24232.522420
47.035000	-0.001118	-0.000071	-0.002976	0.001908	6850.407958	45635.736635	3994.846608	24155.155103
47.535500	-0.000026	0.000168	0.002061	-0.000212	6879.330381	45868.034214	4012.609910	24258.964284
48.036000	-0.000159	0.000692	0.002052	0.000159	6874.773637	45883.202524	4011.659934	24240.761294
48.536000	0.001524	0.000636	0.005005	0.000344	6888.318569	45859.400729	4018.603985	24231.680761
49.035500	-0.001323	0.000342	0.001975	0.003798	6831.666295	45490.798331	4002.408479	24063.027526
49.536500	-0.001738	0.000405	-0.000950	0.003080	6834.370765	45567.403197	3996.951456	24097.999448
50.037000	-0.000054	0.000011	0.005185	0.000273	6874.696709	45804.762635	4019.235783	24235.175230
50.537000	-0.000540	0.000285	0.002784	0.000157	6871.351608	45843.148153	4013.494973	24240.833967
51.035000	-0.001348	0.000689	-0.000032	0.004818	6822.349936	45425.008595	3994.932419	24013.505158
51.538000	0.003383	0.001640	0.003479	-0.001236	6919.588190	46115.287040	4018.738769	24309.263575
52.035000	0.001714	0.000709	0.007164	0.000976	6884.316979	45804.190628	4022.450918	24200.703190
52.535000	0.001306	0.000281	0.002339	0.003460	6858.239544	45518.011863	4004.151855	24079.491014
53.036000	-0.024397	-0.017191	0.008716	0.356168	4588.036690	21112.386680	3411.548314	12324.474141
53.536000	-0.023505	-0.016963	-0.007445	0.038859	6352.921518	40660.755155	3897.595006	22424.819960
54.036500	-0.032315	-0.087418	-0.017395	-0.249011	9415.716181	65150.205506	4768.703363	40745.664545
54.536500	-0.035529	-0.179143	-0.004906	-0.343416	10925.278732	65535.000000	5283.015685	49925.061320
55.037000	-0.038482	-0.141005	-0.002756	-0.305277	10205.709057	65535.000000	5095.551795	45975.018867
55.537000	-0.041505	-0.147758	-0.004001	-0.312030	10268.256995	65535.000000	5123.245204	46649.389841
56.035000	-0.037574	-0.093660	-0.005839	-0.257045	9457.127628	65407.287834	4853.738198	41451.512613
56.535000	-0.023472	-0.107332	-0.010623	-0.271604	9900.719675	65535.000000	4897.627269	42764.452457
57.035500	-0.024337	-0.112307	-0.007613	-0.276580	9966.772500	65535.000000	4934.220885	43223.309719
57.535500	-0.017451	-0.087883	-0.008648	-0.252156	9689.258615	65535.000000	4819.866629	41020.430205
58.035500	-0.016967	-0.070409	-0.005977	-0.229882	9359.710416	64847.362687	4736.270969	39116.652207
58.536500	-0.018207	-0.043417	-0.004343	-0.188636	8762.805919	62849.411212	4578.443113	35839.040708
59.036500	-0.014681	-0.026291	-0.004582	-0.146951	8274.283407	59557.290083	4426.360422	32828.186896
59.537000	-0.015210	-0.021237	-0.007894	-0.123399	7987.366204	57197.637377	4336.352650	31250.585628
60.037000	-0.010317	-0.014528	-0.006538	-0.097192	7746.331271	54816.862882	4257.903649	29592.758604
60.537500	-0.013098	-0.014114	-0.008199	-0.077512	7504.838074	52567.184513	4194.024727	28412.017196
61.035000	-0.013609	-0.011106	-0.008720	-0.054719	7267.120671	50358.347966	4127.736531	27109.682876
61.535500	-0.014893	-0.011437	-0.012332	-0.037682	7088.988477	48500.543513	4071.925720	26179.922532
62.035500	-0.017768	-0.011286	-0.011279	-0.031721	7005.732222	47895.575708	4059.045224	25863.142717
62.535500	-0.014479	-0.004427	-0.019436	-0.012720	6861.794432	46656.848279	3990.347152	24881.858642
63.036000	-0.018008	-0.010682	-0.010253	-0.023450	6927.106131	47109.311314	4040.294385	25430.682251
63.538500	-0.013295	-0.008742	-0.011292	-0.040757	7133.704016	49109.425463	4082.833621	26345.016417
64.037000	-0.007614	-0.004795	-0.011762	-0.045551	7235.724613	50047.536340	4094.412377	26604.809836
64.537000	-0.010416	-0.006135	-0.013499	-0.054605	7297.798626	50891.259516	4114.268116	27103.320255
65.040000	-0.007048	-0.005690	-0.011051	-0.056500	7350.747589	51150.120104	4126.214868	27208.997356
65.584500	-0.004146	-0.004935	-0.010992	-0.058152	7397.083675	51417.891912	4130.952735	27301.466886
66.035000	-0.002540	-0.005198	-0.016134	-0.059171	7424.012566	51502.300771	4119.565189	27358.698381
66.535500	-0.003901	-0.004380	-0.015074	-0.057993	7397.970952	51462.180005	4119.243773	27292.593103
67.035500	-0.008612	-0.004696	-0.011063	-0.055111	7320.956565	51106.408614	4122.348329	27131.505598
67.536500	-0.007258	-0.004284	-0.011681	-0.055645	7339.979164	51211.293516	4122.117819	27161.270016
68.036000	-0.006265	-0.003815	-0.011682	-0.054190	7335.315105	51101.871099	4118.113552	27080.251543
68.537000	-0.007038	-0.004465	-0.014187	-0.053324	7318.816685	50934.162955	4108.893581	27032.174849
69.036000	-0.007926	-0.004514	-0.013994	-0.051605	7292.693893	50739.339241	4104.741981	26936.981695
69.537000	-0.007557	-0.004739	-0.013501	-0.053422	7314.590236	50914.776762	4111.031703	27037.611232
70.037500	-0.007063	-0.003438	-0.014145	-0.052251	7307.796228	50929.055997	4106.087530	26972.707857
70.535000	-0.008456	-0.003496	-0.012609	-0.050729	7278.675825	50754.952756	4106.127501	26888.646490
71.035500	-0.007274	-0.003131	-0.014972	-0.047681	7260.148644	50460.647896	4091.510239	26721.169496
71.535500	-0.005267	-0.002782	-0.016042	-0.048386	7287.118939	50576.090351	4090.532978	26759.824788
72.036000	-0.006195	-0.002853	-0.011203	-0.047024	7264.324498	50419.222714	4099.893000	26685.214030
72.536000	-0.005396	-0.002372	-0.015993	-0.045863	7260.734727	50344.951929	4083.915833	26621.815619
73.036000	-0.007745	-0.003390	-0.012979	-0.045573	7234.654327	50202.585159	4091.202491	26606.030750
73.537000	-0.007277	-0.003227	-0.013899	-0.045592	7239.454260	50222.297978	4088.786297	26607.038146
74.037000	-0.005351	-0.002278	-0.014724	-0.044652	7249.187577	50223.316143	4084.070310	26555.868952
74.537500	-0.007480	-0.003214	-0.015408	-0.044309	7224.817055	50084.379641	4081.335627	26537.255034
75.037500	-0.009310	-0.003501	-0.016868	-0.044475	7208.489192	50071.242150	4077.896281	26546.256060
75.535000	-0.008674	-0.002574	-0.016130	-0.043308	7203.285395	50045.196565	4076.758555	26482.904331
76.035500	-0.006574	-0.002779	-0.017206	-0.043094	7221.785254	49999.830541	4073.345357	26471.340017
76.535500	-0.006575	-0.003481	-0.014319	-0.043705	7227.778450	49989.869697	4082.623854	26504.422566
77.036000	-0.006390	-0.002820	-0.009774	-0.042946	7222.135066	49979.374236	4092.754794	26463.306771
77.536000	-0.006762	-0.002740	-0.014249	-0.042475	7213.867154	49937.051226	4079.539439	26437.820810
78.036500	-0.007870	-0.003320	-0.014024	-0.042789	7206.078455	49908.192700	4080.972589	26454.782914
78.536500	-0.008614	-0.002566	-0.018656	-0.039324	7165.077345	49616.244314	4059.633815	26267.951626
79.039500	-0.004587	-0.002790	-0.014371	-0.041232	7223.015574	49797.398337	4075.920451	26370.663944
79.537500	-0.005566	-0.003204	-0.013948	-0.041195	7213.035610	49748.829501	4076.943224	26368.670981
80.035000	-0.007276	-0.002675	-0.012767	-0.040546	7189.965420	49735.880665	4078.351138	26333.659419
80.535000	-0.007959	-0.002846	-0.013328	-0.039836	7176.402256	49641.097434	4074.984142	26295.445138
81.038500	-0.007024	-0.003479	-0.017321	-0.039345	7180.727225	49520.466630	4063.179696	26269.079827
81.535500	-0.006934	-0.004140	-0.017630	-0.040239	7190.319728	49545.446130	4064.714648	26317.160912
82.036000	-0.006248	-0.003348	-0.011913	-0.039445	7189.264660	49545.241728	4077.698908	26274.467657
82.536500	-0.007643	-0.003230	-0.011519	-0.039204	7173.338340	49532.073036	4078.104327	26261.516234
83.036500	-0.006848	-0.003809	-0.013693	-0.039100	7180.055616	49458.827741	4072.073965	26255.904392
83.539500	-0.008422	-0.004125	-0.017268	-0.039061	7164.393532	49420.894808	4062.575699	26253.840261
84.036500	-0.007838	-0.004135	-0.016460	-0.038958	7169.061544	49408.798188	4064.423443	26248.303741
84.537500	-0.009339	-0.005145	-0.016193	-0.039378	7158.581023	49345.748938	4066.224364	26270.829890
85.035000	-0.007672	-0.004927	-0.013694	-0.037374	7155.320708	49155.468762	4067.524830	26163.450504
85.535000	-0.008148	-0.004290	-0.011907	-0.037791	7154.756117	49267.760572	4073.334460	26185.771110
86.035500	-0.008743	-0.005143	-0.013289	-0.038605	7156.866747	49263.515626	4071.836243	26229.365125
86.536000	-0.010324	-0.004365	-0.016105	-0.034108	7098.469614	48868.703213	4052.696528	25989.446460
87.036500	-0.010215	-0.005309	-0.018070	-0.037538	7132.367369	49132.232731	4056.505591	26172.186787
87.536000	-0.010068	-0.005229	-0.009019	-0.037987	7138.113819	49188.556542	4081.513239	26196.251621
88.039500	-0.009211	-0.006126	-0.013155	-0.037720	7143.794259	49064.814864	4069.852821	26181.940822
88.537500	-0.010747	-0.005537	-0.011121	-0.033516	7088.795933	48682.696787	4064.152808	25958.062742
89.037000	-0.012360	-0.006794	-0.016928	-0.035691	7094.147708	48779.397732	4054.669570	26073.602975
89.535000	-0.009705	-0.005391	-0.017356	-0.036575	7128.016065	49021.371827	4055.859455	26120.769699
90.035500	-0.011451	-0.006279	-0.016593	-0.036919	7114.565652	48963.721004	4058.740936	26139.129169
90.535500	-0.014293	-0.006498	-0.016614	-0.031689	7037.965456	48390.142811	4045.126239	25861.423761
91.035500	-0.011719	-0.006492	-0.011751	-0.034267	7086.694641	48661.187105	4064.469197	25997.887088
91.536000	-0.010656	-0.007684	-0.011793	-0.036201	7115.305642	48739.394246	4069.441015	26100.783802
92.039000	-0.011213	-0.007364	-0.012254	-0.035790	7106.036617	48729.711394	4067.146472	26078.878425
92.536500	-0.015439	-0.007757	-0.015653	-0.031480	7025.248956	48236.971331	4047.066007	25850.413168
93.037000	-0.014088	-0.007743	-0.019479	-0.033793	7059.733684	48480.135639	4043.164678	25972.726025
93.537000	-0.012928	-0.009065	-0.014858	-0.036682	7098.178400	48644.554490	4062.655348	26126.449584
94.035000	-0.013755	-0.008415	-0.009861	-0.035402	7078.136405	48578.479565	4072.429188	26058.255688
94.535000	-0.017854	-0.008908	-0.020146	-0.030657	6995.013256	48031.602827	4033.423217	25807.009407
95.035500	-0.013201	-0.008994	-0.011083	-0.035654	7085.793381	48544.144314	4069.870172	26071.659014
95.535500	-0.013903	-0.009307	-0.015402	-0.035631	7078.906238	48508.850958	4058.490889	26070.444478
96.036000	-0.013353	-0.008477	-0.011868	-0.034401	7072.452061	48466.946677	4064.516001	26005.027626
96.535500	-0.012974	-0.009859	-0.014138	-0.034308	7075.163696	48312.743720	4058.334623	26000.091814
97.036500	-0.014462	-0.009047	-0.016834	-0.031754	7036.993196	48131.145736	4044.726449	25864.867814
97.536500	-0.013222	-0.009413	-0.012917	-0.033282	7063.091778	48252.144402	4058.843186	25945.664230
98.034500	-0.015050	-0.009740	-0.013889	-0.033290	7045.915721	48218.903434	4056.331663	25946.108580
98.541000	-0.012953	-0.009193	-0.016393	-0.032385	7057.156341	48181.615221	4047.492013	25898.202052
99.034500	-0.013773	-0.008754	-0.013115	-0.031617	7042.185827	48147.341897	4053.993912	25857.638925
