sample name	sample
index	197
start time	 02-18-2021  12:16:26 PM
880	-0.098209
Peak Time (s)	90.535
Peak Height 	-0.09821
calc peak height	90,93
Baseline Time (s)	8.537
Baseline Value 	-0.00337
subtract baseline	10,4
Abs	-0.016115
Peak Time (s)	91.035
Peak Height 	-0.01611
calc peak height	90,93
Baseline Time (s)	8.537
Baseline Value 	0.002192
subtract baseline	10,3
PK_550	-0.006393
Peak Time (s)	91.035
Peak Height 	-0.006393
calc peak height	90,93
Baseline Time (s)	8.537
Baseline Value 	0.001165
subtract baseline	10,2
PK_880	-0.008441
Peak Time (s)	92.036
Peak Height 	-0.008441
calc peak height	90,93
Baseline Time (s)	11.537
Baseline Value 	0.001834
subtract baseline	10,1


Time (s)	A880-A510	A880-A775	A880-A975	A880	I510	I775	I975	I880	
0.035500	0.000786	-0.000638	-0.002729	0.000717	6712.473543	43505.553222	3910.148905	22968.997047
0.535500	-0.001765	-0.000709	-0.001715	0.003513	6665.952224	43238.648076	3905.941481	22840.243779
1.035500	-0.001702	-0.000705	-0.001623	0.005621	6648.302932	43043.824636	3901.201067	22743.688904
1.536000	-0.001829	-0.000621	-0.001747	0.000067	6695.316063	43567.934682	3914.021091	22999.080985
2.036000	0.000417	-0.000156	0.001631	0.000248	6713.353902	43594.484928	3921.643210	22990.709575
2.537000	0.001127	-0.000369	-0.001274	-0.000245	6723.905324	43620.664913	3915.885204	23013.506089
3.037000	-0.005357	-0.001405	-0.005200	0.003658	6633.767311	43160.582403	3897.420544	22833.550601
3.537500	0.000805	-0.000865	-0.001167	-0.000447	6722.848329	43593.138379	3916.621954	23022.856681
4.038000	0.000830	-0.001032	0.000205	-0.000594	6724.356868	43591.351842	3920.245608	23029.684655
4.535000	-0.004212	-0.000616	-0.007096	0.003550	6644.523927	43243.844866	3893.249115	22838.533904
5.035500	0.000489	-0.000344	0.002580	-0.000253	6718.378396	43623.815632	3925.118103	23013.884716
5.536000	0.001121	-0.000511	0.002244	-0.000634	6727.266087	43643.807597	3925.227720	23031.532419
6.036000	0.001415	-0.000061	0.002106	0.000236	6722.203006	43604.487942	3922.807395	22991.223083
6.536500	-0.001168	-0.001027	-0.003157	-0.000739	6708.121251	43605.334628	3912.585308	23036.397508
7.036500	-0.002711	-0.000289	0.000805	-0.000070	6688.823495	43611.752429	3920.427195	23005.389585
7.537000	-0.000306	-0.000589	0.001157	-0.000454	6713.165755	43619.702651	3922.187320	23023.193134
8.037500	0.001310	-0.000572	-0.002437	-0.000715	6729.642930	43645.748968	3914.238897	23035.302752
8.537500	0.000292	0.000000	0.000000	0.000000	6714.430216	43632.315632	3918.337908	23002.164939
9.035000	0.002323	0.000637	-0.002373	0.000536	6727.552311	43641.762312	3911.420675	22977.380188
9.535000	-0.001472	-0.000822	-0.002357	-0.000582	6704.091843	43609.894133	3914.112152	23029.132493
10.035500	0.001878	0.000257	0.003847	0.000285	6725.842877	43629.722437	3926.870189	22988.974916
10.535500	-0.000099	0.000360	0.002621	0.000112	6710.029850	43655.634390	3924.340694	22997.001540
11.036500	-0.000151	-0.000970	0.001784	-0.000855	6718.039751	43621.541958	3924.652883	23041.790783
11.536500	0.000000	-0.000409	-0.000185	-0.000775	6718.663433	43666.640061	3919.746270	23038.071104
12.037000	0.000423	0.000193	0.001275	-0.000244	6717.718645	43673.359878	3921.968086	23013.480250
12.536500	0.001465	-0.000188	0.001385	-0.000567	6729.703307	43667.896759	3923.006868	23028.441058
13.037500	0.000999	0.000260	0.002504	-0.002398	6741.728880	43882.212208	3930.100060	23113.485976
13.535000	-0.000484	-0.000464	0.002918	-0.000694	6713.705444	43653.795193	3926.990702	23034.294905
14.038000	0.000485	-0.000450	0.004195	-0.000665	6721.949046	43652.424950	3929.997276	23032.950842
14.535500	-0.003336	-0.000302	-0.005681	0.003654	6651.176577	43263.290459	3896.306934	22833.761255
15.035000	-0.000006	-0.000161	0.000426	0.000374	6708.548239	43582.236347	3918.464274	22984.884673
15.536000	-0.000018	-0.000846	0.004358	-0.000345	6714.737092	43585.390435	3929.617644	23018.142688
16.039000	-0.000478	-0.000928	0.000057	-0.000872	6715.319667	43627.104614	3920.557400	23042.568668
16.539500	-0.004549	-0.001154	0.002608	0.003561	6641.530812	43192.849077	3916.066500	22838.004066
17.037000	0.000526	-0.000622	-0.000964	-0.000774	6723.267511	43646.517760	3917.885014	23038.007092
17.537500	0.002752	0.000018	0.000158	-0.003259	6764.859941	43940.543951	3926.521420	23153.578518
18.037500	0.001583	-0.000692	-0.002752	-0.001586	6739.721118	43716.152409	3915.560776	23075.713219
18.535000	-0.002054	-0.000258	-0.003145	0.002262	6674.281452	43396.905182	3905.518642	22897.750840
19.035500	0.000226	-0.000351	-0.000502	0.000542	6709.101268	43548.678129	3915.848247	22977.072644
19.536000	-0.001212	-0.000498	-0.000812	0.000856	6693.813700	43505.656861	3914.366020	22962.585240
20.036000	-0.001444	-0.000292	0.001318	0.000832	6692.001645	43527.101741	3919.497652	22963.684570
20.539000	-0.002827	-0.000268	-0.000197	0.002956	6661.587531	43331.345006	3910.844634	22865.821216
21.036500	-0.000758	-0.000200	-0.003121	0.000566	6700.302364	43560.627074	3909.580678	22975.998617
21.536000	-0.001063	-0.000608	-0.004070	0.000849	6695.174754	43496.013652	3906.668539	22962.906142
22.037000	0.000182	-0.000092	0.005709	0.001260	6702.446344	43505.838374	3929.007106	22943.929689
22.537500	0.001070	0.000367	-0.000345	0.002736	6697.317500	43410.928140	3911.014138	22875.939917
23.035000	-0.000287	-0.000195	0.002213	0.000797	6702.392044	43539.458959	3921.721430	22965.291475
23.537500	-0.000016	-0.000252	-0.006293	0.000911	6703.771430	43523.493018	3901.294159	22960.060873
24.035500	-0.000950	0.000397	0.000066	0.000778	6696.770697	43596.570294	3916.638858	22966.166190
24.536000	0.000846	-0.000247	-0.000841	0.002535	6697.111220	43372.393611	3910.314949	22885.163420
25.036000	0.000320	-0.000085	0.004832	0.000951	6706.350600	43535.330908	3927.638714	22958.197260
25.536500	-0.000913	0.000099	-0.001878	0.001374	6691.904952	43513.039964	3910.608340	22938.667018
26.036500	0.000680	0.000014	0.001960	0.000948	6709.530528	43544.910689	3920.754997	22958.337166
26.536500	-0.001928	-0.001341	0.004745	0.000178	6693.479797	43490.167162	3929.290582	22993.913554
27.037000	-0.001811	-0.000642	-0.002402	0.000474	6691.922097	43527.890895	3911.499945	22980.228796
27.535000	-0.001036	-0.000459	-0.000171	0.001061	6693.554256	43490.106828	3915.401497	22953.105212
28.035000	0.001932	-0.000047	0.003953	-0.002397	6749.952966	43853.121558	3933.597864	23113.399190
28.538500	-0.000400	0.000678	-0.001611	0.000008	6708.303568	43695.147498	3914.483831	23001.795521
29.051500	0.002933	0.000283	-0.000239	0.000465	6733.538935	43615.287580	3916.660874	22980.656718
29.536000	0.001831	-0.000006	0.000448	-0.000211	6729.794021	43651.579912	3919.912762	23011.943521
30.036500	0.000944	-0.000742	0.001255	-0.001003	6728.957586	43656.820904	3923.737989	23048.648475
30.536500	-0.001250	0.000031	0.005090	-0.000322	6703.757595	43665.446296	3931.329605	23017.080240
31.037000	-0.002297	-0.000447	0.000139	0.001898	6675.324167	43413.149830	3914.149867	22914.485327
31.537000	-0.001195	-0.000184	-0.002113	0.002254	6681.800183	43404.436712	3907.971415	22898.103715
32.037000	-0.001120	-0.001205	-0.002937	0.000682	6696.133674	43455.934964	3909.740870	22970.642880
32.535000	0.001965	0.000418	0.006044	0.000035	6728.803333	43668.201943	3932.772601	23000.548349
33.051500	-0.001355	-0.000796	0.001299	0.001083	6690.588909	43456.649282	3918.852789	22952.108341
33.536000	0.000100	-0.000341	0.002639	-0.000534	6717.420811	43650.393893	3925.934414	23026.887816
34.036000	0.001137	-0.000175	0.004334	-0.000599	6727.094837	43672.019720	3930.173546	23029.895821
34.536000	-0.003741	-0.000535	0.000867	0.004671	6638.935386	43147.334426	3909.302159	22787.115854
35.036500	-0.000158	0.000143	0.001034	0.001550	6696.957559	43500.710725	3917.108140	22930.573197
35.536500	-0.001412	0.000206	-0.002389	0.001931	6682.718093	43471.013863	3908.082995	22912.988421
36.037000	0.000269	-0.000466	-0.000233	0.001618	6700.082891	43437.503160	3913.931906	22927.412867
36.537000	-0.000673	0.000142	0.001696	0.001415	6693.638695	43513.175225	3919.008918	22936.768333
37.037500	-0.000266	-0.000006	0.003877	0.001369	6697.588851	43503.643528	3924.337991	22938.911185
37.535000	-0.000676	-0.000161	0.001618	0.001659	6691.486512	43462.135711	3918.239635	22925.534903
38.034500	0.000221	-0.000742	0.005429	0.000789	6706.902740	43489.071616	3929.466697	22965.663725
38.535500	-0.001780	-0.000353	-0.000776	0.001396	6684.172925	43468.784245	3913.168785	22937.652282
39.036000	-0.001242	-0.000160	-0.000404	0.001338	6689.352116	43492.203438	3914.190216	22940.333098
39.536000	-0.000586	-0.000613	0.006214	0.000881	6699.052527	43492.531510	3931.140047	22961.434898
40.036500	-0.002214	0.000174	0.004753	0.001806	6676.846887	43479.710592	3925.391956	22918.763906
40.536500	-0.001486	-0.000311	0.004702	0.002803	6674.509570	43341.553704	3922.876594	22872.835296
41.037500	-0.000395	-0.000315	0.003567	0.001412	6696.086093	43470.844470	3923.492004	22936.916060
41.537500	-0.000933	0.000064	0.000885	0.001435	6691.196089	43504.011390	3917.026770	22935.851985
42.035000	-0.002087	-0.000006	0.002248	0.001411	6681.379470	43499.781916	3920.338837	22936.983859
42.535000	-0.000336	0.000173	-0.000265	0.001367	6696.989675	43520.569516	3914.452726	22938.990930
43.035500	-0.000772	0.000147	0.001283	0.001668	6690.571072	43490.080113	3917.419485	22925.123098
43.535500	-0.000022	-0.000006	0.002407	0.001459	6698.926091	43495.266741	3920.600452	22934.741046
44.035500	0.000740	-0.000567	-0.000983	0.001204	6707.813090	43466.634809	3913.134307	22946.505672
44.536000	-0.000806	-0.000088	-0.001611	0.002479	6683.223690	43392.435692	3908.626192	22887.746956
45.037000	0.002318	0.000098	-0.000298	-0.002283	6752.362024	43856.038028	3923.083504	23108.095526
45.536500	0.000143	-0.000166	-0.001135	-0.001087	6722.656575	43718.720482	3918.223179	23052.525750
46.037000	0.001587	-0.000719	0.003572	-0.000902	6733.724167	43649.473983	3929.067217	23043.971419
46.537500	-0.001802	0.000313	-0.001049	0.005174	6651.285374	43179.350555	3903.597120	22764.098009
47.035000	-0.000556	-0.001647	0.007202	-0.000152	6708.335783	43492.440909	3936.029154	23009.184617
47.535500	0.000700	0.000234	0.004315	-0.000327	6720.870559	43684.935651	3929.472188	23017.309393
48.035500	-0.001214	0.000096	-0.002521	-0.000576	6706.291211	43695.269374	3913.708385	23028.831837
48.544000	-0.001698	-0.000302	0.003424	0.004901	6654.539218	43147.611393	3914.820274	22776.589738
49.036000	-0.001156	-0.000287	-0.003248	0.002335	6681.437080	43387.367992	3905.105253	22894.385631
49.539000	-0.001162	-0.000535	0.003028	-0.000158	6703.091273	43597.038078	3925.965674	23009.483737
50.039500	0.000009	-0.000252	0.000629	-0.000925	6720.055714	43695.431039	3922.051108	23045.005202
50.537000	-0.002921	-0.000038	-0.000215	0.004867	6644.307369	43175.309315	3906.284242	22778.158866
51.037500	-0.000643	-0.000368	-0.001465	0.000058	6705.744606	43592.400697	3914.710434	22999.484847
51.534500	0.000795	0.000489	-0.000328	-0.002995	6745.199231	43960.154449	3924.720791	23141.288866
52.035000	0.003131	0.000457	0.003101	-0.001184	6749.834238	43786.413980	3928.611310	23057.049573
52.535500	-0.003309	-0.001382	-0.001005	0.004605	6643.218160	43075.116231	3905.040650	22790.153095
53.035500	0.005889	-0.000461	0.007409	0.006540	6706.177819	42981.469745	3920.412323	22701.723843
53.539000	-0.022404	-0.010084	-0.012820	0.175530	5320.244355	29477.930811	3553.760234	16319.022328
54.036000	-0.039735	-0.026694	-0.017104	-0.104594	7324.245784	51627.909791	4149.562093	28476.014962
54.536000	-0.051414	-0.101576	-0.027527	-0.288043	9465.839969	65457.215945	4769.837871	41919.123518
55.036500	-0.018466	-0.099925	-0.003253	-0.286932	9964.485729	65535.000000	4873.240951	41819.456567
55.537000	-0.018663	-0.057436	-0.007087	-0.234141	9154.213055	64067.566851	4629.866771	37364.894843
56.037000	-0.023365	-0.030675	-0.011303	-0.181078	8376.529554	60475.027474	4413.926365	33401.058552
56.534500	-0.019704	-0.013157	-0.012070	-0.110503	7595.952645	53857.890832	4181.903960	28826.411233
57.035000	-0.012901	-0.006989	-0.014671	-0.090442	7455.060244	52254.645677	4115.826513	27656.084370
57.535500	-0.014682	-0.008645	-0.012484	-0.076676	7295.233438	50533.969455	4083.371947	26883.718018
58.035500	-0.012841	-0.006130	-0.012542	-0.059183	7139.995293	48920.316218	4035.800559	25936.880442
58.535500	-0.009014	-0.005806	-0.009328	-0.055200	7138.471141	48534.459760	4033.759350	25726.561625
59.036500	-0.011865	-0.006395	-0.013997	-0.046844	7030.756368	47604.891857	3999.737746	25291.599597
59.536500	-0.010337	-0.005088	-0.012482	-0.033328	6918.562570	46366.640213	3969.279977	24605.476508
60.034000	-0.014209	-0.005469	-0.018254	-0.028489	6838.964170	45847.741460	3943.044281	24365.007757
60.537000	-0.012266	-0.004799	-0.013447	-0.026905	6842.204129	45757.477853	3950.945746	24286.844093
61.037000	-0.015481	-0.005708	-0.010752	-0.033610	6873.943822	46332.899162	3974.329413	24619.606433
61.535000	-0.015866	-0.006723	-0.010291	-0.039898	6928.188670	46862.967411	3991.431912	24936.352917
62.035000	-0.015092	-0.005587	-0.017901	-0.044939	6982.353180	47492.254122	3984.892074	25193.615232
62.535500	-0.019618	-0.007815	-0.020153	-0.058627	7069.171143	48683.635465	4014.309856	25907.420140
63.036000	-0.019124	-0.010783	-0.019161	-0.087046	7355.495197	51444.841001	4093.629426	27463.261680
63.536500	-0.017717	-0.004541	-0.025632	-0.066676	7165.562092	49892.118872	4021.029647	26337.770054
64.039000	-0.014628	-0.004435	-0.017670	-0.080867	7338.300513	51463.640978	4080.622994	27116.237812
64.537000	-0.022009	-0.009724	-0.020697	-0.089407	7350.128649	51828.284735	4095.931561	27597.111418
65.037000	-0.019146	-0.009076	-0.017479	-0.092765	7414.192735	52281.436049	4114.447604	27788.842186
65.540000	-0.018845	-0.008859	-0.022308	-0.094892	7439.452262	52548.514323	4106.806705	27911.032521
66.048500	-0.014867	-0.008134	-0.020497	-0.096176	7494.663984	52778.456618	4115.564158	27985.075025
66.535000	-0.017934	-0.006940	-0.027079	-0.091573	7414.403659	52388.738694	4084.205765	27720.619588
67.035500	-0.018228	-0.007985	-0.020471	-0.096571	7463.452319	52840.873107	4116.758001	28007.880170
67.536000	-0.017164	-0.006960	-0.021124	-0.096523	7474.122321	52953.406306	4114.769622	28005.124153
68.036000	-0.017410	-0.007437	-0.021248	-0.096448	7470.749058	52889.853018	4114.204253	28000.797053
68.536500	-0.019981	-0.008282	-0.024801	-0.091314	7390.547183	52206.784054	4089.806299	27705.813152
69.036500	-0.019165	-0.008152	-0.021059	-0.096229	7450.060553	52782.507453	4114.116429	27988.110610
69.536500	-0.019442	-0.009091	-0.020695	-0.097071	7455.976820	52771.410010	4117.545773	28036.824053
70.039500	-0.018672	-0.009158	-0.018884	-0.097863	7472.362392	52854.667896	4124.970674	28082.726580
70.537000	-0.021903	-0.008757	-0.024562	-0.092714	7385.168431	52311.877772	4094.372785	27785.898704
71.035000	-0.017671	-0.008420	-0.016956	-0.097473	7478.783119	52894.728840	4129.380876	28060.125949
71.537500	-0.014929	-0.008244	-0.012667	-0.098314	7516.625794	53011.763354	4144.197628	28108.873770
72.035000	-0.013557	-0.008614	-0.017281	-0.099297	7541.675435	53082.475257	4133.688691	28165.965091
72.536000	-0.017792	-0.007607	-0.021874	-0.094001	7441.140549	52589.692438	4105.519080	27859.782986
73.038500	-0.016360	-0.008766	-0.018397	-0.100883	7528.714807	53248.446011	4135.046547	28258.428280
73.536000	-0.014542	-0.007573	-0.015128	-0.100468	7543.661061	53338.595487	4143.307763	28234.214726
74.037000	-0.015183	-0.008012	-0.016399	-0.100911	7541.553346	53339.107106	4140.903963	28260.060213
74.537000	-0.016514	-0.007714	-0.018649	-0.095900	7474.399849	52795.012053	4120.035813	27969.132262
75.037000	-0.012838	-0.007585	-0.018246	-0.101284	7570.622858	53431.927487	4136.639286	28281.833804
75.537500	-0.013084	-0.008445	-0.011506	-0.102068	7576.399892	53423.141785	4158.560729	28327.719757
76.035000	-0.011871	-0.008149	-0.018866	-0.102035	7589.091046	53453.724994	4137.015941	28325.757627
76.535000	-0.016402	-0.008597	-0.020481	-0.097013	7487.298864	52821.445440	4117.988304	28033.476593
77.036000	-0.012448	-0.008477	-0.011024	-0.102305	7585.791747	53447.010231	4160.673599	28341.590232
77.536000	-0.012752	-0.008381	-0.016089	-0.102000	7579.238852	53422.648514	4144.963831	28323.702608
78.036000	-0.012530	-0.008863	-0.016544	-0.102105	7582.759649	53378.891559	4143.948339	28329.873348
78.536500	-0.013425	-0.007998	-0.016630	-0.100908	7560.299703	53340.287925	4140.226274	28259.887366
79.037000	-0.014635	-0.008999	-0.017747	-0.101760	7556.467238	53323.022347	4139.458265	28309.670055
79.540000	-0.013015	-0.008495	-0.013427	-0.101352	7569.456918	53334.170803	4150.833038	28285.804357
80.037500	-0.013858	-0.008856	-0.020120	-0.101900	7566.296704	53355.891845	4133.011364	28317.879570
80.537500	-0.015645	-0.008636	-0.020907	-0.096343	7488.211388	52739.989289	4114.874213	27994.704315
81.035500	-0.013363	-0.008295	-0.017231	-0.101096	7562.972009	53327.624846	4139.028437	28270.846764
81.534500	-0.012802	-0.008437	-0.017368	-0.101549	7573.848588	53363.778035	4139.942798	28297.322684
82.036000	-0.014029	-0.007950	-0.016241	-0.101618	7561.438667	53428.480538	4143.415349	28301.401103
82.539000	-0.016607	-0.008025	-0.020005	-0.096727	7482.126194	52854.340922	4118.530917	28016.929686
83.036000	-0.012342	-0.007474	-0.015808	-0.100827	7571.042484	53391.786873	4142.372572	28255.131558
83.537000	-0.012041	-0.007404	-0.018504	-0.101535	7581.887442	53482.199802	4136.619232	28296.507192
84.036500	-0.012611	-0.007751	-0.014121	-0.101896	7579.642223	53483.860618	4150.396669	28317.653579
84.537000	-0.013976	-0.007699	-0.022240	-0.097760	7520.856096	53010.732518	4115.110730	28076.714366
85.037500	-0.011703	-0.007522	-0.014547	-0.102493	7595.846219	53580.108557	4150.895248	28352.586542
85.535000	-0.011067	-0.006801	-0.014892	-0.102565	7603.495339	53672.641020	4150.097717	28356.810490
86.035000	-0.012519	-0.007443	-0.017021	-0.103510	7598.024835	53708.149546	4146.646425	28412.297909
86.538500	-0.014917	-0.007700	-0.017078	-0.098567	7519.439902	53103.711909	4132.172210	28123.534501
87.035500	-0.010693	-0.007101	-0.018214	-0.103484	7617.496953	53745.124061	4143.102798	28410.776913
87.536000	-0.010537	-0.007218	-0.019189	-0.104099	7625.857110	53803.281833	4142.057027	28446.899414
88.036000	-0.011274	-0.008208	-0.015956	-0.104656	7623.906712	53752.737842	4153.100383	28479.712537
88.537000	-0.011150	-0.007102	-0.017808	-0.100419	7579.469442	53387.568330	4135.406367	28231.346268
89.036500	-0.011112	-0.007824	-0.021317	-0.104644	7625.527506	53796.290432	4137.475066	28479.005040
89.537000	-0.009291	-0.007207	-0.014150	-0.104309	7641.694001	53829.299568	4157.376852	28459.260685
90.035000	-0.010643	-0.007422	-0.017682	-0.104598	7630.123085	53837.865321	4147.888451	28476.240630
90.535500	-0.014143	-0.007228	-0.020077	-0.098209	7523.861069	53116.974608	4122.550814	28102.798842
91.035500	-0.009089	-0.006393	-0.016115	-0.103570	7635.846511	53838.059414	4149.462838	28415.794990
91.536000	-0.010485	-0.007679	-0.020452	-0.104352	7629.169453	53778.989660	4139.132115	28461.790498
92.036000	-0.008441	-0.007681	-0.022616	-0.104281	7650.646813	53770.424218	4132.678070	28457.577916
92.536500	-0.013256	-0.007508	-0.021616	-0.099069	7542.453766	53183.941611	4120.612836	28152.724110
93.036500	-0.009637	-0.007304	-0.014384	-0.103367	7627.681567	53707.615002	4153.928572	28403.874762
93.537000	-0.009902	-0.007480	-0.014440	-0.103267	7623.721578	53675.416846	4153.473492	28398.023236
94.039500	-0.009288	-0.007707	-0.018659	-0.102852	7625.874749	53600.425701	4139.979687	28373.654348
94.534500	-0.014091	-0.007754	-0.019105	-0.097145	7513.125847	52933.634875	4122.287392	28041.136412
95.034500	-0.011319	-0.007823	-0.014240	-0.102261	7597.486382	53518.056084	4151.115911	28339.014219
95.582000	-0.008721	-0.007174	-0.017387	-0.100772	7609.469809	53420.230937	4137.640060	28251.924272
96.045000	-0.008697	-0.006666	-0.017974	-0.100126	7602.746060	53404.196916	4134.082456	28214.264200
96.536000	-0.012040	-0.007784	-0.023928	-0.095780	7520.402625	52773.211451	4104.743255	27962.226682
97.035500	-0.007501	-0.006839	-0.017401	-0.099082	7604.391114	53263.003513	4132.725719	28153.481359
97.536500	-0.010317	-0.007458	-0.012261	-0.098843	7571.490322	53163.703642	4146.919229	28139.609586
98.036500	-0.009395	-0.006384	-0.017349	-0.097561	7567.622777	53139.602651	4128.503559	28065.222358
98.537000	-0.012981	-0.006617	-0.015808	-0.092106	7471.657877	52486.247817	4117.322562	27751.070422
