sample name	sample
index	240
start time	 02-22-2021  11:28:07 AM
880	-0.060751
Peak Time (s)	91.538
Peak Height 	-0.06075
calc peak height	90,93
Baseline Time (s)	9.037
Baseline Value 	-0.001774
subtract baseline	10,4
Abs	-0.008311
Peak Time (s)	90.037
Peak Height 	-0.008311
calc peak height	90,93
Baseline Time (s)	10.037
Baseline Value 	0.001483
subtract baseline	10,3
PK_550	-0.005647
Peak Time (s)	91.037
Peak Height 	-0.005647
calc peak height	90,93
Baseline Time (s)	11.535
Baseline Value 	-1.9009E-4
subtract baseline	10,2
PK_880	-0.011068
Peak Time (s)	92.035
Peak Height 	-0.01107
calc peak height	90,93
Baseline Time (s)	9.037
Baseline Value 	8.9961E-4
subtract baseline	10,1


Time (s)	A880-A510	A880-A775	A880-A975	A880	I510	I775	I975	I880	
0.037000	-0.003706	-0.000923	-0.006817	0.005361	6845.405847	46372.217060	3974.625575	24511.507337
0.537500	-0.003392	-0.000166	-0.000541	0.003763	6862.891596	46608.625515	3995.150379	24591.308478
1.037500	-0.002644	-0.000096	-0.001857	0.002953	6877.182991	46697.244676	3993.818653	24631.844019
1.535000	-0.000746	0.000658	-0.002444	0.001229	6910.627474	46947.948442	3996.808926	24718.431884
2.035500	-0.003364	-0.000229	-0.004905	0.005696	6845.469435	46408.106264	3978.706409	24494.819539
2.535500	-0.001116	0.000379	-0.004915	0.000498	6913.973463	46993.803746	3992.235985	24755.230300
3.036000	0.002485	0.000738	-0.003637	-0.001567	6966.893275	47240.576520	4001.038745	24859.546759
3.536000	-0.002381	-0.000146	-0.002655	-0.000014	6906.993729	46992.405524	3999.532179	24781.045977
4.036500	-0.000909	0.000104	0.000738	-0.000230	6922.660951	47039.771477	4009.099712	24791.951256
4.536500	-0.001298	-0.000468	-0.001075	-0.000094	6917.783300	46967.969960	4003.922861	24785.113269
5.037000	-0.003923	-0.000447	-0.001933	-0.000750	6899.537401	47036.724470	4003.387684	24818.244132
5.537500	0.000560	0.000167	-0.004222	-0.000092	6935.059953	47032.224072	3995.608162	24784.997124
6.035000	0.000370	0.000696	0.004555	0.000144	6931.089243	47062.015344	4018.305258	24773.107217
6.535500	-0.002185	-0.000352	-0.000106	-0.000516	6913.462975	47022.519540	4007.616143	24806.396302
7.035500	0.000257	0.000488	0.001178	-0.000066	6931.991342	47062.115522	4009.834430	24783.663952
7.535500	-0.000138	0.000340	-0.002425	0.000363	6924.322113	47003.578846	3999.142545	24762.040464
8.036000	-0.000744	-0.000008	0.001421	-0.000356	6925.374068	47041.262680	4011.255117	24798.324470
8.536000	0.000395	-0.000011	-0.000748	0.000116	6931.579523	46993.007982	4004.232106	24774.501695
9.036500	0.000000	0.000171	0.003803	0.000000	6928.983652	47023.212471	4016.673530	24780.355779
9.537000	0.000713	0.000783	0.001035	0.000269	6933.120770	47058.079134	4008.561989	24766.765859
10.037000	-0.000913	-0.000109	0.000000	-0.000456	6924.732895	47041.108779	4007.737794	24803.371158
10.534500	-0.001119	-0.000288	0.000342	0.000357	6915.258330	46940.346709	4006.485474	24762.336307
11.035000	-0.001358	0.000281	-0.004933	-0.000285	6919.006159	47063.413016	3994.244728	24794.743880
11.535000	0.000830	0.000000	-0.001241	-0.000360	6940.076492	47042.440497	4004.186868	24798.517679
12.035500	-0.002257	-0.000519	-0.001318	-0.000568	6913.287279	47010.885833	4004.536841	24809.045536
12.536000	0.001470	0.000080	-0.001683	0.000641	6936.712567	46948.983105	4000.369233	24748.052851
13.036000	-0.000576	-0.000294	-0.001406	-0.001966	6941.950604	47175.998676	4008.015555	24879.782718
13.536500	0.000551	0.000352	-0.004250	-0.000156	6935.576716	47057.494914	3995.700050	24788.219394
14.037000	-0.000974	0.000922	-0.000577	0.001343	6907.460342	46963.140171	4001.438294	24712.716598
14.537000	-0.002431	-0.000184	-0.004889	0.002414	6884.113021	46742.794447	3987.289333	24658.910626
15.037000	-0.001651	-0.000522	0.000776	0.000080	6912.893098	46944.724279	4008.375288	24776.307766
15.584000	-0.001085	-0.000122	0.004865	-0.000018	6919.059322	46995.351749	4019.572673	24781.286922
16.035000	-0.000269	-0.000235	-0.001456	-0.000655	6932.576981	47048.534382	4004.399269	24813.430629
16.535500	-0.000853	0.000064	0.001922	0.000333	6917.949065	46978.552598	4010.755264	24763.547682
17.035500	0.000085	0.000145	0.000742	-0.000486	6934.299112	47069.950240	4009.791086	24804.880331
17.536000	-0.000713	0.000656	0.001333	0.000196	6920.525321	47052.669244	4009.549835	24770.466589
18.036000	-0.001304	-0.000312	-0.000900	-0.000068	6917.493173	46981.120506	4004.318502	24783.807890
18.536000	-0.000389	0.000280	-0.000103	0.001538	6911.083514	46878.344829	4002.175869	24702.911154
19.037000	-0.002508	-0.000207	0.001800	0.000998	6896.459699	46883.712055	4008.660865	24730.076699
19.534500	-0.001974	-0.000176	-0.000208	0.001439	6897.316095	46842.148939	4002.158139	24707.869795
20.037500	-0.003335	-0.000064	-0.000132	0.000996	6888.839433	46898.268129	4003.533743	24730.142848
20.535000	-0.000224	-0.000013	0.000338	0.001440	6913.510111	46858.474520	4003.600688	24707.795916
21.035500	-0.001332	-0.000032	-0.001563	0.001470	6902.967088	46853.591319	3998.496925	24706.291883
21.535500	-0.000357	0.000083	-0.003197	0.001221	6914.320508	46890.477063	3994.849689	24718.853886
22.036000	-0.002661	-0.000507	-0.003066	0.000887	6896.068977	46864.485495	3996.072487	24735.633916
22.536000	-0.002261	-0.000539	-0.001973	0.000870	6899.928172	46862.977610	3998.999189	24736.495845
23.036000	-0.000249	0.000416	-0.000610	0.001275	6914.810788	46918.710372	4001.529578	24716.094020
23.537000	-0.001181	0.000427	-0.000618	0.001342	6905.555647	46913.080332	4001.330932	24712.763852
24.037000	-0.001125	0.000067	-0.001507	0.001305	6906.415699	46880.340015	3999.079887	24714.613060
24.537500	-0.002618	-0.000140	0.000089	0.000657	6898.594737	46925.054875	4005.018809	24747.250151
25.034500	-0.000222	-0.000209	0.001381	0.000745	6919.987856	46909.091790	4008.215923	24742.792172
25.535000	0.000836	0.000793	-0.003941	0.002104	6917.194549	46872.907363	3990.579917	24674.456774
26.035000	-0.002207	-0.000249	-0.000709	0.000963	6899.566305	46882.918818	4002.093226	24731.822577
26.536000	-0.002613	0.000253	-0.002087	0.001115	6894.405691	46918.419378	3998.052070	24724.154937
27.036000	0.000163	0.000090	-0.004281	0.001193	6919.407010	46894.045961	3992.077153	24720.253780
27.536000	0.000917	-0.000172	-0.001989	0.000984	6928.357993	46888.601720	3998.655309	24730.758716
28.036000	0.000348	0.000368	0.000181	-0.000656	6938.353866	47110.101639	4008.752304	24813.501889
28.536000	-0.001602	-0.000207	0.003867	-0.000681	6920.413806	47054.122160	4018.672135	24814.760646
29.037500	-0.000506	0.000380	0.001095	-0.000014	6924.404526	47045.923957	4009.477778	24781.075214
29.535000	-0.000757	0.000568	0.000471	0.000022	6921.735531	47061.350648	4007.720201	24779.250218
30.035000	-0.002628	0.000182	0.000274	0.002199	6884.280071	46801.518972	4001.424540	24669.694199
30.535000	-0.000694	-0.000055	-0.000574	-0.000410	6926.339806	47041.957973	4006.089299	24801.049233
31.035500	-0.001181	-0.000405	-0.000551	-0.000576	6923.348272	47023.271981	4006.593370	24809.439203
31.544000	-0.000327	0.000304	0.001514	0.000201	6924.063411	47016.306672	4010.018807	24770.207445
32.036500	-0.001697	-0.000338	-0.003675	0.002636	6888.825796	46704.928129	3989.884033	24647.774355
32.536500	-0.001693	-0.000492	0.000282	0.000109	6912.233248	46944.820868	4006.985793	24774.851743
33.039500	-0.000919	-0.000347	-0.002664	-0.000560	6925.649916	47027.579733	4000.951437	24808.652473
33.537000	0.000999	0.000400	0.000781	-0.000064	6938.901312	47053.060195	4008.773718	24783.605867
34.037500	-0.002317	-0.000329	0.000328	0.001346	6895.014798	46836.094715	4003.826911	24712.560118
34.535000	-0.000229	0.000142	0.003101	0.001140	6916.251835	46904.679741	4011.749342	24722.929120
35.035000	0.001107	0.000599	-0.000691	0.000214	6937.308433	47044.989398	4004.124210	24769.548195
35.535500	-0.000971	-0.000617	0.000954	0.000953	6911.110145	46846.753581	4006.528595	24732.344357
36.035500	-0.003722	0.000164	-0.001445	0.002250	6873.740605	46794.554066	3996.753549	24667.128863
36.535500	-0.000370	0.000063	-0.000953	0.002361	6903.627679	46773.071410	3997.756268	24661.564306
37.036500	-0.001452	-0.000430	0.000462	0.002213	6894.991181	46738.262957	4001.884801	24668.990704
37.536500	-0.002097	-0.000789	0.001809	0.001302	6897.447868	46794.007089	4007.873696	24714.759642
38.036500	-0.003236	-0.000249	-0.003319	0.002113	6879.466106	46766.701492	3992.186392	24674.012844
38.537500	-0.000606	0.000335	0.000507	0.002426	6900.840153	46794.011905	4001.439636	24658.271532
39.037500	-0.001236	-0.000201	0.003648	0.002094	6898.082470	46773.354457	4010.659469	24674.931842
39.534500	0.000284	0.000543	0.001252	0.002607	6907.404659	46796.749974	4002.931709	24649.196177
40.038000	-0.001957	-0.000411	-0.004298	0.001651	6895.522075	46796.919769	3990.832202	24697.221011
40.535500	-0.000313	0.000572	-0.006095	0.002499	6902.882402	46810.638843	3983.922336	24654.636530
41.035500	-0.001391	0.000294	-0.000405	0.002403	6893.792433	46792.180984	3999.089200	24659.422989
41.536000	-0.001030	-0.000069	-0.001159	0.001913	6901.657814	46805.039035	3998.393247	24684.024160
42.036500	-0.002972	0.000174	0.000809	0.002347	6879.749958	46785.770690	4002.449276	24662.274270
42.536500	-0.002186	-0.000441	0.001836	0.001748	6892.510827	46784.174310	4006.759707	24692.350386
43.037000	-0.001972	-0.000039	-0.005845	0.001911	6892.978132	46808.296779	3986.107194	24684.158140
43.534500	-0.003132	-0.000095	-0.003875	0.001755	6883.713652	46818.365492	3991.666330	24691.961264
44.037500	-0.002496	-0.000234	0.002749	0.001760	6889.537179	46803.879859	4009.158015	24691.741919
44.535000	-0.001691	-0.000098	0.002630	0.002007	6894.691222	46792.593761	4008.183767	24679.346141
45.035000	-0.002127	0.000671	-0.003319	0.002395	6887.081480	46831.087843	3991.446940	24659.847488
45.535500	0.001158	-0.000143	0.002749	-0.002468	6962.898256	47242.632132	4020.467273	24905.223770
46.036000	-0.000419	-0.000440	-0.001701	-0.000698	6931.585748	47032.161303	4003.865676	24815.621583
46.536000	-0.000869	0.000460	0.004324	0.000696	6914.435531	46981.893528	4016.204024	24745.271897
47.037000	0.000164	0.000591	0.001506	0.000255	6928.129331	47039.969562	4009.853589	24767.471400
47.536500	0.000946	0.000552	0.004948	0.000440	6933.697564	47017.315939	4018.565065	24758.169628
48.036500	-0.001473	0.001098	0.002565	0.000545	6910.231069	47062.055976	4011.903663	24752.861420
48.537500	-0.003550	-0.000893	-0.002322	0.002956	6868.836866	46616.614061	3992.590382	24631.693764
49.059500	0.000239	0.000408	0.001775	-0.000006	6931.266125	47047.908578	4011.265635	24780.650295
49.535000	-0.002669	0.000322	0.001992	0.002946	6877.020141	46740.099976	4003.995055	24632.196594
50.035500	-0.000542	0.000532	-0.000084	0.001636	6908.748371	46893.912330	4001.967152	24697.976548
50.561000	0.000271	0.000289	-0.000229	0.001490	6917.649255	46884.096268	4001.970079	24705.309844
51.036000	0.000346	-0.000056	0.003801	-0.000031	6932.492048	47003.293859	4016.749495	24781.916301
51.538500	-0.001884	-0.000079	0.000753	-0.000424	6915.409965	47040.998787	4009.657800	24801.778597
52.039000	0.000673	0.000268	0.000965	-0.002334	6957.086686	47270.893804	4015.322042	24898.425429
52.537000	0.000145	0.000596	0.001591	0.003310	6899.615268	46731.067227	4001.969184	24613.991375
53.034500	-0.004939	-0.001731	0.005370	-0.000166	6884.769758	46847.285487	4021.327238	24788.747941
53.537500	-0.010931	-0.010396	0.016445	0.261728	5042.977167	26468.140659	3508.694292	14861.429414
54.040500	-0.028235	-0.027559	0.003607	-0.030362	6948.840563	47291.479694	4100.384367	26367.158494
54.562500	-0.026644	-0.034640	0.006019	-0.127977	7992.009561	57581.852228	4423.498099	32289.919869
55.035000	-0.021043	-0.036775	0.003721	-0.149445	8320.534857	60071.491763	4494.383731	33780.957721
55.536500	-0.025398	-0.027492	0.000356	-0.118341	7894.277815	57269.553793	4369.134346	31644.314876
56.036500	-0.024201	-0.023283	-0.004702	-0.116679	7888.912205	57589.367297	4345.854668	31534.403149
56.942500	-0.006283	-0.016349	-0.005919	-0.126778	8222.440156	59777.141180	4376.699523	32208.820994
57.456000	-0.004841	-0.018083	-0.006308	-0.130636	8287.981555	60055.897712	4388.919233	32470.616397
57.649000	-0.006811	-0.015768	-0.008736	-0.125604	8201.563899	59699.483029	4362.762584	32129.646223
58.037500	-0.006805	-0.016819	-0.007487	-0.123516	8176.119238	59290.395117	4359.848034	31989.247148
58.537500	-0.004411	-0.007285	-0.007390	-0.096542	7884.915951	57070.611037	4269.414634	30235.519053
59.035000	-0.003523	-0.012268	-0.008856	-0.113762	8097.847851	58618.731747	4321.739967	31342.474666
59.535000	-0.002907	-0.016267	-0.009691	-0.127759	8276.270417	59916.601954	4366.942431	32275.209538
60.036500	-0.005615	-0.009642	-0.009082	-0.091543	7813.992934	56160.642976	4247.756545	29922.288843
60.536000	-0.004816	-0.007586	-0.010073	-0.086053	7761.029099	55741.181461	4227.095081	29582.433701
61.036000	-0.007489	-0.007157	-0.008829	-0.072199	7578.917500	54132.507721	4187.764836	28743.649501
61.535500	-0.007472	-0.006913	-0.007454	-0.066266	7515.397697	53465.716786	4173.827432	28392.517007
62.036500	-0.007333	-0.008583	-0.006479	-0.072555	7584.459399	54006.433317	4196.109280	28764.860313
62.537000	-0.008239	-0.007706	-0.011804	-0.070858	7556.370595	53909.975373	4174.562907	28663.855700
63.037500	-0.008059	-0.008739	-0.009039	-0.069073	7539.134259	53580.138641	4177.551906	28558.058672
63.535000	-0.009721	-0.008956	-0.007580	-0.074431	7578.922984	54183.628517	4198.509017	28876.989946
64.035000	-0.012878	-0.007577	-0.011948	-0.077861	7581.875781	54754.690017	4195.606569	29083.222340
64.535000	-0.010013	-0.004207	-0.010673	-0.075385	7586.089729	54861.662337	4191.899532	28934.207358
65.035500	-0.014012	-0.004064	-0.013371	-0.072597	7513.177281	54546.052361	4175.090114	28767.395723
65.544500	-0.011892	-0.003028	-0.014558	-0.072516	7534.957417	54659.866521	4171.235365	28762.561072
66.036000	-0.010907	-0.002873	-0.013880	-0.071781	7537.630216	54590.668489	4171.059183	28718.758595
66.536500	-0.010152	-0.002327	-0.012038	-0.070320	7530.079666	54481.843660	4172.217566	28631.941602
67.037000	-0.011117	-0.001535	-0.015300	-0.068042	7495.502199	54305.690319	4155.493890	28497.131234
67.537500	-0.011007	-0.002266	-0.017274	-0.065776	7472.675543	53952.079094	4142.838102	28363.761101
68.034500	-0.009925	-0.001215	-0.014542	-0.062784	7452.536065	53724.485161	4142.064687	28188.706828
68.535000	-0.010240	-0.000523	-0.011998	-0.059351	7413.277295	53404.612606	4139.430017	27989.350808
69.035500	-0.010765	-0.000775	-0.014557	-0.056365	7376.810745	53029.509240	4123.107163	27817.209840
69.536000	-0.011411	-0.000336	-0.013917	-0.053800	7343.711084	52784.563175	4117.489277	27670.252613
70.036000	-0.012043	-0.001404	-0.011811	-0.052483	7323.740879	52511.344635	4119.787728	27595.164509
70.536000	-0.012806	-0.001177	-0.011331	-0.050422	7294.956207	52302.242034	4115.183079	27478.076601
71.036500	-0.013339	-0.002490	-0.016367	-0.050527	7290.618836	52165.071084	4100.933814	27484.070317
71.537000	-0.012329	-0.002516	-0.014031	-0.049673	7292.204403	52065.327417	4105.201262	27435.715108
72.037000	-0.015014	-0.003002	-0.016155	-0.049077	7259.024947	51942.999121	4097.380720	27402.009552
72.535000	-0.014723	-0.003762	-0.018073	-0.049214	7263.336576	51872.637501	4092.287338	27409.729112
73.035000	-0.016808	-0.004778	-0.016680	-0.049903	7249.284812	51835.879400	4098.243319	27448.713634
73.535000	-0.016850	-0.005177	-0.017238	-0.048554	7235.327172	51639.181368	4092.788017	27372.463249
74.036000	-0.015995	-0.004963	-0.016133	-0.048628	7244.643036	51671.539926	4096.160263	27376.657265
74.535500	-0.015946	-0.004928	-0.016093	-0.048508	7243.932049	51662.031447	4095.930132	27369.862171
75.035500	-0.016099	-0.004425	-0.016093	-0.048722	7244.547727	51742.632673	4096.542616	27381.976845
75.536500	-0.017903	-0.005026	-0.016970	-0.046623	7205.533529	51439.842461	4088.050082	27263.777157
76.036500	-0.016521	-0.005399	-0.013554	-0.048766	7240.752467	51638.053925	4103.961802	27384.434192
76.537000	-0.014276	-0.004779	-0.016410	-0.047591	7251.501325	51575.881811	4092.403186	27318.193552
77.037500	-0.015711	-0.005840	-0.011681	-0.048746	7248.680646	51586.324482	4109.308915	27383.295612
77.537500	-0.017278	-0.005435	-0.013865	-0.045902	7204.571053	51313.703456	4094.847696	27223.278912
78.035500	-0.013646	-0.004869	-0.015218	-0.047603	7257.958713	51567.119822	4095.843960	27318.873072
78.535000	-0.013395	-0.004882	-0.010648	-0.047803	7262.496237	51588.085182	4109.571201	27330.118172
79.036000	-0.013808	-0.005435	-0.008681	-0.048648	7266.858707	51620.850585	4117.734125	27377.786076
79.536000	-0.015678	-0.005786	-0.012782	-0.046267	7224.167285	51315.290242	4098.995320	27243.754525
80.036000	-0.013235	-0.005539	-0.011530	-0.048563	7271.790659	51599.672619	4109.217854	27372.992362
80.536500	-0.014124	-0.006069	-0.009980	-0.049598	7273.255323	51656.284073	4116.717807	27431.428703
81.036500	-0.013160	-0.005327	-0.011356	-0.049448	7281.498431	51722.841485	4112.285675	27422.989164
81.537500	-0.013570	-0.005932	-0.010805	-0.050629	7289.317862	51787.599781	4117.319257	27489.859153
82.036500	-0.012738	-0.005161	-0.012719	-0.050538	7296.833728	51864.294460	4111.495804	27484.687330
82.535000	-0.013106	-0.005356	-0.014716	-0.051214	7299.972499	51918.525123	4107.671249	27523.037966
83.035000	-0.010936	-0.005381	-0.007813	-0.051895	7329.056290	51992.589822	4129.775932	27561.719785
83.535500	-0.013589	-0.005592	-0.012108	-0.052903	7312.248967	52082.802524	4120.149269	27619.122768
84.035000	-0.012337	-0.005852	-0.009302	-0.053864	7334.861734	52162.230603	4131.188494	27673.921463
84.536000	-0.014985	-0.006607	-0.011669	-0.055257	7322.019143	52234.595118	4128.323469	27753.602939
85.036000	-0.011630	-0.006335	-0.014977	-0.056000	7364.102989	52350.084412	4120.813893	27796.232244
85.536500	-0.013094	-0.005692	-0.014593	-0.056060	7349.647608	52430.309500	4122.110314	27799.697292
86.037000	-0.012539	-0.006506	-0.015118	-0.057225	7367.362070	52470.284147	4123.981038	27866.634867
86.536500	-0.012710	-0.005843	-0.008633	-0.056502	7358.141119	52463.459098	4140.960166	27825.084827
87.034500	-0.012146	-0.005669	-0.013364	-0.058115	7380.620680	52667.757709	4131.743363	27917.935695
87.535000	-0.012495	-0.006235	-0.015323	-0.059273	7389.011865	52735.689795	4129.389828	27984.832362
88.035000	-0.012575	-0.005341	-0.009661	-0.059931	7395.007877	52914.163758	4148.099715	28022.921027
88.535500	-0.011967	-0.005673	-0.013958	-0.060141	7403.515321	52900.122068	4135.968207	28035.073088
89.036000	-0.012844	-0.006178	-0.014007	-0.061294	7406.391239	52974.762124	4139.233246	28101.971747
89.536500	-0.015478	-0.005714	-0.013961	-0.057043	7335.251369	52539.892484	4126.839298	27856.167652
90.036500	-0.012238	-0.005701	-0.008311	-0.062227	7422.440142	53137.534369	4159.019631	28156.237107
90.536500	-0.011713	-0.006358	-0.012037	-0.063156	7437.660465	53169.049848	4150.636112	28210.411114
91.037000	-0.011106	-0.005647	-0.014669	-0.063508	7447.727881	53292.348463	4143.838566	28230.961806
91.537500	-0.014961	-0.006623	-0.013819	-0.060751	7378.776311	52860.947653	4138.184239	28070.475460
92.035000	-0.011068	-0.006204	-0.011100	-0.064722	7460.903633	53368.647961	4158.135549	28301.955970
92.535000	-0.011121	-0.005815	-0.009156	-0.064758	7460.732186	53418.062312	4164.103253	28304.090734
93.034500	-0.009398	-0.005476	-0.010107	-0.065061	7482.121896	53492.767444	4162.147097	28321.815921
93.535500	-0.014262	-0.005557	-0.019543	-0.060604	7384.496624	52966.892231	4120.926747	28061.940115
94.036000	-0.010878	-0.006671	-0.009656	-0.066070	7477.147156	53471.117905	4166.553994	28381.028764
94.535500	-0.009646	-0.005201	-0.009708	-0.064573	7474.340410	53467.962243	4161.876325	28293.237277
95.036500	-0.009532	-0.006637	-0.009421	-0.067025	7501.550089	53586.408858	4170.159918	28437.208038
95.536500	-0.012059	-0.006229	-0.012466	-0.061715	7418.956055	53017.443034	4145.057147	28126.435175
96.034000	-0.009967	-0.006027	-0.008447	-0.066779	7494.310565	53628.975765	4172.370992	28422.739194
96.537500	-0.008593	-0.006162	-0.008268	-0.066642	7507.465862	53597.141589	4172.497066	28414.666667
97.034500	-0.008385	-0.006491	-0.016641	-0.067565	7519.512087	53666.545524	4150.051584	28469.007411
97.535000	-0.008565	-0.006149	-0.009622	-0.067056	7512.174784	53647.028300	4169.645106	28439.033753
98.035500	-0.006714	-0.006773	-0.011446	-0.067530	7537.010634	53629.443969	4165.555338	28466.942676
98.535500	-0.006100	-0.006672	-0.010284	-0.067054	7538.490961	53585.743906	4167.634107	28438.931295
