sample name	sample
index	402
start time	 03-08-2021  10:32:26 AM


Wavelength (nm)	Absorbance
494.344910	-0.005463
494.563924	-0.005463
494.782919	-0.005463
495.001897	-0.451966
495.220856	-0.127103
495.439797	-0.110387
495.658719	-0.181959
495.877624	-0.203910
496.096510	-0.157670
496.315378	-0.093403
496.534227	-0.017017
496.753059	-0.037646
496.971872	-0.048918
497.190667	0.012986
497.409444	0.011040
497.628203	0.016172
497.846943	0.017651
498.065665	0.017620
498.284369	0.018070
498.503055	0.016458
498.721723	0.016074
498.940372	0.016274
499.159003	0.016512
499.377616	0.017415
499.596210	0.017406
499.814787	0.016931
500.033345	0.017054
500.251885	0.016547
500.470406	0.017500
500.688910	0.018027
500.907395	0.018939
501.125862	0.018048
501.344311	0.017593
501.562742	0.017061
501.781154	0.016972
501.999548	0.017515
502.217924	0.018105
502.436282	0.017860
502.654621	0.017060
502.872942	0.016274
503.091245	0.016889
503.309530	0.016853
503.527797	0.016909
503.746045	0.017493
503.964275	0.016911
504.182487	0.016358
504.400681	0.016228
504.618856	0.016807
504.837013	0.016081
505.055152	0.016043
505.273273	0.016868
505.491376	0.016599
505.709460	0.016268
505.927526	0.016297
506.145574	0.016543
506.363604	0.016787
506.581615	0.016323
506.799608	0.016355
507.017583	0.017067
507.235540	0.016440
507.453478	0.016312
507.671399	0.016242
507.889301	0.016364
508.107185	0.015851
508.325050	0.015653
508.542898	0.015817
508.760727	0.015947
508.978538	0.015528
509.196330	0.015689
509.414105	0.015812
509.631861	0.015339
509.849599	0.015036
510.067319	0.015627
510.285021	0.015705
510.502704	0.015892
510.720369	0.015877
510.938016	0.015872
511.155645	0.015465
511.373255	0.016581
511.590848	0.016918
511.808422	0.017147
512.025977	0.016576
512.243515	0.017006
512.461034	0.016555
512.678536	0.016376
512.896018	0.015991
513.113483	0.015862
513.330930	0.015077
513.548358	0.015204
513.765768	0.015170
513.983160	0.015728
514.200533	0.015104
514.417889	0.016043
514.635226	0.016577
514.852545	0.016456
515.069845	0.016357
515.287128	0.016751
515.504392	0.016999
515.721638	0.016941
515.938866	0.016700
516.156075	0.016909
516.373267	0.016673
516.590440	0.016425
516.807594	0.016232
517.024731	0.016184
517.241850	0.015658
517.458950	0.015154
517.676032	0.014704
517.893095	0.014241
518.110141	0.014392
518.327168	0.014113
518.544177	0.013967
518.761168	0.013977
518.978141	0.014350
519.195095	0.014697
519.412031	0.014388
519.628949	0.014200
519.845849	0.014775
520.062731	0.014921
520.279594	0.014783
520.496439	0.015123
520.713266	0.015806
520.930074	0.015573
521.146865	0.015747
521.363637	0.015784
521.580391	0.016482
521.797127	0.016336
522.013844	0.016178
522.230543	0.016689
522.447224	0.016466
522.663887	0.016774
522.880532	0.017226
523.097158	0.017132
523.313766	0.017362
523.530356	0.017113
523.746928	0.017028
523.963481	0.017069
524.180017	0.017056
524.396534	0.017184
524.613032	0.016434
524.829513	0.016485
525.045975	0.016212
525.262420	0.016630
525.478845	0.017001
525.695253	0.016746
525.911643	0.016953
526.128014	0.016365
526.344367	0.016093
526.560702	0.016552
526.777018	0.015723
526.993316	0.015654
527.209597	0.015116
527.425858	0.014699
527.642102	0.015309
527.858328	0.015452
528.074535	0.015964
528.290724	0.016732
528.506894	0.016320
528.723047	0.017271
528.939181	0.017447
529.155297	0.018020
529.371395	0.018371
529.587475	0.018072
529.803536	0.017992
530.019579	0.018039
530.235604	0.017889
530.451611	0.018135
530.667600	0.017656
530.883570	0.017649
531.099522	0.017269
531.315456	0.017681
531.531372	0.017685
531.747269	0.017465
531.963148	0.017192
532.179009	0.017269
532.394852	0.017143
532.610676	0.016973
532.826482	0.016579
533.042271	0.017085
533.258040	0.016628
533.473792	0.016483
533.689525	0.016233
533.905240	0.016649
534.120937	0.015926
534.336616	0.016137
534.552277	0.016632
534.767919	0.016856
534.983543	0.016722
535.199149	0.016619
535.414736	0.017119
535.630306	0.017448
535.845857	0.017345
536.061390	0.017957
536.276904	0.017616
536.492401	0.017738
536.707879	0.018138
536.923339	0.017850
537.138781	0.018398
537.354204	0.018141
537.569610	0.018471
537.784997	0.018805
538.000366	0.018767
538.215716	0.018864
538.431049	0.018505
538.646363	0.018647
538.861659	0.018535
539.076937	0.018043
539.292196	0.018362
539.507438	0.018334
539.722661	0.018295
539.937866	0.018119
540.153052	0.018267
540.368221	0.018356
540.583371	0.018384
540.798503	0.018959
541.013617	0.019267
541.228712	0.019073
541.443789	0.019064
541.658848	0.019043
541.873889	0.018940
542.088912	0.019021
542.303916	0.019159
542.518902	0.018690
542.733870	0.018541
542.948820	0.018563
543.163752	0.018631
543.378665	0.018200
543.593560	0.018301
543.808437	0.018686
544.023295	0.018837
544.238136	0.019237
544.452958	0.019285
544.667762	0.019337
544.882548	0.019496
545.097315	0.019809
545.312064	0.020468
545.526795	0.020252
545.741508	0.019949
545.956203	0.019607
546.170879	0.019721
546.385537	0.019859
546.600177	0.019680
546.814799	0.019480
547.029402	0.019460
547.243988	0.018861
547.458555	0.018882
547.673103	0.019068
547.887634	0.019297
548.102146	0.018540
548.316640	0.018777
548.531116	0.018843
548.745574	0.018844
548.960013	0.018634
549.174435	0.019000
549.388838	0.018812
549.603222	0.019002
549.817589	0.019315
550.031937	0.019560
550.246267	0.019638
550.460579	0.019674
550.674873	0.019704
550.889148	0.019598
551.103405	0.019471
551.317644	0.019656
551.531865	0.019316
551.746068	0.019018
551.960252	0.018924
552.174418	0.018885
552.388566	0.018770
552.602696	0.018791
552.816807	0.018824
553.030900	0.018880
553.244975	0.019009
553.459032	0.019288
553.673070	0.019334
553.887091	0.019676
554.101093	0.019541
554.315077	0.019850
554.529042	0.019657
554.742990	0.019850
554.956919	0.019830
555.170830	0.019916
555.384722	0.020004
555.598597	0.020014
555.812453	0.019817
556.026291	0.020033
556.240111	0.020208
556.453913	0.020388
556.667696	0.020370
556.881461	0.020619
557.095208	0.020283
557.308937	0.020325
557.522647	0.020486
557.736339	0.020487
557.950013	0.020125
558.163669	0.019923
558.377307	0.020093
558.590926	0.020092
558.804527	0.020150
559.018110	0.020364
559.231675	0.020469
559.445221	0.020439
559.658749	0.020545
559.872259	0.020952
560.085751	0.020936
560.299225	0.020697
560.512680	0.020698
560.726117	0.020274
560.939536	0.020223
561.152937	0.020043
561.366319	0.020176
561.579683	0.020296
561.793029	0.020281
562.006357	0.020456
562.219667	0.020661
562.432958	0.020428
562.646231	0.020618
562.859486	0.020653
563.072723	0.020601
563.285941	0.020600
563.499141	0.020307
563.712323	0.020374
563.925487	0.020279
564.138632	0.020199
564.351760	0.020536
564.564869	0.020587
564.777960	0.020876
564.991032	0.021062
565.204087	0.021088
565.417123	0.021243
565.630141	0.021315
565.843140	0.021319
566.056122	0.021367
566.269085	0.021469
566.482030	0.021275
566.694957	0.020823
566.907866	0.020862
567.120756	0.020904
567.333628	0.021086
567.546482	0.020705
567.759318	0.020653
567.972135	0.020548
568.184935	0.020183
568.397716	0.020399
568.610478	0.020726
568.823223	0.020674
569.035949	0.020430
569.248657	0.020732
569.461347	0.021102
569.674019	0.020892
569.886672	0.021206
570.099308	0.021692
570.311925	0.021818
570.524523	0.021648
570.737104	0.021997
570.949666	0.022172
571.162210	0.022051
571.374736	0.022082
571.587244	0.022348
571.799733	0.022263
572.012205	0.022076
572.224658	0.022063
572.437092	0.022250
572.649509	0.021837
572.861907	0.021886
573.074287	0.021855
573.286649	0.021844
573.498993	0.022089
573.711318	0.022246
573.923625	0.022479
574.135914	0.022734
574.348185	0.022727
574.560438	0.022998
574.772672	0.022888
574.984888	0.022935
575.197086	0.022881
575.409266	0.022734
575.621427	0.022818
575.833570	0.022619
576.045695	0.022463
576.257802	0.022566
576.469890	0.022419
576.681961	0.022512
576.894013	0.022417
577.106046	0.022293
577.318062	0.022488
577.530059	0.022467
577.742039	0.022587
577.954000	0.022654
578.165942	0.022640
578.377867	0.022753
578.589773	0.022758
578.801661	0.023010
579.013531	0.023470
579.225382	0.023327
579.437216	0.022948
579.649031	0.023137
579.860828	0.022998
580.072606	0.022932
580.284367	0.022852
580.496109	0.022978
580.707833	0.022828
580.919539	0.022549
581.131227	0.022577
581.342896	0.022726
581.554547	0.022617
581.766180	0.022910
581.977795	0.023087
582.189391	0.023263
582.400969	0.023244
582.612529	0.023237
582.824071	0.023386
583.035595	0.023375
583.247100	0.023758
583.458587	0.023629
583.670056	0.023400
583.881506	0.023480
584.092939	0.023429
584.304353	0.023742
584.515749	0.023458
584.727127	0.023581
584.938486	0.024021
585.149828	0.024058
585.361151	0.024239
585.572456	0.024568
585.783742	0.024655
585.995011	0.024970
586.206261	0.024771
586.417493	0.024913
586.628706	0.024757
586.839902	0.024376
587.051079	0.024321
587.262238	0.024340
587.473379	0.023680
587.684502	0.023410
587.895606	0.022884
588.106692	0.022464
588.317760	0.022396
588.528810	0.022587
588.739841	0.022677
588.950855	0.022549
589.161850	0.022193
589.372827	0.022663
589.583785	0.022830
589.794726	0.023332
590.005648	0.024084
590.216552	0.024346
590.427437	0.024240
590.638305	0.024534
590.849154	0.024587
591.059985	0.025007
591.270798	0.025036
591.481592	0.025096
591.692369	0.024850
591.903127	0.024516
592.113867	0.024816
592.324588	0.024950
592.535292	0.024772
592.745977	0.024577
592.956644	0.024279
593.167293	0.024216
593.377923	0.024234
593.588536	0.024384
593.799130	0.024714
594.009706	0.024387
594.220263	0.024461
594.430803	0.024497
594.641324	0.024653
594.851827	0.024761
595.062312	0.024973
595.272778	0.025200
595.483227	0.025167
595.693657	0.025084
595.904069	0.025258
596.114462	0.025109
596.324838	0.025270
596.535195	0.025634
596.745534	0.025723
596.955855	0.025752
597.166157	0.025418
597.376441	0.025353
597.586707	0.025046
597.796955	0.025213
598.007185	0.025455
598.217396	0.025387
598.427589	0.025211
598.637764	0.025464
598.847921	0.025560
599.058060	0.025639
599.268180	0.025648
599.478282	0.025702
599.688366	0.025663
599.898431	0.025336
600.108479	0.025248
600.318508	0.025449
600.528519	0.025243
600.738511	0.025015
600.948486	0.025130
601.158442	0.025535
601.368380	0.025901
601.578300	0.025717
601.788202	0.026048
601.998085	0.026151
602.207950	0.025807
602.417797	0.025956
602.627626	0.025868
602.837436	0.025966
603.047228	0.025614
603.257002	0.025100
603.466758	0.025146
603.676496	0.025099
603.886215	0.024978
604.095916	0.025083
604.305599	0.024918
604.515264	0.025130
604.724910	0.024870
604.934538	0.024994
605.144148	0.025390
605.353740	0.025568
605.563314	0.025546
605.772869	0.025635
605.982406	0.025814
606.191925	0.026063
606.401425	0.026000
606.610908	0.026014
606.820372	0.025749
607.029818	0.025853
607.239246	0.025865
607.448655	0.025889
607.658047	0.025687
607.867420	0.025423
608.076775	0.025457
608.286111	0.025414
608.495430	0.025658
608.704730	0.025949
608.914012	0.025880
609.123275	0.025893
609.332521	0.026137
609.541748	0.026729
609.750957	0.027040
609.960148	0.027123
610.169321	0.027344
610.378475	0.027575
610.587611	0.027669
610.796729	0.027781
611.005829	0.027775
611.214910	0.027552
611.423974	0.027332
611.633019	0.027391
611.842045	0.027078
612.051054	0.027048
612.260044	0.026989
612.469017	0.027024
612.677970	0.026864
612.886906	0.026763
613.095824	0.026766
613.304723	0.026751
613.513604	0.026594
613.722467	0.026864
613.931311	0.026923
614.140138	0.026817
614.348946	0.026711
614.557736	0.026727
614.766507	0.026824
614.975261	0.026947
615.183996	0.026744
615.392713	0.026684
615.601412	0.026674
615.810092	0.026565
616.018754	0.026542
616.227399	0.026604
616.436024	0.026694
616.644632	0.026929
616.853222	0.026969
617.061793	0.027252
617.270346	0.027788
617.478880	0.027973
617.687397	0.028355
617.895895	0.028523
618.104375	0.028757
618.312837	0.028730
618.521281	0.028425
618.729706	0.028294
618.938113	0.028232
619.146502	0.027714
619.354873	0.027525
619.563226	0.027380
619.771560	0.027152
619.979876	0.026927
620.188174	0.027128
620.396453	0.027200
620.604715	0.027141
620.812958	0.027068
621.021183	0.027259
621.229390	0.027381
621.437578	0.027281
621.645748	0.027436
621.853900	0.027322
622.062034	0.027144
622.270150	0.027179
622.478247	0.027321
622.686326	0.027400
622.894387	0.027388
623.102430	0.027196
623.310454	0.027465
623.518461	0.027373
623.726449	0.027672
623.934418	0.027868
624.142370	0.028058
624.350303	0.028190
624.558218	0.028206
624.766115	0.028242
624.973994	0.028272
625.181855	0.028228
625.389697	0.028260
625.597521	0.028191
625.805327	0.028313
626.013114	0.028418
626.220883	0.028444
626.428634	0.028359
626.636367	0.028385
626.844082	0.028504
627.051778	0.028421
627.259457	0.028405
627.467117	0.028441
627.674758	0.028315
627.882382	0.028010
628.089987	0.028124
628.297574	0.028493
628.505143	0.028634
628.712694	0.028692
628.920226	0.028780
629.127740	0.029160
629.335236	0.029240
629.542714	0.029374
629.750174	0.029637
629.957615	0.029540
630.165038	0.029338
630.372443	0.029386
630.579829	0.029644
630.787198	0.029697
630.994548	0.029500
631.201880	0.029526
631.409194	0.029380
631.616489	0.029372
631.823766	0.029536
632.031025	0.029642
632.238266	0.029551
632.445489	0.029364
632.652693	0.029141
632.859879	0.028902
633.067047	0.028855
633.274197	0.028877
633.481329	0.028887
633.688442	0.028726
633.895537	0.028687
634.102614	0.028775
634.309672	0.028791
634.516713	0.028882
634.723735	0.029131
634.930739	0.029100
635.137724	0.029044
635.344692	0.028956
635.551641	0.028996
635.758572	0.028915
635.965485	0.028825
636.172379	0.029012
636.379256	0.029117
636.586114	0.029317
636.792954	0.029462
636.999775	0.029484
637.206579	0.029586
637.413364	0.029720
637.620131	0.029955
637.826880	0.029914
638.033610	0.029720
638.240323	0.029755
638.447017	0.029737
638.653692	0.029773
638.860350	0.030016
639.066990	0.029930
639.273611	0.029706
639.480214	0.029562
639.686798	0.029663
639.893365	0.029551
640.099913	0.029373
640.306443	0.029273
640.512955	0.029083
640.719449	0.028931
640.925924	0.029039
641.132381	0.029048
641.338820	0.029269
641.545241	0.029382
641.751644	0.029545
641.958028	0.029637
642.164394	0.029677
642.370742	0.029888
642.577071	0.030138
642.783383	0.030327
642.989676	0.030570
643.195951	0.030424
643.402207	0.030370
643.608446	0.030337
643.814666	0.030395
644.020868	0.030484
644.227052	0.030448
644.433218	0.030419
644.639365	0.030307
644.845494	0.030243
645.051605	0.030285
645.257698	0.030254
645.463772	0.030226
645.669828	0.030392
645.875866	0.030234
646.081886	0.030342
646.287888	0.030134
646.493871	0.030074
646.699836	0.030057
646.905783	0.030218
647.111712	0.030368
647.317622	0.030415
647.523514	0.030181
647.729388	0.030204
647.935244	0.030221
648.141082	0.030374
648.346901	0.030292
648.552702	0.030256
648.758485	0.030207
648.964250	0.030240
649.169996	0.030516
649.375724	0.030700
649.581434	0.030905
649.787126	0.030924
649.992800	0.031054
650.198455	0.031438
650.404092	0.031474
650.609711	0.031437
650.815311	0.031338
651.020894	0.031245
651.226458	0.031108
651.432004	0.030993
651.637532	0.030819
651.843041	0.030783
652.048532	0.030577
652.254006	0.030512
652.459460	0.030608
652.664897	0.030718
652.870315	0.030726
653.075716	0.030900
653.281097	0.030982
653.486461	0.031072
653.691807	0.030934
653.897134	0.030805
654.102443	0.030933
654.307734	0.030919
654.513006	0.030928
654.718261	0.030986
654.923497	0.030897
655.128715	0.030929
655.333915	0.031203
655.539096	0.031337
655.744259	0.031619
655.949404	0.031636
656.154531	0.031595
656.359640	0.031464
656.564730	0.031496
656.769802	0.031822
656.974856	0.031716
657.179892	0.031544
657.384909	0.031721
657.589908	0.031733
657.794889	0.031823
657.999852	0.031746
658.204797	0.031894
658.409723	0.031910
658.614631	0.031679
658.819521	0.031858
659.024393	0.031794
659.229246	0.031705
659.434081	0.031684
659.638898	0.031703
659.843697	0.031869
660.048478	0.031987
660.253240	0.031904
660.457984	0.032007
660.662710	0.031987
660.867417	0.032091
661.072107	0.032067
661.276778	0.031953
661.481431	0.031932
661.686066	0.032011
661.890682	0.031851
662.095281	0.032027
662.299861	0.032091
662.504422	0.032163
662.708966	0.032135
662.913491	0.032092
663.117999	0.032206
663.322488	0.032375
663.526958	0.032299
663.731411	0.032647
663.935845	0.032483
664.140261	0.032498
664.344659	0.032338
664.549038	0.032285
664.753400	0.032450
664.957743	0.032584
665.162068	0.032500
665.366375	0.032566
665.570663	0.032312
665.774933	0.032623
665.979185	0.032630
666.183419	0.032854
666.387635	0.033210
666.591832	0.033171
666.796011	0.033127
667.000172	0.033163
667.204315	0.033310
667.408439	0.033506
667.612545	0.033421
667.816634	0.033475
668.020703	0.033577
668.224755	0.033477
668.428788	0.033583
668.632803	0.033640
668.836800	0.033837
669.040779	0.033843
669.244739	0.033761
669.448681	0.033853
669.652605	0.033917
669.856511	0.033902
670.060399	0.033942
670.264268	0.034042
670.468119	0.034009
670.671952	0.033959
670.875767	0.034017
671.079563	0.034319
671.283341	0.034389
671.487101	0.034428
671.690843	0.034509
671.894567	0.034490
672.098272	0.034589
672.301959	0.034648
672.505628	0.034587
672.709278	0.034577
672.912911	0.034399
673.116525	0.034266
673.320121	0.034226
673.523699	0.034096
673.727258	0.033986
673.930799	0.033588
674.134322	0.033662
674.337827	0.033640
674.541314	0.033701
674.744782	0.033724
674.948232	0.033837
675.151664	0.033918
675.355078	0.033977
675.558474	0.034209
675.761851	0.034666
675.965210	0.034614
676.168551	0.034799
676.371873	0.034764
676.575178	0.034764
676.778464	0.034871
676.981732	0.034783
677.184981	0.034779
677.388213	0.034791
677.591426	0.034834
677.794621	0.034925
677.997798	0.034935
678.200956	0.034930
678.404097	0.035035
678.607219	0.034849
678.810323	0.035002
679.013408	0.035090
679.216476	0.035068
679.419525	0.034901
679.622556	0.034899
679.825569	0.034928
680.028563	0.035014
680.231540	0.034885
680.434498	0.034925
680.637438	0.034945
680.840359	0.035034
681.043263	0.034967
681.246148	0.034986
681.449015	0.035111
681.651864	0.035138
681.854694	0.035125
682.057506	0.035294
682.260301	0.035344
682.463076	0.035283
682.665834	0.035306
682.868573	0.035464
683.071295	0.035650
683.273998	0.035717
683.476682	0.035730
683.679349	0.035769
683.881997	0.035719
684.084627	0.035704
684.287239	0.035730
684.489833	0.035785
684.692408	0.035810
684.894965	0.035717
685.097504	0.035601
685.300025	0.035529
685.502527	0.035639
685.705012	0.035777
685.907478	0.035970
686.109925	0.036068
686.312355	0.036168
686.514766	0.036193
686.717159	0.036298
686.919534	0.036309
687.121891	0.036320
687.324230	0.036258
687.526550	0.036193
687.728852	0.036176
687.931136	0.036263
688.133401	0.036201
688.335649	0.036138
688.537878	0.036012
688.740089	0.036167
688.942281	0.036274
689.144456	0.036522
689.346612	0.036528
689.548750	0.036553
689.750870	0.036405
689.952971	0.036303
690.155055	0.036413
690.357120	0.036367
690.559167	0.036178
690.761195	0.036038
690.963206	0.035587
691.165198	0.035626
691.367172	0.035531
691.569128	0.035486
691.771065	0.035689
691.972984	0.035621
692.174885	0.035732
692.376768	0.035665
692.578633	0.035805
692.780479	0.035972
692.982308	0.035897
693.184118	0.035978
693.385909	0.036194
693.587683	0.036063
693.789438	0.035984
693.991175	0.035982
694.192894	0.036216
694.394595	0.036339
694.596277	0.036418
694.797941	0.036565
694.999587	0.036550
695.201215	0.036497
695.402824	0.036462
695.604416	0.036668
695.805989	0.036797
696.007543	0.036690
696.209080	0.036695
696.410598	0.036777
696.612099	0.036736
696.813580	0.036792
697.015044	0.036841
697.216490	0.036878
697.417917	0.036829
697.619326	0.036826
697.820717	0.037005
698.022089	0.036979
698.223444	0.037077
698.424780	0.037054
698.626098	0.037194
698.827397	0.037280
699.028679	0.037277
699.229942	0.037353
699.431187	0.037334
699.632414	0.037526
699.833622	0.037510
700.034813	0.037497
700.235985	0.037436
700.437139	0.037404
700.638274	0.037322
700.839392	0.037426
701.040491	0.037477
701.241572	0.037452
701.442635	0.037253
701.643679	0.037233
701.844706	0.037004
702.045714	0.037109
702.246704	0.036943
702.447675	0.036993
702.648629	0.036958
702.849564	0.036784
703.050481	0.036775
703.251380	0.036686
703.452260	0.036608
703.653122	0.036660
703.853966	0.036549
704.054792	0.036769
704.255600	0.036606
704.456389	0.036634
704.657160	0.036552
704.857913	0.036603
705.058648	0.036580
705.259365	0.036543
705.460063	0.036486
705.660743	0.036621
705.861405	0.036488
706.062048	0.036720
706.262674	0.036683
706.463281	0.036922
706.663870	0.036888
706.864441	0.036908
707.064993	0.037074
707.265527	0.037105
707.466043	0.037154
707.666541	0.037014
707.867021	0.037115
708.067482	0.037179
708.267925	0.037232
708.468350	0.037253
708.668757	0.037318
708.869145	0.037357
709.069516	0.037475
709.269868	0.037496
709.470201	0.037770
709.670517	0.037611
709.870814	0.037640
710.071093	0.037648
710.271354	0.037760
710.471597	0.037815
710.671821	0.037848
710.872028	0.037737
711.072216	0.037837
711.272385	0.037773
711.472537	0.037759
711.672670	0.037742
711.872785	0.037684
712.072882	0.037712
712.272961	0.037678
712.473021	0.037463
712.673063	0.037584
712.873087	0.037448
713.073093	0.037538
713.273081	0.037583
713.473050	0.037623
713.673001	0.037642
713.872934	0.037606
714.072849	0.037781
714.272745	0.038027
714.472623	0.038089
714.672483	0.038309
714.872325	0.038241
715.072148	0.038285
715.271954	0.038306
715.471741	0.038403
715.671509	0.038359
715.871260	0.038156
716.070992	0.038070
716.270707	0.038069
716.470403	0.037814
716.670080	0.037792
716.869740	0.037910
717.069381	0.037921
717.269004	0.037795
717.468609	0.037829
717.668195	0.037940
717.867764	0.037975
718.067314	0.037831
718.266846	0.037900
718.466360	0.037974
718.665855	0.037717
718.865332	0.037660
719.064791	0.037678
719.264232	0.037674
719.463655	0.037676
719.663059	0.037571
719.862445	0.037610
720.061813	0.037543
720.261163	0.037301
720.460494	0.037417
720.659807	0.037430
720.859102	0.037363
721.058379	0.037132
721.257638	0.037022
721.456878	0.037025
721.656100	0.037130
721.855304	0.037204
722.054490	0.037360
722.253657	0.037256
722.452806	0.037256
722.651937	0.037184
722.851050	0.037319
723.050145	0.037443
723.249221	0.037378
723.448279	0.037311
723.647319	0.037207
723.846340	0.037149
724.045344	0.037213
724.244329	0.036948
724.443296	0.037143
724.642245	0.037124
724.841175	0.037041
725.040088	0.037146
725.238982	0.037351
725.437857	0.037588
725.636715	0.037671
725.835554	0.037491
726.034376	0.037580
726.233179	0.037506
726.431963	0.037583
726.630730	0.037560
726.829478	0.037464
727.028208	0.037256
727.226920	0.037065
727.425614	0.037144
727.624289	0.037071
727.822946	0.037238
728.021585	0.037125
728.220206	0.037009
728.418808	0.037007
728.617392	0.037142
728.815958	0.037071
729.014506	0.036957
729.213036	0.036719
729.411547	0.036845
729.610040	0.036782
729.808515	0.036795
730.006972	0.036634
730.205410	0.036579
730.403831	0.036345
730.602233	0.036394
730.800616	0.036393
730.998982	0.036320
731.197329	0.036296
731.395658	0.036310
731.593969	0.036297
731.792262	0.036336
731.990536	0.036285
732.188793	0.036339
732.387031	0.036291
732.585250	0.036242
732.783452	0.036279
732.981635	0.036331
733.179800	0.036292
733.377947	0.036337
733.576076	0.036283
733.774186	0.036302
733.972278	0.036305
734.170352	0.036170
734.368408	0.036042
734.566446	0.035981
734.764465	0.035882
734.962466	0.035897
735.160449	0.035798
735.358413	0.035899
735.556360	0.035874
735.754288	0.035931
735.952198	0.036113
736.150090	0.036277
736.347963	0.036373
736.545818	0.036419
736.743655	0.036232
736.941474	0.036332
737.139275	0.036632
737.337057	0.036529
737.534821	0.036576
737.732567	0.036479
737.930295	0.036549
738.128005	0.036473
738.325696	0.036480
738.523369	0.036555
738.721024	0.036408
738.918660	0.036061
739.116279	0.036114
739.313879	0.036019
739.511461	0.036128
739.709024	0.036166
739.906570	0.036268
740.104097	0.036281
740.301606	0.036249
740.499097	0.036139
740.696569	0.035974
740.894024	0.036142
741.091460	0.035912
741.288878	0.035681
741.486277	0.035459
741.683659	0.035382
741.881022	0.035073
742.078367	0.034983
742.275694	0.034873
742.473002	0.035109
742.670293	0.034883
742.867565	0.035077
743.064819	0.035180
743.262054	0.035264
743.459272	0.035118
743.656471	0.035218
743.853652	0.035137
744.050815	0.035334
744.247959	0.035254
744.445085	0.035240
744.642194	0.035214
744.839283	0.035037
745.036355	0.034813
745.233408	0.035016
745.430444	0.035183
745.627461	0.035277
745.824459	0.035114
746.021440	0.035217
746.218402	0.035177
746.415346	0.035124
746.612272	0.035018
746.809180	0.035072
747.006069	0.034789
747.202940	0.034781
747.399793	0.034803
747.596628	0.034750
747.793444	0.034478
747.990243	0.034486
748.187023	0.034484
748.383784	0.034743
748.580528	0.034852
748.777253	0.034720
748.973960	0.034548
749.170649	0.034519
749.367320	0.034708
749.563973	0.034724
749.760607	0.034565
749.957223	0.034427
750.153821	0.034320
750.350400	0.034258
750.546962	0.034331
750.743505	0.034450
750.940030	0.034358
751.136536	0.034361
751.333025	0.034446
751.529495	0.034588
751.725947	0.034678
751.922381	0.034550
752.118796	0.034506
752.315194	0.034563
752.511573	0.034482
752.707934	0.034512
752.904276	0.034353
753.100601	0.034378
753.296907	0.034350
753.493195	0.034140
753.689465	0.034225
753.885716	0.034240
754.081949	0.034195
754.278164	0.034013
754.474361	0.033990
754.670540	0.034003
754.866700	0.033775
755.062843	0.033729
755.258967	0.033809
755.455072	0.033917
755.651160	0.033879
755.847229	0.033827
756.043280	0.033945
756.239313	0.033945
756.435328	0.034098
756.631324	0.034092
756.827302	0.033995
757.023262	0.033886
757.219204	0.033580
757.415127	0.033582
757.611033	0.033753
757.806920	0.033713
758.002788	0.033684
758.198639	0.033449
758.394471	0.033389
758.590286	0.033421
758.786081	0.033536
758.981859	0.033742
759.177619	0.033721
759.373360	0.033578
759.569083	0.033546
759.764788	0.033539
759.960474	0.033635
760.156143	0.033691
760.351793	0.033736
760.547425	0.033603
760.743038	0.033491
760.938634	0.033549
761.134211	0.033607
761.329770	0.033780
761.525311	0.033612
761.720833	0.033638
761.916338	0.033816
762.111824	0.033817
762.307292	0.033929
762.502741	0.033890
762.698173	0.033943
762.893586	0.033914
763.088981	0.033678
763.284358	0.033911
763.479716	0.033881
763.675057	0.033709
763.870379	0.033689
764.065683	0.033662
764.260968	0.033707
764.456236	0.033586
764.651485	0.033597
764.846716	0.033589
765.041929	0.033536
765.237123	0.033482
765.432299	0.033457
765.627457	0.033526
765.822597	0.033714
766.017719	0.033655
766.212822	0.033734
766.407907	0.033824
766.602974	0.034021
766.798023	0.034018
766.993054	0.034078
767.188066	0.034400
767.383060	0.034313
767.578036	0.034091
767.772993	0.034286
767.967933	0.034203
768.162854	0.034032
768.357757	0.033853
768.552642	0.033716
768.747508	0.033725
768.942356	0.033448
769.137186	0.033382
769.331998	0.033351
769.526792	0.033059
769.721567	0.032953
769.916324	0.033076
770.111063	0.033031
770.305784	0.033014
770.500486	0.032884
770.695171	0.032867
770.889837	0.032852
771.084484	0.032972
771.279114	0.033136
771.473725	0.033187
771.668318	0.033045
771.862893	0.033060
772.057450	0.033271
772.251988	0.033372
772.446509	0.033466
772.641011	0.033390
772.835494	0.033240
773.029960	0.033302
773.224407	0.033339
773.418836	0.033396
773.613247	0.033461
773.807640	0.033333
774.002014	0.033168
774.196370	0.033006
774.390708	0.033043
774.585028	0.033152
774.779330	0.032972
774.973613	0.032914
775.167878	0.032819
775.362125	0.032750
775.556354	0.032585
775.750564	0.032660
775.944756	0.032699
776.138930	0.032490
776.333086	0.032393
776.527223	0.032562
776.721343	0.032590
776.915444	0.032515
777.109526	0.032590
777.303591	0.032763
777.497637	0.032781
777.691666	0.032787
777.885676	0.033179
778.079667	0.033280
778.273641	0.033208
778.467596	0.033186
778.661533	0.033287
778.855452	0.033263
779.049352	0.033246
779.243235	0.033368
779.437099	0.033419
779.630945	0.033356
779.824773	0.033306
780.018582	0.033207
780.212373	0.033228
780.406146	0.033179
780.599901	0.032999
780.793638	0.033091
780.987356	0.033054
781.181056	0.033075
781.374738	0.033117
781.568402	0.033274
781.762047	0.033436
781.955674	0.033344
782.149283	0.033349
782.342874	0.033610
782.536447	0.033624
782.730001	0.033499
782.923537	0.033520
783.117055	0.033674
783.310555	0.033517
783.504036	0.033493
783.697499	0.033687
783.890944	0.034023
784.084371	0.033978
784.277780	0.033901
784.471170	0.033984
784.664542	0.034018
784.857896	0.033847
785.051231	0.033993
785.244549	0.034069
785.437848	0.033978
785.631129	0.033744
785.824392	0.033888
786.017636	0.033839
786.210863	0.033907
786.404071	0.033768
786.597260	0.033662
786.790432	0.033609
786.983585	0.033606
787.176721	0.033622
787.369838	0.033462
787.562936	0.033478
787.756017	0.033585
787.949079	0.033500
788.142123	0.033600
788.335149	0.033644
788.528156	0.033655
788.721146	0.033582
788.914117	0.033700
789.107070	0.033878
789.300005	0.033592
789.492921	0.033578
789.685819	0.033647
789.878699	0.033698
790.071561	0.033694
790.264405	0.033562
790.457230	0.033619
790.650037	0.033448
790.842826	0.033546
791.035597	0.033615
791.228349	0.033684
791.421084	0.033712
791.613800	0.033623
791.806497	0.033820
791.999177	0.033918
792.191838	0.033741
792.384481	0.033651
792.577106	0.033577
792.769713	0.033777
792.962301	0.033613
793.154871	0.033704
793.347423	0.033685
793.539957	0.033555
793.732473	0.033618
793.924970	0.033726
794.117449	0.033930
794.309910	0.033977
794.502353	0.033763
794.694777	0.033885
794.887183	0.033740
795.079571	0.033811
795.271941	0.033736
795.464293	0.033821
795.656626	0.033802
795.848941	0.033899
796.041238	0.033826
796.233516	0.033977
796.425777	0.033920
796.618019	0.033899
796.810243	0.034002
797.002449	0.034050
797.194636	0.033759
797.386805	0.033759
797.578956	0.033709
797.771089	0.033645
797.963204	0.033708
798.155300	0.033692
798.347378	0.033727
798.539438	0.033618
798.731480	0.033721
798.923503	0.033846
799.115509	0.033909
799.307496	0.034043
799.499465	0.034256
799.691415	0.034104
799.883348	0.034019
800.075262	0.034024
800.267158	0.033977
800.459035	0.033973
800.650895	0.034154
800.842736	0.034248
801.034559	0.034033
801.226364	0.034154
801.418150	0.034329
801.609919	0.034709
801.801669	0.034775
801.993401	0.035063
802.185114	0.035222
802.376810	0.035147
802.568487	0.035043
802.760146	0.034948
802.951787	0.034891
803.143409	0.034942
803.335014	0.034955
803.526600	0.035138
803.718168	0.035055
803.909717	0.035180
804.101249	0.035226
804.292762	0.035538
804.484257	0.035865
804.675734	0.035936
804.867192	0.035942
805.058632	0.035985
805.250054	0.036011
805.441458	0.036106
805.632844	0.035881
805.824211	0.035835
806.015561	0.035616
806.206891	0.035523
806.398204	0.035389
806.589499	0.035483
806.780775	0.035338
806.972033	0.035254
807.163273	0.034994
807.354495	0.035035
807.545698	0.035093
807.736883	0.035115
807.928050	0.034973
808.119199	0.035068
808.310329	0.034929
808.501441	0.034823
808.692535	0.034706
808.883611	0.034793
809.074669	0.034589
809.265708	0.034574
809.456729	0.034637
809.647732	0.034743
809.838717	0.034689
810.029683	0.034787
810.220632	0.034966
810.411562	0.034973
810.602474	0.035049
810.793367	0.035305
810.984242	0.035388
811.175100	0.035489
811.365938	0.035643
811.556759	0.035759
811.747562	0.035866
811.938346	0.035944
812.129112	0.036078
812.319860	0.036147
812.510589	0.036158
812.701300	0.036233
812.891994	0.036244
813.082668	0.036227
813.273325	0.036256
813.463964	0.036011
813.654584	0.036015
813.845186	0.036016
814.035769	0.036158
814.226335	0.036097
814.416882	0.036093
814.607411	0.036172
814.797922	0.036288
814.988415	0.036414
815.178889	0.036588
815.369345	0.036523
815.559783	0.036507
815.750203	0.036559
815.940605	0.036761
816.130988	0.036982
816.321353	0.036861
816.511700	0.037037
816.702028	0.036985
816.892339	0.037175
817.082631	0.037336
817.272905	0.037587
817.463161	0.037275
817.653398	0.037442
817.843617	0.037368
818.033819	0.037541
818.224001	0.037400
818.414166	0.037463
818.604312	0.037428
818.794440	0.037394
818.984550	0.037392
819.174642	0.037798
819.364716	0.037556
819.554771	0.037651
819.744808	0.037596
819.934827	0.037499
820.124827	0.037553
820.314810	0.037593
820.504774	0.037454
820.694720	0.037270
820.884647	0.037280
821.074557	0.037428
821.264448	0.037379
821.454321	0.037201
821.644176	0.037309
821.834012	0.037148
822.023831	0.037281
822.213631	0.037432
822.403413	0.037493
822.593176	0.037337
822.782922	0.037261
822.972649	0.037209
823.162358	0.037366
823.352049	0.037281
823.541721	0.037286
823.731376	0.037051
823.921012	0.036882
824.110629	0.037038
824.300229	0.037072
824.489811	0.037169
824.679374	0.037130
824.868919	0.037071
825.058445	0.037262
825.247954	0.037398
825.437444	0.037420
825.626916	0.037545
825.816370	0.037636
826.005806	0.037724
826.195223	0.037806
826.384622	0.038017
826.574003	0.038172
826.763366	0.038149
826.952711	0.038279
827.142037	0.038504
827.331345	0.038754
827.520635	0.038768
827.709906	0.038826
827.899160	0.038771
828.088395	0.038564
828.277612	0.038797
828.466810	0.038805
828.655991	0.038810
828.845153	0.038613
829.034297	0.038466
829.223423	0.038431
829.412531	0.038336
829.601620	0.038279
829.790691	0.038532
829.979744	0.038396
830.168779	0.038382
830.357795	0.038205
830.546793	0.038269
830.735773	0.038201
830.924735	0.038096
831.113679	0.038168
831.302604	0.038267
831.491511	0.038139
831.680400	0.038131
831.869271	0.038286
832.058123	0.038362
832.246957	0.038309
832.435773	0.038653
832.624571	0.038701
832.813351	0.038824
833.002112	0.038763
833.190855	0.038883
833.379580	0.039033
833.568287	0.038847
833.756975	0.038978
833.945645	0.039258
834.134297	0.039387
834.322931	0.039631
834.511547	0.039750
834.700144	0.040146
834.888723	0.040207
835.077284	0.040197
835.265826	0.040266
835.454351	0.040523
835.642857	0.040471
835.831345	0.040337
836.019815	0.040350
836.208266	0.040566
836.396699	0.040494
836.585114	0.040664
836.773511	0.040658
836.961890	0.040861
837.150250	0.040551
837.338592	0.040686
837.526916	0.040810
837.715222	0.040679
837.903510	0.040484
838.091779	0.040517
838.280030	0.040421
838.468263	0.040436
838.656477	0.040462
838.844674	0.040826
839.032852	0.040926
839.221012	0.040931
839.409153	0.040997
839.597277	0.041059
839.785382	0.041253
839.973469	0.041171
840.161538	0.041268
840.349589	0.041331
840.537621	0.041294
840.725635	0.041357
840.913631	0.041287
841.101609	0.041454
841.289568	0.041645
841.477509	0.041677
841.665432	0.041905
841.853337	0.042137
842.041224	0.042344
842.229092	0.042290
842.416942	0.042286
842.604774	0.042573
842.792588	0.042734
842.980383	0.042733
843.168160	0.042686
843.355919	0.042852
843.543660	0.042861
843.731382	0.042739
843.919087	0.042934
844.106773	0.043021
844.294441	0.043119
844.482090	0.043092
844.669722	0.043170
844.857335	0.043307
845.044930	0.043283
845.232507	0.043368
845.420065	0.043451
845.607605	0.043576
845.795127	0.043597
845.982631	0.043500
846.170117	0.043581
846.357584	0.043562
846.545033	0.043479
846.732464	0.043652
846.919877	0.043954
847.107272	0.044168
847.294648	0.044230
847.482006	0.044077
847.669346	0.044093
847.856667	0.044280
848.043971	0.044539
848.231256	0.044837
848.418523	0.044880
848.605771	0.044711
848.793002	0.044703
848.980214	0.044797
849.167408	0.045085
849.354584	0.045340
849.541742	0.045302
849.728881	0.045246
849.916002	0.044933
850.103105	0.044931
850.290190	0.045154
850.477256	0.045387
850.664304	0.045472
850.851334	0.045748
851.038346	0.045873
851.225340	0.045913
851.412315	0.046105
851.599272	0.046557
851.786211	0.046753
851.973132	0.046544
852.160034	0.046631
852.346918	0.046850
852.533784	0.046998
852.720632	0.047220
852.907462	0.047533
853.094273	0.047723
853.281066	0.047640
853.467841	0.047737
853.654598	0.048042
853.841336	0.048205
854.028056	0.048121
854.214758	0.047981
854.401442	0.047748
854.588107	0.047613
854.774755	0.047580
854.961384	0.047763
855.147995	0.047878
855.334587	0.047804
855.521162	0.047578
855.707718	0.047782
855.894256	0.048144
856.080775	0.048158
856.267277	0.048193
856.453760	0.048203
856.640225	0.047964
856.826672	0.048050
857.013101	0.048199
857.199511	0.048422
857.385903	0.048259
857.572277	0.047975
857.758633	0.048137
857.944970	0.048057
858.131290	0.047964
858.317591	0.048355
858.503873	0.048385
858.690138	0.048532
858.876384	0.048594
859.062612	0.048713
859.248822	0.048743
859.435014	0.048903
859.621188	0.049466
859.807343	0.049643
859.993480	0.049569
860.179599	0.049711
860.365699	0.049925
860.551781	0.049979
860.737846	0.050034
860.923891	0.050407
861.109919	0.050493
861.295929	0.050451
861.481920	0.050685
861.667893	0.050612
861.853848	0.050468
862.039784	0.050237
862.225702	0.050241
862.411603	0.050512
862.597484	0.050625
862.783348	0.050505
862.969193	0.050396
863.155021	0.050385
863.340830	0.050684
863.526620	0.050698
863.712393	0.050827
863.898147	0.051098
864.083883	0.051027
864.269601	0.050774
864.455301	0.051041
864.640982	0.051158
864.826645	0.051122
865.012290	0.051426
865.197917	0.051645
865.383526	0.051850
865.569116	0.051847
865.754688	0.052062
865.940242	0.052202
866.125777	0.052250
866.311295	0.052365
866.496794	0.052533
866.682275	0.052448
866.867737	0.052485
867.053182	0.052511
867.238608	0.052527
867.424016	0.052415
867.609406	0.052545
867.794778	0.052549
867.980131	0.052441
868.165466	0.052454
868.350783	0.052399
868.536082	0.052430
868.721362	0.052428
868.906625	0.052602
869.091869	0.052618
869.277094	0.052760
869.462302	0.052730
869.647491	0.052703
869.832662	0.052941
870.017815	0.053111
870.202950	0.053289
870.388066	0.053281
870.573165	0.053282
870.758245	0.053369
870.943306	0.053363
871.128350	0.053499
871.313375	0.053760
871.498382	0.053533
871.683371	0.053577
871.868342	0.053602
872.053294	0.053650
872.238229	0.053727
872.423144	0.053786
872.608042	0.053886
872.792922	0.054169
872.977783	0.054321
873.162626	0.054312
873.347451	0.054498
873.532258	0.054634
873.717046	0.054628
873.901816	0.054684
874.086568	0.054633
874.271302	0.054498
874.456017	0.054224
874.640715	0.054120
874.825394	0.054581
875.010055	0.054343
875.194697	0.054189
875.379322	0.054277
875.563928	0.054307
875.748516	0.054536
875.933085	0.054818
876.117637	0.055046
876.302170	0.055083
876.486685	0.054740
876.671182	0.054962
876.855661	0.055063
877.040121	0.055153
877.224563	0.055150
877.408987	0.054980
877.593393	0.054908
877.777780	0.055088
877.962150	0.055062
878.146501	0.055098
878.330833	0.055284
878.515148	0.055153
878.699444	0.055070
878.883722	0.055061
879.067982	0.055352
879.252224	0.055246
879.436447	0.055118
879.620653	0.055264
879.804840	0.055291
879.989008	0.055195
880.173159	0.055397
880.357291	0.055603
880.541405	0.055620
880.725501	0.055545
880.909579	0.055757
881.093638	0.055566
881.277680	0.055418
881.461703	0.055579
881.645707	0.055426
881.829694	0.055390
882.013662	0.055301
882.197612	0.055392
882.381544	0.055532
882.565458	0.055700
882.749353	0.055581
882.933230	0.055783
883.117089	0.055791
883.300930	0.055712
883.484753	0.055913
883.668557	0.056006
883.852343	0.055996
884.036111	0.055742
884.219861	0.055441
884.403592	0.055770
884.587305	0.055723
884.771000	0.055795
884.954677	0.055983
885.138335	0.055950
885.321976	0.056013
885.505598	0.055847
885.689201	0.055908
885.872787	0.055904
886.056354	0.055668
886.239904	0.055626
886.423434	0.055566
886.606947	0.055237
886.790442	0.055021
886.973918	0.054843
887.157376	0.054837
887.340816	0.054595
887.524237	0.054585
887.707641	0.054551
887.891026	0.054538
888.074393	0.054603
888.257741	0.054911
888.441072	0.055073
888.624384	0.055105
888.807678	0.055069
888.990954	0.055563
889.174211	0.055585
889.357451	0.055912
889.540672	0.055984
889.723875	0.055791
889.907059	0.056120
890.090226	0.055988
890.273374	0.055882
890.456504	0.056048
890.639616	0.056005
890.822709	0.056020
891.005785	0.055720
891.188842	0.055951
891.371881	0.056033
891.554901	0.055915
891.737904	0.055922
891.920888	0.056018
892.103854	0.056119
892.286802	0.056097
892.469731	0.056068
892.652643	0.055984
892.835536	0.055938
893.018410	0.056036
893.201267	0.055954
893.384106	0.056277
893.566926	0.056533
893.749728	0.056561
893.932511	0.056386
894.115277	0.056403
894.298024	0.056560
894.480753	0.056490
894.663464	0.056763
894.846157	0.056366
895.028831	0.056015
895.211487	0.056041
895.394125	0.055864
895.576745	0.055817
895.759346	0.055697
895.941930	0.055658
896.124495	0.055756
896.307041	0.055232
896.489570	0.055544
896.672080	0.056001
896.854573	0.055592
897.037046	0.055840
897.219502	0.055890
897.401940	0.055986
897.584359	0.056179
897.766760	0.056133
897.949143	0.056146
898.131507	0.056008
898.313854	0.055749
898.496182	0.055872
898.678492	0.055626
898.860783	0.055817
899.043057	0.055705
899.225312	0.055657
899.407549	0.055348
899.589768	0.055293
899.771968	0.055153
899.954151	0.055163
900.136315	0.055134
900.318461	0.055209
900.500588	0.055128
900.682698	0.055092
900.864789	0.055084
901.046862	0.055384
901.228917	0.055375
901.410953	0.055282
901.592971	0.054907
901.774972	0.054714
901.956953	0.054654
902.138917	0.054286
902.320862	0.054381
902.502790	0.054105
902.684699	0.054049
902.866589	0.054105
903.048462	0.054403
903.230316	0.054453
903.412152	0.054674
903.593970	0.054365
903.775770	0.054549
903.957551	0.054221
904.139314	0.054313
904.321059	0.054325
904.502786	0.054366
904.684494	0.053850
904.866185	0.053767
905.047857	0.053744
905.229510	0.054010
905.411146	0.053840
905.592763	0.053905
905.774363	0.053885
905.955943	0.053593
906.137506	0.053513
906.319051	0.053397
906.500577	0.053360
906.682085	0.053176
906.863575	0.052809
907.045046	0.052686
907.226500	0.052779
907.407935	0.052825
907.589352	0.052396
907.770750	0.052036
907.952131	0.052166
908.133493	0.051816
908.314837	0.051777
908.496163	0.051911
908.677470	0.051814
908.858760	0.051523
909.040031	0.051137
909.221284	0.051321
909.402518	0.051487
909.583735	0.051348
909.764933	0.051448
909.946113	0.051274
910.127275	0.051147
910.308418	0.050985
910.489544	0.050757
910.670651	0.050720
910.851740	0.050885
911.032810	0.050278
911.213863	0.050505
911.394897	0.050567
911.575913	0.050231
911.756911	0.049938
911.937890	0.050089
912.118851	0.050158
912.299794	0.050053
912.480719	0.050104
912.661626	0.050655
912.842514	0.050438
913.023384	0.050334
913.204236	0.050356
913.385070	0.050357
913.565886	0.050040
913.746683	0.050179
913.927462	0.050428
914.108223	0.049861
914.288965	0.049516
914.469690	0.049713
914.650396	0.049410
914.831084	0.049549
915.011754	0.049380
915.192405	0.049595
915.373038	0.049472
915.553653	0.049102
915.734250	0.048933
915.914829	0.048908
916.095389	0.048073
916.275931	0.048143
916.456455	0.047910
916.636961	0.047962
916.817448	0.047629
916.997917	0.047255
917.178368	0.047234
917.358801	0.047182
917.539216	0.046773
917.719612	0.047101
917.899990	0.046811
918.080350	0.046258
918.260692	0.045645
918.441015	0.045285
918.621320	0.044868
918.801607	0.044581
918.981876	0.044371
919.162127	0.044589
919.342359	0.044420
919.522573	0.044599
919.702769	0.044514
919.882947	0.044677
920.063106	0.044549
920.243247	0.044289
920.423370	0.043739
920.603475	0.043426
920.783562	0.042917
920.963630	0.042652
921.143680	0.042074
921.323712	0.042376
921.503725	0.041936
921.683721	0.041577
921.863698	0.042085
922.043657	0.042251
922.223598	0.042236
922.403520	0.042366
922.583424	0.042308
922.763311	0.041707
922.943178	0.041016
923.123028	0.040819
923.302859	0.040899
923.482673	0.040433
923.662467	0.040008
923.842244	0.039910
924.022003	0.039572
924.201743	0.038934
924.381465	0.039158
924.561169	0.039322
924.740854	0.039108
924.920522	0.038831
925.100171	0.038599
925.279802	0.038313
925.459414	0.037945
925.639009	0.037455
925.818585	0.037622
925.998143	0.037165
926.177683	0.036720
926.357205	0.036584
926.536708	0.036612
926.716193	0.036965
926.895660	0.037197
927.075109	0.036842
927.254539	0.036654
927.433951	0.036233
927.613345	0.036357
927.792721	0.036174
927.972079	0.035789
928.151418	0.035532
928.330739	0.034799
928.510042	0.034608
928.689327	0.034494
928.868593	0.034188
929.047841	0.034145
929.227071	0.033519
929.406283	0.033056
929.585476	0.032962
929.764652	0.032568
929.943809	0.032402
930.122948	0.031607
930.302068	0.031504
930.481171	0.031179
930.660255	0.030922
930.839321	0.031273
931.018369	0.031547
931.197398	0.031658
931.376409	0.031697
931.555402	0.031714
931.734377	0.031464
931.913334	0.031059
932.092272	0.031217
932.271192	0.030778
932.450094	0.030291
932.628978	0.030349
932.807844	0.029610
932.986691	0.028827
933.165520	0.028087
933.344331	0.027865
933.523123	0.027586
933.701898	0.027357
933.880654	0.026703
934.059392	0.026175
934.238111	0.025456
934.416813	0.025603
934.595496	0.025668
934.774161	0.025707
934.952808	0.026070
935.131437	0.026126
935.310047	0.025870
935.488639	0.026023
935.667213	0.026471
935.845769	0.026455
936.024306	0.026639
936.202825	0.026752
936.381326	0.026314
936.559809	0.025103
936.738274	0.024085
936.916720	0.023552
937.095148	0.023179
937.273558	0.022008
937.451950	0.021445
937.630323	0.020695
937.808678	0.019928
937.987015	0.019633
938.165334	0.019868
938.343635	0.020037
938.521917	0.019856
938.700181	0.019768
938.878427	0.020191
939.056655	0.019902
939.234864	0.019670
939.413055	0.019760
939.591228	0.019443
939.769383	0.019925
939.947519	0.019961
940.125638	0.019535
940.303738	0.019172
940.481820	0.018295
940.659883	0.018269
940.837929	0.017629
941.015956	0.017140
941.193965	0.016992
941.371955	0.016090
941.549928	0.015085
941.727882	0.015465
941.905818	0.014805
942.083736	0.015227
942.261636	0.014404
942.439517	0.014232
942.617380	0.013608
942.795225	0.013364
942.973052	0.013203
943.150860	0.013317
943.328651	0.012395
943.506423	0.012423
943.684176	0.012173
943.861912	0.013035
944.039629	0.012915
944.217328	0.012770
944.395009	0.012196
944.572672	0.011693
944.750317	0.012095
944.927943	0.011973
945.105551	0.012029
945.283141	0.011692
945.460712	0.010826
945.638265	0.010792
945.815801	0.010666
945.993317	0.010060
946.170816	0.009745
946.348297	0.009693
946.525759	0.009442
946.703203	0.010054
946.880629	0.009531
947.058036	0.008774
947.235425	0.008909
947.412797	0.008383
947.590149	0.008683
947.767484	0.008730
947.944800	0.007465
948.122099	0.007397
948.299379	0.006812
948.476640	0.007034
948.653884	0.006928
948.831109	0.005527
949.008316	0.006089
949.185505	0.006478
949.362676	0.006063
949.539828	0.007419
949.716962	0.006549
949.894078	0.006280
950.071176	0.006436
950.248256	0.006825
950.425317	0.007149
950.602360	0.006688
950.779385	0.005602
950.956391	0.005652
951.133380	0.005010
951.310350	0.005998
951.487302	0.005487
951.664235	0.005232
951.841151	0.004536
952.018048	0.005032
952.194927	0.005808
952.371788	0.005870
952.548631	0.006519
952.725455	0.006144
952.902261	0.006309
953.079049	0.006145
953.255819	0.005201
953.432570	0.006034
953.609303	0.005825
953.786018	0.004344
953.962715	0.004868
954.139394	0.005211
954.316054	0.005409
954.492696	0.005745
954.669320	0.007390
954.845926	0.008587
955.022513	0.008442
955.199083	0.009426
955.375634	0.008867
955.552166	0.008266
955.728681	0.008804
955.905177	0.007508
956.081655	0.006220
956.258115	0.005051
956.434557	0.003668
956.610980	0.004469
956.787385	0.003621
956.963772	0.005724
957.140141	0.006471
957.316492	0.003178
957.492824	0.004221
957.669138	0.006155
957.845434	0.005480
958.021712	0.005001
958.197971	0.003432
958.374212	0.004541
958.550435	0.003759
958.726640	0.003840
958.902826	0.005654
959.078995	0.005430
959.255145	0.003427
959.431277	0.004491
959.607390	0.006168
959.783486	0.007226
959.959563	0.005041
960.135622	0.006355
960.311662	0.007279
960.487685	0.007004
960.663689	0.008274
960.839675	0.009274
961.015643	0.007929
961.191593	0.008225
961.367524	0.008579
961.543437	0.009991
961.719332	0.009562
961.895209	0.008688
962.071067	0.011049
962.246907	0.009347
962.422730	0.009142
962.598533	0.010642
962.774319	0.010025
962.950086	0.010407
963.125835	0.010327
963.301566	0.010628
963.477279	0.009983
963.652973	0.007966
963.828650	0.010502
964.004308	0.010853
964.179947	0.009719
964.355569	0.011027
964.531172	0.010260
964.706757	0.009829
964.882324	0.009694
965.057873	0.010654
965.233403	0.009920
965.408916	0.008171
965.584410	0.008134
965.759885	0.011486
965.935343	0.011628
966.110782	0.011154
966.286203	0.011288
966.461606	0.009793
966.636991	0.009798
966.812357	0.011693
966.987705	0.012375
967.163035	0.012256
967.338347	0.010193
967.513641	0.008660
967.688916	0.010296
967.864173	0.010307
968.039412	0.010162
968.214632	0.010041
968.389835	0.009495
968.565019	0.008143
968.740185	0.010610
968.915333	0.009877
969.090462	0.009681
969.265573	0.007526
969.440667	0.010713
969.615741	0.011405
969.790798	0.011623
969.965836	0.014382
970.140856	0.014562
970.315858	0.010936
970.490842	0.012448
970.665808	0.011635
970.840755	0.014164
971.015684	0.010112
971.190595	0.011288
971.365487	0.010574
971.540362	0.009070
971.715218	0.009959
971.890056	0.013065
972.064875	0.012318
972.239677	0.013032
972.414460	0.012396
972.589225	0.012479
972.763972	0.010154
972.938700	0.012305
973.113411	0.010998
973.288103	0.011074
973.462777	0.008304
973.637432	0.009018
973.812070	0.009691
973.986689	0.008036
974.161290	0.009383
974.335873	0.009717
974.510437	0.007833
974.684984	0.007967
974.859512	0.006825
975.034022	0.009139
975.208513	0.008832
975.382987	0.009793
975.557442	0.012793
975.731879	0.013999
975.906298	0.015912
976.080698	0.017594
976.255080	0.018027
976.429445	0.018836
976.603790	0.017437
976.778118	0.015629
976.952427	0.014502
977.126719	0.012436
977.300992	0.010737
977.475246	0.009037
977.649483	0.006890
977.823701	0.008479
977.997901	0.008342
978.172083	0.008450
978.346247	0.010009
978.520392	0.010328
978.694519	0.010897
978.868628	0.012586
979.042719	0.012909
979.216791	0.013293
979.390845	0.011577
979.564882	0.013618
979.738899	0.014748
979.912899	0.014440
980.086880	0.014624
980.260843	0.014968
980.434788	0.014248
980.608715	0.014682
980.782623	0.013641
980.956514	0.013340
981.130386	0.012592
981.304240	0.010796
981.478075	0.011518
981.651892	0.011960
981.825692	0.012120
981.999472	0.011957
982.173235	0.012704
982.346980	0.015443
982.520706	0.016297
982.694414	0.016544
982.868104	0.017991
983.041775	0.017128
983.215428	0.017324
983.389064	0.016828
983.562680	0.016831
983.736279	0.016035
983.909860	0.013912
984.083422	0.013285
984.256966	0.012827
984.430491	0.011881
984.603999	0.011988
984.777488	0.011521
984.950959	0.010019
985.124412	0.010331
985.297847	0.010614
985.471263	0.010134
985.644661	0.008893
985.818041	0.007017
985.991403	0.007536
986.164747	0.007178
986.338072	0.006809
986.511379	0.005272
986.684668	0.004504
986.857938	0.005294
987.031191	0.007964
987.204425	0.010242
987.377641	0.011177
987.550839	0.010795
987.724018	0.009343
987.897179	0.010675
988.070322	0.012432
988.243447	0.012661
988.416554	0.010638
988.589642	0.008790
988.762712	0.007860
988.935764	0.007506
989.108798	0.007392
989.281813	0.008446
989.454811	0.007078
989.627790	0.006602
989.800751	0.006232
989.973693	0.007199
990.146617	0.007835
990.319524	0.007535
990.492412	0.008045
990.665281	0.008631
990.838133	0.008198
991.010966	0.009700
991.183781	0.011201
991.356578	0.011717
991.529356	0.013212
991.702117	0.012976
991.874859	0.014722
992.047583	0.015533
992.220288	0.014935
992.392976	0.016536
992.565645	0.015406
992.738296	0.017801
992.910929	0.018026
993.083543	0.014987
993.256139	0.016325
993.428718	0.015903
993.601277	0.014439
993.773819	0.014815
993.946342	0.014022
994.118848	0.014348
994.291335	0.012023
994.463803	0.010988
994.636254	0.012382
994.808686	0.012108
994.981100	0.011642
995.153496	0.012328
995.325874	0.014073
995.498233	0.015687
995.670574	0.015359
995.842897	0.014799
996.015202	0.016560
996.187488	0.016695
996.359757	0.016293
996.532007	0.017359
996.704239	0.017391
996.876452	0.016982
997.048648	0.015753
997.220825	0.015579
997.392984	0.014588
997.565124	0.014415
997.737247	0.014318
997.909351	0.013681
998.081437	0.011861
998.253505	0.011347
998.425554	0.008706
998.597586	0.009066
998.769599	0.008438
998.941594	0.010251
999.113571	0.009251
999.285529	0.008731
999.457469	0.009258
999.629391	0.009982
999.801295	0.009505
999.973181	0.010287
1000.145048	0.009973
1000.316897	0.012632
1000.488728	0.011815
1000.660541	0.011363
1000.832335	0.012250
1001.004111	0.010970
1001.175869	0.010952
1001.347609	0.012405
1001.519331	0.013683
1001.691034	0.014285
1001.862719	0.011626
1002.034386	0.012717
1002.206035	0.012878
1002.377665	0.012023
1002.549277	0.014071
1002.720871	0.013613
1002.892447	0.012738
1003.064004	0.012182
1003.235544	0.010894
1003.407065	0.011296
1003.578568	0.011041
1003.750052	0.011446
1003.921519	0.013930
1004.092967	0.013209
1004.264397	0.012205
1004.435809	0.013140
1004.607202	0.012601
1004.778577	0.013275
1004.949934	0.014200
1005.121273	0.012259
1005.292594	0.012248
1005.463896	0.009791
1005.635180	0.010480
1005.806446	0.011476
1005.977694	0.011373
1006.148923	0.012825
1006.320135	0.012659
1006.491328	0.012472
1006.662503	0.013574
1006.833659	0.013038
1007.004798	0.013766
1007.175918	0.011996
1007.347020	0.012837
1007.518103	0.011810
1007.689169	0.010176
1007.860216	0.008939
1008.031245	0.008883
1008.202256	0.009022
1008.373248	0.010675
1008.544223	0.011216
1008.715179	0.011548
1008.886117	0.010739
1009.057036	0.012003
1009.227938	0.012667
1009.398821	0.013868
1009.569686	0.013510
1009.740533	0.012403
1009.911361	0.010100
1010.082172	0.008891
1010.252964	0.009767
1010.423738	0.008692
1010.594493	0.008771
1010.765231	0.009125
1010.935950	0.009947
1011.106651	0.008930
1011.277334	0.010353
1011.447998	0.010086
1011.618645	0.010808
1011.789273	0.010482
1011.959882	0.010749
1012.130474	0.009699
1012.301048	0.009960
1012.471603	0.009873
1012.642140	0.010520
1012.812658	0.010946
1012.983159	0.011573
1013.153641	0.013102
1013.324105	0.012604
1013.494551	0.014105
1013.664979	0.015753
1013.835388	0.015713
1014.005779	0.015554
1014.176152	0.016469
1014.346507	0.016474
1014.516843	0.018484
1014.687162	0.015795
1014.857462	0.015712
1015.027744	0.014419
1015.198007	0.013010
1015.368252	0.012703
1015.538480	0.011749
1015.708689	0.010225
1015.878879	0.009691
1016.049052	0.010019
1016.219206	0.011125
1016.389342	0.010772
1016.559460	0.010893
1016.729559	0.011268
1016.899641	0.010792
1017.069704	0.011147
1017.239749	0.012577
1017.409775	0.014013
1017.579784	0.011917
1017.749774	0.011833
1017.919746	0.013794
1018.089700	0.013492
1018.259635	0.012737
1018.429553	0.014103
1018.599452	0.014116
1018.769333	0.013286
1018.939195	0.012521
1019.109040	0.013761
1019.278866	0.013480
1019.448674	0.012972
1019.618464	0.013368
1019.788235	0.013292
1019.957989	0.012385
1020.127724	0.013443
1020.297441	0.013481
1020.467139	0.011473
1020.636820	0.010941
1020.806482	0.010716
1020.976126	0.008404
1021.145752	0.010265
1021.315359	0.010833
1021.484948	0.009675
1021.654519	0.008295
1021.824072	0.008221
1021.993607	0.007415
1022.163123	0.006846
1022.332621	0.007297
1022.502101	0.008585
1022.671563	0.006818
1022.841007	0.006318
1023.010432	0.006710
1023.179839	0.007394
1023.349228	0.006771
1023.518598	0.008162
1023.687951	0.008943
1023.857285	0.007462
1024.026601	0.006979
1024.195899	0.007322
1024.365178	0.007112
1024.534439	0.007995
1024.703682	0.007712
1024.872907	0.009082
1025.042114	0.010434
1025.211302	0.009806
1025.380472	0.011520
1025.549624	0.012129
1025.718758	0.012561
1025.887873	0.013344
1026.056970	0.013565
1026.226049	0.013297
1026.395110	0.012077
1026.564153	0.011627
1026.733177	0.012458
1026.902183	0.011249
1027.071171	0.011074
1027.240141	0.010352
1027.409092	0.009492
1027.578026	0.008427
1027.746940	0.010314
1027.915837	0.011845
1028.084716	0.010235
1028.253576	0.010184
1028.422418	0.011733
1028.591242	0.011601
1028.760048	0.013159
1028.928835	0.015248
1029.097604	0.015961
1029.266355	0.012886
1029.435088	0.012593
1029.603803	0.014663
1029.772499	0.015191
1029.941177	0.016314
1030.109837	0.015993
1030.278478	0.014228
1030.447102	0.012821
1030.615707	0.013123
1030.784294	0.015262
1030.952863	0.014582
1031.121413	0.012991
1031.289945	0.012344
1031.458460	0.009592
1031.626955	0.010331
1031.795433	0.011192
1031.963892	0.012696
1032.132334	0.011897
1032.300756	0.011057
1032.469161	0.011439
1032.637548	0.011919
1032.805916	0.011931
1032.974266	0.014148
1033.142598	0.015123
1033.310911	0.015421
1033.479207	0.013464
1033.647484	0.014920
1033.815743	0.015284
1033.983983	0.015698
1034.152206	0.015379
1034.320410	0.016096
1034.488596	0.015093
1034.656764	0.013569
1034.824914	0.012182
1034.993045	0.011835
1035.161158	0.010584
1035.329253	0.011588
1035.497330	0.010811
1035.665388	0.012025
1035.833428	0.011648
1036.001450	0.012008
1036.169454	0.012988
1036.337440	0.012987
1036.505407	0.012785
1036.673356	0.012438
1036.841287	0.011548
1037.009200	0.011080
1037.177094	0.010241
1037.344970	0.009291
1037.512828	0.009595
1037.680668	0.009273
1037.848489	0.009529
1038.016293	0.009915
1038.184078	0.010537
1038.351845	0.009239
1038.519593	0.012093
1038.687324	0.012044
1038.855036	0.012877
1039.022730	0.012509
1039.190406	0.011926
1039.358063	0.011848
1039.525702	0.011621
1039.693323	0.011411
1039.860926	0.013411
1040.028511	0.011393
1040.196077	0.011152
1040.363625	0.011003
1040.531155	0.009051
1040.698667	0.008927
1040.866161	0.008154
1041.033636	0.008459
1041.201093	0.008014
1041.368532	0.007633
1041.535952	0.007772
1041.703355	0.008344
1041.870739	0.008132
1042.038105	0.009713
1042.205452	0.009271
1042.372782	0.010345
1042.540093	0.011192
1042.707386	0.010062
1042.874661	0.009082
1043.041918	0.009153
1043.209156	0.008308
1043.376376	0.008064
1043.543578	0.008441
1043.710762	0.009678
1043.877927	0.010882
1044.045074	0.011093
1044.212203	0.009859
1044.379314	0.008561
1044.546407	0.006974
1044.713481	0.006956
1044.880537	0.006759
1045.047575	0.006371
1045.214595	0.006931
1045.381596	0.007470
1045.548579	0.005693
1045.715544	0.009267
1045.882491	0.011111
1046.049420	0.011531
1046.216330	0.012248
1046.383222	0.012486
1046.550096	0.012813
1046.716951	0.011775
1046.883789	0.010001
1047.050608	0.009855
1047.217409	0.007774
1047.384192	0.006815
1047.550956	0.006006
1047.717703	0.007077
1047.884431	0.007567
1048.051140	0.007883
1048.217832	0.007762
1048.384505	0.007253
1048.551161	0.009036
1048.717798	0.010609
1048.884416	0.012071
1049.051017	0.013742
1049.217599	0.011824
1049.384163	0.011339
1049.550709	0.010235
1049.717237	0.011197
1049.883746	0.011858
1050.050237	0.012324
1050.216710	0.011859
1050.383165	0.011663
1050.549601	0.012815
1050.716019	0.013011
1050.882420	0.013273
1051.048801	0.013261
1051.215165	0.010922
1051.381510	0.010022
1051.547837	0.009406
1051.714146	0.010122
1051.880437	0.007842
1052.046709	0.006000
1052.212964	0.005522
1052.379200	0.005171
1052.545417	0.005841
1052.711617	0.008629
1052.877798	0.009259
1053.043961	0.009192
1053.210106	0.008303
1053.376233	0.010832
1053.542341	0.011012
1053.708432	0.012225
1053.874504	0.012897
1054.040557	0.011619
1054.206593	0.010420
1054.372610	0.008798
1054.538609	0.008061
1054.704590	0.007145
1054.870553	0.006188
1055.036497	0.006411
1055.202424	0.007291
1055.368331	0.006432
1055.534221	0.005372
1055.700093	0.004995
1055.865946	0.006240
1056.031781	0.008381
1056.197598	0.008202
1056.363397	0.006704
1056.529177	0.005813
1056.694939	0.004696
1056.860683	0.005906
1057.026409	0.005854
1057.192116	0.007454
1057.357806	0.008300
1057.523477	0.006731
1057.689130	0.008537
1057.854764	0.009329
1058.020381	0.009565
1058.185979	0.008588
1058.351559	0.008395
1058.517120	0.009866
1058.682664	0.008687
1058.848189	0.009132
1059.013696	0.008790
1059.179185	0.005887
1059.344656	0.007168
1059.510108	0.007912
1059.675542	0.010486
1059.840958	0.009848
1060.006356	0.009264
1060.171735	0.008889
1060.337096	0.007818
1060.502439	0.008274
1060.667764	0.010939
1060.833071	0.009105
1060.998359	0.008680
1061.163629	0.006659
1061.328881	0.006446
1061.494115	0.007900
1061.659330	0.007267
1061.824527	0.007286
1061.989706	0.005815
1062.154867	0.005052
1062.320010	0.005454
1062.485134	0.004522
1062.650240	0.004313
1062.815328	0.004621
1062.980398	0.004358
1063.145449	0.004706
1063.310482	0.004745
1063.475497	0.004771
1063.640494	0.004558
1063.805473	0.006061
1063.970433	0.008121
1064.135375	0.008394
1064.300299	0.007858
1064.465204	0.007196
1064.630092	0.008932
1064.794961	0.008170
1064.959812	0.008607
1065.124645	0.010138
1065.289459	0.009521
1065.454256	0.007993
1065.619034	0.007857
1065.783793	0.008998
1065.948535	0.009972
1066.113258	0.007105
1066.277964	0.007916
1066.442651	0.008799
1066.607319	0.006690
1066.771970	0.006229
1066.936602	0.007222
1067.101216	0.008031
1067.265812	0.006807
1067.430389	0.007536
1067.594949	0.009113
1067.759490	0.009465
1067.924013	0.008642
1068.088518	0.009610
1068.253004	0.008766
1068.417472	0.009834
1068.581922	0.009373
1068.746354	0.009244
1068.910768	0.008508
1069.075163	0.008892
1069.239540	0.008686
1069.403899	0.009165
1069.568240	0.008488
1069.732562	0.010521
1069.896866	0.011892
1070.061152	0.011211
1070.225420	0.012136
1070.389670	0.011325
1070.553901	0.010479
1070.718114	0.010349
1070.882309	0.009071
1071.046486	0.010195
1071.210644	0.009240
1071.374784	0.006317
1071.538906	0.007062
1071.703010	0.005895
1071.867096	0.005489
1072.031163	0.007501
1072.195212	0.007485
1072.359243	0.009021
1072.523256	0.007735
1072.687250	0.008941
1072.851226	0.008928
1073.015184	0.008510
1073.179124	0.009192
1073.343045	0.010436
1073.506949	0.010116
1073.670834	0.011803
1073.834701	0.011589
1073.998549	0.012190
1074.162380	0.009985
1074.326192	0.009854
1074.489986	0.010404
1074.653761	0.010227
1074.817519	0.007988
1074.981258	0.006762
1075.144979	0.004438
1075.308682	0.004911
1075.472367	0.005548
1075.636033	0.006137
1075.799681	0.006166
1075.963311	0.006005
1076.126923	0.006319
1076.290516	0.009642
1076.454092	0.008552
1076.617649	0.007271
1076.781187	0.006988
1076.944708	0.007968
1077.108210	0.008787
1077.271695	0.009061
1077.435160	0.010339
1077.598608	0.010288
1077.762038	0.008716
1077.925449	0.011802
1078.088842	0.015536
1078.252217	0.015649
1078.415573	0.014751
1078.578912	0.015811
1078.742232	0.016797
1078.905534	0.015329
1079.068817	0.015155
1079.232083	0.014664
1079.395330	0.012196
1079.558559	0.011146
1079.721770	0.009843
1079.884962	0.008669
1080.048136	0.007489
1080.211293	0.006538
1080.374430	0.006885
1080.537550	0.006968
1080.700651	0.006918
1080.863735	0.006708
1081.026800	0.004985
1081.189846	0.007084
1081.352875	0.005867
1081.515885	0.006131
1081.678877	0.005370
1081.841851	0.005073
1082.004807	0.005018
1082.167744	0.005772
1082.330663	0.007374
1082.493564	0.007636
1082.656447	0.006451
1082.819312	0.008519
1082.982158	0.008698
1083.144986	0.008461
1083.307796	0.008411
1083.470587	0.008837
1083.633361	0.010004
1083.796116	0.012022
1083.958853	0.012584
1084.121571	0.012772
1084.284272	0.013050
1084.446954	0.013090
1084.609618	0.013689
1084.772264	0.013716
1084.934892	0.014030
1085.097501	0.012856
1085.260092	0.009661
1085.422665	0.009991
1085.585220	0.009896
1085.747756	0.010246
1085.910274	0.010557
1086.072774	0.012064
1086.235256	0.012161
1086.397720	0.011427
1086.560165	0.011686
1086.722592	0.011488
1086.885001	0.010203
1087.047392	0.012654
1087.209764	0.010447
1087.372119	0.010210
1087.534455	0.009350
1087.696772	0.010704
1087.859072	0.008749
1088.021353	0.009215
1088.183616	0.007157
1088.345861	0.009117
1088.508088	0.006096
1088.670296	0.008056
1088.832486	0.008462
1088.994658	0.008280
1089.156812	0.006378
1089.318948	0.009847
1089.481065	0.007810
1089.643164	0.008879
1089.805245	0.008355
1089.967308	0.009588
1090.129352	0.011055
1090.291378	0.007605
1090.453386	0.007344
1090.615376	0.008694
1090.777347	0.008251
1090.939301	0.008724
1091.101236	0.009673
1091.263153	0.006730
1091.425051	0.005187
1091.586932	0.004167
1091.748794	0.008187
1091.910638	0.007401
1092.072463	0.007072
1092.234271	0.004909
1092.396060	0.006150
1092.557831	0.005353
1092.719584	0.009289
1092.881319	0.010474
1093.043035	0.010819
1093.204733	0.008173
1093.366413	0.007796
1093.528075	0.008227
1093.689718	0.010322
1093.851343	0.009623
1094.012950	0.011720
1094.174539	0.009596
1094.336110	0.007690
1094.497662	0.006879
1094.659196	0.007857
1094.820712	0.008938
1094.982210	0.010241
1095.143689	0.007851
1095.305151	0.006795
1095.466594	0.005708
1095.628018	0.006224
1095.789425	0.008560
1095.950813	0.009027
1096.112183	0.007775
1096.273535	0.007498
1096.434869	0.005472
1096.596184	0.006481
1096.757482	0.006726
1096.918761	0.007244
1097.080021	0.006502
1097.241264	0.005293
1097.402488	0.004175
1097.563694	0.004633
1097.724882	0.006903
1097.886052	0.009186
1098.047203	0.008415
1098.208336	0.010773
1098.369451	0.012066
1098.530548	0.013010
1098.691627	0.013066
1098.852687	0.014680
1099.013729	0.014787
1099.174753	0.012573
1099.335758	0.009429
1099.496746	0.009688
1099.657715	0.009215
1099.818666	0.007249
1099.979599	0.005880
1100.140513	0.003544
1100.301409	0.000862
1100.462287	0.002101
1100.623147	0.003164
1100.783989	0.003586
1100.944812	0.005188
1101.105617	0.002705
1101.266404	0.004265
1101.427173	0.009805
1101.587923	0.012562
1101.748656	0.013281
1101.909370	0.011385
1102.070066	0.008561
1102.230743	0.009534
1102.391403	0.010824
1102.552044	0.010195
1102.712667	0.008220
1102.873271	0.003627
1103.033858	0.004552
1103.194426	0.004667
1103.354976	0.003910
1103.515508	0.007715
1103.676021	0.007432
1103.836517	0.004634
1103.996994	0.005958
1104.157453	0.006959
1104.317893	0.007446
1104.478316	0.003439
1104.638720	0.001643
1104.799106	0.005479
1104.959474	0.006559
1105.119823	0.006624
1105.280155	0.008047
1105.440468	0.008413
1105.600763	0.007174
1105.761039	0.008135
1105.921298	0.012260
1106.081538	0.014181
1106.241760	0.012505
1106.401964	0.007915
1106.562149	0.003281
1106.722316	0.005797
1106.882465	0.004051
1107.042596	0.006975
1107.202709	0.005943
1107.362803	0.001549
1107.522879	0.002519
1107.682937	0.000497
1107.842977	-0.001363
1108.002999	0.002030
1108.163002	-0.002606
1108.322987	-0.000485
1108.482954	-0.002546
1108.642902	-0.001053
1108.802833	0.002376
1108.962745	0.002834
1109.122639	0.004005
1109.282515	0.010046
1109.442372	0.013789
1109.602211	0.012106
1109.762032	0.013977
1109.921835	0.013721
1110.081620	0.013828
1110.241386	0.014424
1110.401134	0.011544
1110.560864	0.016506
1110.720576	0.013604
1110.880269	0.011179
1111.039945	0.014909
1111.199602	0.013433
1111.359240	0.014197
1111.518861	0.011982
1111.678463	0.009472
1111.838047	0.011127
1111.997613	0.005355
1112.157161	0.004653
1112.316690	0.005420
1112.476202	0.000730
1112.635695	-0.001045
1112.795169	-0.000342
1112.954626	-0.000328
1113.114064	0.004123
1113.273484	0.002893
1113.432886	0.004173
1113.592270	0.005544
1113.751635	0.005348
1113.910983	0.009029
1114.070312	0.007605
1114.229622	0.008675
1114.388915	0.009724
1114.548189	0.006839
1114.707445	0.008793
1114.866683	0.009694
1115.025903	0.013009
1115.185104	0.010701
1115.344287	0.010203
1115.503452	0.014583
1115.662599	0.011860
1115.821727	0.014415
1115.980838	0.013176
1116.139930	0.014210
1116.299004	0.013480
1116.458059	0.012086
1116.617097	0.014783
1116.776116	0.017508
1116.935117	0.019083
1117.094099	0.018884
1117.253064	0.014177
1117.412010	0.014180
1117.570938	0.014358
1117.729848	0.013938
1117.888740	0.010010
1118.047613	0.005743
1118.206468	0.003146
1118.365305	-0.001584
1118.524124	0.000126
1118.682924	0.001422
1118.841707	0.002691
1119.000471	-0.003330
1119.159216	-0.003538
1119.317944	-0.003295
1119.476653	0.002439
1119.635344	0.001886
1119.794017	0.003042
1119.952672	-0.000289
1120.111308	0.003990
1120.269927	0.008411
1120.428527	0.015733
1120.587108	0.015206
1120.745672	0.015944
1120.904217	0.012357
1121.062744	0.014213
1121.221253	0.016919
1121.379744	0.018942
1121.538216	0.011074
1121.696671	0.003324
1121.855107	-0.001285
1122.013524	0.000908
1122.171924	0.001193
1122.330305	0.002993
1122.488668	0.004454
1122.647013	0.000820
1122.805340	0.003394
1122.963648	0.006176
1123.121938	0.011387
1123.280210	0.014324
1123.438464	0.012329
1123.596700	0.012402
1123.754917	0.012894
1123.913116	0.011052
1124.071297	0.009616
1124.229459	0.004155
1124.387604	0.007473
1124.545730	0.005231
1124.703838	0.006026
1124.861928	0.010582
1125.019999	0.011847
1125.178052	0.007811
1125.336088	0.006148
1125.494104	0.009191
1125.652103	0.011933
1125.810083	0.010481
1125.968045	0.012900
1126.125989	0.014617
1126.283915	0.010754
1126.441823	0.009119
1126.599712	0.012567
1126.757583	0.015126
1126.915436	0.013828
1127.073270	0.018727
1127.231087	0.019413
1127.388885	0.015828
1127.546665	0.016431
1127.704426	0.018348
1127.862170	0.020978
1128.019895	0.022532
1128.177602	0.018638
1128.335291	0.020994
1128.492961	0.015172
1128.650614	0.013982
1128.808248	0.014836
1128.965864	0.010408
1129.123461	0.007692
1129.281041	0.008038
1129.438602	0.002822
1129.596145	0.007737
1129.753670	0.003865
1129.911176	0.000197
1130.068665	0.000198
1130.226135	0.001836
1130.383587	0.002771
1130.541020	0.002249
1130.698436	-0.000110
1130.855833	0.000920
1131.013212	-0.002688
1131.170573	-0.000495
1131.327915	0.005417
1131.485239	0.008867
1131.642545	0.007032
1131.799833	0.007768
1131.957103	0.006694
1132.114354	0.008865
1132.271588	0.011056
1132.428803	0.011241
1132.585999	0.008665
1132.743178	0.011980
1132.900338	0.010642
1133.057480	0.011431
1133.214604	0.007531
1133.371710	0.012337
1133.528797	0.009092
1133.685866	0.009123
1133.842917	0.009821
1133.999950	0.015969
1134.156964	0.014444
1134.313960	0.010184
1134.470938	0.011279
1134.627898	0.014433
1134.784840	0.009346
1134.941763	0.012265
1135.098668	0.007984
1135.255555	0.011570
1135.412424	0.005180
1135.569274	0.001851
1135.726107	0.004558
1135.882921	-0.000734
1136.039716	-0.004791
1136.196494	0.000079
1136.353253	-0.001554
1136.509995	0.003974
1136.666717	-0.000855
1136.823422	-0.000098
1136.980109	-0.002109
1137.136777	-0.001274
1137.293427	-0.002243
1137.450059	0.003091
1137.606672	0.002356
1137.763267	0.001038
1137.919844	-0.002024
1138.076403	-0.001001
1138.232944	-0.000165
1138.389466	-0.001839
1138.545971	-0.002772
1138.702457	0.000728
1138.858924	-0.003252
1139.015374	-0.003659
1139.171805	0.000438
1139.328218	-0.001690
1139.484613	-0.003573
1139.640990	-0.000896
1139.797348	0.003039
1139.953688	0.000447
1140.110010	0.005287
1140.266314	0.008616
1140.422600	0.010117
1140.578867	0.003661
1140.735116	0.005653
1140.891347	0.008944
1141.047559	0.008726
1141.203754	0.012557
1141.359930	0.011807
1141.516088	0.010821
1141.672228	0.008256
1141.828349	0.006279
1141.984452	0.013328
1142.140537	0.016833
1142.296604	0.016205
1142.452653	0.012496
1142.608683	0.010998
1142.764695	0.015327
1142.920689	0.005601
1143.076665	0.009036
1143.232622	0.008525
1143.388562	0.004808
1143.544483	-0.000253
1143.700385	0.000641
1143.856270	0.001601
1144.012136	0.001693
1144.167985	-0.002772
1144.323814	0.009459
1144.479626	0.007993
1144.635420	0.009536
1144.791195	0.011319
1144.946952	0.013084
1145.102691	0.011999
1145.258411	0.011870
1145.414113	0.009042
1145.569798	0.013128
1145.725463	0.011271
1145.881111	0.011535
1146.036741	0.004824
1146.192352	0.003009
1146.347945	0.003093
1146.503519	0.002776
1146.659076	0.005379
1146.814614	0.008748
1146.970134	0.008317
1147.125636	0.011573
1147.281120	0.010855
1147.436585	0.016437
1147.592032	0.016376
1147.747461	0.015098
1147.902872	0.016450
1148.058265	0.025102
1148.213639	0.026405
1148.368995	0.024332
1148.524333	0.020120
1148.679653	0.018559
1148.834954	0.020560
1148.990237	0.021442
1149.145502	0.021154
1149.300749	0.020840
1149.455977	0.010614
1149.611188	0.002317
1149.766380	0.006302
1149.921553	0.002050
1150.076709	0.001607
1150.231846	0.001516
1150.386966	0.001670
1150.542066	0.008279
1150.697149	0.013851
1150.852214	0.012778
1151.007260	0.018310
1151.162288	0.013271
1151.317298	0.022558
1151.472289	0.025344
1151.627263	0.018307
1151.782218	0.016891
1151.937155	0.014645
1152.092073	0.013254
1152.246974	0.018112
1152.401856	0.011897
1152.556720	0.018772
1152.711566	0.014136
1152.866393	0.011426
1153.021203	0.008600
1153.175994	0.006449
1153.330767	0.003501
1153.485521	-0.001541
1153.640258	-0.001297
1153.794976	-0.002039
1153.949676	-0.011531
1154.104358	-0.011667
1154.259021	-0.013093
1154.413667	-0.007211
1154.568294	-0.000564
1154.722903	0.002000
1154.877493	0.006497
1155.032066	0.010003
1155.186620	0.018014
1155.341156	0.018953
1155.495674	0.012200
1155.650173	0.015275
1155.804654	0.016017
1155.959118	0.009566
1156.113562	0.012334
1156.267989	0.007570
1156.422397	0.005891
1156.576788	0.001090
1156.731160	-0.002483
1156.885513	0.004396
1157.039849	-0.006073
1157.194166	0.000215
1157.348465	0.007216
1157.502746	0.002109
1157.657009	-0.005887
1157.811253	-0.012850
1157.965479	-0.008151
1158.119687	0.003463
1158.273877	-0.002935
1158.428048	0.002574
1158.582201	-0.002549
1158.736337	-0.003275
1158.890453	-0.004430
1159.044552	0.006515
1159.198632	0.005580
1159.352694	0.004046
1159.506738	0.001689
1159.660764	0.004221
1159.814771	0.014070
1159.968761	0.011713
1160.122732	0.013730
1160.276685	0.014309
1160.430619	0.019133
1160.584535	0.017663
1160.738434	0.014770
1160.892313	0.014176
1161.046175	0.016757
1161.200019	0.009529
1161.353844	0.010097
1161.507651	0.006817
1161.661440	0.006562
1161.815210	0.008339
1161.968962	0.018944
1162.122697	0.015989
1162.276412	0.011594
1162.430110	0.005787
1162.583789	0.000293
1162.737451	0.001671
1162.891094	0.001933
1163.044718	0.015609
1163.198325	0.011930
1163.351913	0.002547
1163.505483	0.007062
1163.659035	0.018220
1163.812569	0.031398
1163.966084	0.035597
1164.119581	0.030981
1164.273060	0.027191
1164.426521	0.011393
1164.579964	-0.002550
1164.733388	0.001426
1164.886794	-0.002815
1165.040182	-0.012220
1165.193551	-0.023770
1165.346903	-0.026285
1165.500236	-0.017640
1165.653551	-0.018015
1165.806848	-0.019021
1165.960126	-0.005565
1166.113386	-0.004945
1166.266628	0.007220
1166.419852	0.013049
1166.573058	0.011389
1166.726245	0.018591
1166.879414	0.013652
1167.032565	0.013424
1167.185698	0.008653
1167.338812	0.003502
1167.491909	0.002224
1167.644987	-0.008907
1167.798046	-0.013056
1167.951088	0.001161
1168.104111	-0.000145
1168.257117	-0.008718
1168.410103	0.004184
1168.563072	0.005767
1168.716023	-0.002814
1168.868955	-0.007381
1169.021869	-0.000100
1169.174765	-0.006929
1169.327642	-0.014975
1169.480501	-0.007252
1169.633343	-0.008644
1169.786165	-0.021415
1169.938970	-0.015148
1170.091757	-0.005481
1170.244525	0.001297
1170.397275	-0.003260
1170.550007	0.010609
1170.702720	0.008207
1170.855415	0.001994
1171.008092	0.013778
1171.160751	0.016086
1171.313392	0.019698
1171.466014	0.018231
1171.618619	0.021018
1171.771205	0.021018
1171.923772	0.021018
