sample name	sample
index	825
start time	 03-31-2021  04:09:50 PM


Wavelength (nm)	Absorbance
494.344910	0.074516
494.563924	0.074516
494.782919	0.074516
495.001897	0.135850
495.220856	-0.515016
495.439797	-1.098936
495.658719	NaN
495.877624	1.182144
496.096510	NaN
496.315378	NaN
496.534227	NaN
496.753059	NaN
496.971872	NaN
497.190667	0.012942
497.409444	0.008846
497.628203	0.009535
497.846943	0.007329
498.065665	0.005688
498.284369	0.005426
498.503055	0.005595
498.721723	0.006679
498.940372	0.005319
499.159003	0.005233
499.377616	0.005243
499.596210	0.005352
499.814787	0.005953
500.033345	0.007006
500.251885	0.007664
500.470406	0.008274
500.688910	0.007303
500.907395	0.008006
501.125862	0.009766
501.344311	0.009784
501.562742	0.008155
501.781154	0.008873
501.999548	0.008433
502.217924	0.008496
502.436282	0.008156
502.654621	0.007933
502.872942	0.008224
503.091245	0.006261
503.309530	0.006153
503.527797	0.006880
503.746045	0.004894
503.964275	0.005131
504.182487	0.005089
504.400681	0.004662
504.618856	0.005111
504.837013	0.004762
505.055152	0.005461
505.273273	0.005347
505.491376	0.006221
505.709460	0.007056
505.927526	0.007008
506.145574	0.006837
506.363604	0.006821
506.581615	0.007448
506.799608	0.007260
507.017583	0.006897
507.235540	0.007182
507.453478	0.007087
507.671399	0.006992
507.889301	0.006518
508.107185	0.006450
508.325050	0.006203
508.542898	0.005957
508.760727	0.006505
508.978538	0.007544
509.196330	0.006882
509.414105	0.006632
509.631861	0.006863
509.849599	0.007050
510.067319	0.007182
510.285021	0.007236
510.502704	0.007476
510.720369	0.007553
510.938016	0.006970
511.155645	0.007686
511.373255	0.007573
511.590848	0.007477
511.808422	0.007550
512.025977	0.007917
512.243515	0.007967
512.461034	0.007453
512.678536	0.007147
512.896018	0.007193
513.113483	0.006456
513.330930	0.006637
513.548358	0.006738
513.765768	0.006484
513.983160	0.005916
514.200533	0.006256
514.417889	0.006250
514.635226	0.006916
514.852545	0.006721
515.069845	0.006925
515.287128	0.006933
515.504392	0.007405
515.721638	0.008200
515.938866	0.008638
516.156075	0.008914
516.373267	0.008587
516.590440	0.007702
516.807594	0.008016
517.024731	0.008756
517.241850	0.008435
517.458950	0.008294
517.676032	0.007694
517.893095	0.007275
518.110141	0.006726
518.327168	0.006783
518.544177	0.007087
518.761168	0.007078
518.978141	0.007179
519.195095	0.007648
519.412031	0.007511
519.628949	0.007651
519.845849	0.007307
520.062731	0.007902
520.279594	0.008674
520.496439	0.008987
520.713266	0.009446
520.930074	0.009141
521.146865	0.009334
521.363637	0.009422
521.580391	0.009520
521.797127	0.010063
522.013844	0.010673
522.230543	0.010117
522.447224	0.010105
522.663887	0.009891
522.880532	0.010276
523.097158	0.009542
523.313766	0.009374
523.530356	0.009668
523.746928	0.009966
523.963481	0.010123
524.180017	0.010272
524.396534	0.010677
524.613032	0.010538
524.829513	0.010322
525.045975	0.010421
525.262420	0.010812
525.478845	0.010600
525.695253	0.010650
525.911643	0.009893
526.128014	0.010641
526.344367	0.010286
526.560702	0.010089
526.777018	0.010570
526.993316	0.011195
527.209597	0.011035
527.425858	0.010936
527.642102	0.011374
527.858328	0.011727
528.074535	0.011285
528.290724	0.010742
528.506894	0.011139
528.723047	0.010545
528.939181	0.011081
529.155297	0.011567
529.371395	0.011951
529.587475	0.011035
529.803536	0.011123
530.019579	0.011589
530.235604	0.012327
530.451611	0.012597
530.667600	0.012989
530.883570	0.012324
531.099522	0.012681
531.315456	0.012687
531.531372	0.013285
531.747269	0.013393
531.963148	0.013280
532.179009	0.013154
532.394852	0.013096
532.610676	0.013450
532.826482	0.013958
533.042271	0.013715
533.258040	0.013991
533.473792	0.014435
533.689525	0.014282
533.905240	0.014366
534.120937	0.014542
534.336616	0.014270
534.552277	0.013698
534.767919	0.013726
534.983543	0.013846
535.199149	0.013622
535.414736	0.012898
535.630306	0.013163
535.845857	0.013702
536.061390	0.013630
536.276904	0.014513
536.492401	0.014936
536.707879	0.015171
536.923339	0.015418
537.138781	0.015489
537.354204	0.016021
537.569610	0.016209
537.784997	0.015726
538.000366	0.016401
538.215716	0.016029
538.431049	0.016328
538.646363	0.016183
538.861659	0.016310
539.076937	0.016738
539.292196	0.017172
539.507438	0.017469
539.722661	0.017733
539.937866	0.017825
540.153052	0.018344
540.368221	0.018460
540.583371	0.018802
540.798503	0.018760
541.013617	0.018778
541.228712	0.018706
541.443789	0.018361
541.658848	0.018392
541.873889	0.018513
542.088912	0.018441
542.303916	0.018309
542.518902	0.018384
542.733870	0.018365
542.948820	0.018771
543.163752	0.018793
543.378665	0.019320
543.593560	0.019775
543.808437	0.019609
544.023295	0.019713
544.238136	0.020054
544.452958	0.019928
544.667762	0.019927
544.882548	0.019735
545.097315	0.020254
545.312064	0.020371
545.526795	0.020287
545.741508	0.020756
545.956203	0.021068
546.170879	0.021039
546.385537	0.021247
546.600177	0.021778
546.814799	0.021845
547.029402	0.021348
547.243988	0.021493
547.458555	0.021622
547.673103	0.021192
547.887634	0.021234
548.102146	0.021142
548.316640	0.021226
548.531116	0.021433
548.745574	0.022057
548.960013	0.022197
549.174435	0.022000
549.388838	0.022049
549.603222	0.022335
549.817589	0.022104
550.031937	0.022367
550.246267	0.022252
550.460579	0.022109
550.674873	0.021767
550.889148	0.022075
551.103405	0.022314
551.317644	0.022542
551.531865	0.022876
551.746068	0.023314
551.960252	0.023463
552.174418	0.023866
552.388566	0.023678
552.602696	0.024141
552.816807	0.023934
553.030900	0.023733
553.244975	0.023727
553.459032	0.023532
553.673070	0.023283
553.887091	0.023342
554.101093	0.022958
554.315077	0.023575
554.529042	0.022786
554.742990	0.023240
554.956919	0.023501
555.170830	0.023208
555.384722	0.023239
555.598597	0.023439
555.812453	0.023839
556.026291	0.024341
556.240111	0.024017
556.453913	0.024190
556.667696	0.024310
556.881461	0.024222
557.095208	0.024630
557.308937	0.024987
557.522647	0.025219
557.736339	0.025061
557.950013	0.025017
558.163669	0.025508
558.377307	0.026084
558.590926	0.026290
558.804527	0.026516
559.018110	0.026209
559.231675	0.026110
559.445221	0.026150
559.658749	0.026169
559.872259	0.026490
560.085751	0.026064
560.299225	0.026060
560.512680	0.026074
560.726117	0.025855
560.939536	0.025983
561.152937	0.025952
561.366319	0.025862
561.579683	0.026008
561.793029	0.026066
562.006357	0.026051
562.219667	0.026205
562.432958	0.026136
562.646231	0.026154
562.859486	0.026152
563.072723	0.026102
563.285941	0.026440
563.499141	0.026387
563.712323	0.026270
563.925487	0.026525
564.138632	0.026480
564.351760	0.026262
564.564869	0.026722
564.777960	0.027272
564.991032	0.027410
565.204087	0.027210
565.417123	0.027316
565.630141	0.027265
565.843140	0.027321
566.056122	0.027562
566.269085	0.027798
566.482030	0.027586
566.694957	0.027677
566.907866	0.027959
567.120756	0.027814
567.333628	0.028048
567.546482	0.028230
567.759318	0.028619
567.972135	0.028390
568.184935	0.028635
568.397716	0.028945
568.610478	0.028776
568.823223	0.028732
569.035949	0.028918
569.248657	0.028780
569.461347	0.028878
569.674019	0.028736
569.886672	0.028831
570.099308	0.028992
570.311925	0.028652
570.524523	0.028653
570.737104	0.028828
570.949666	0.029095
571.162210	0.029251
571.374736	0.029607
571.587244	0.029719
571.799733	0.029969
572.012205	0.029682
572.224658	0.030074
572.437092	0.030169
572.649509	0.030309
572.861907	0.030450
573.074287	0.030326
573.286649	0.029764
573.498993	0.029742
573.711318	0.029561
573.923625	0.029773
574.135914	0.029827
574.348185	0.029879
574.560438	0.029888
574.772672	0.029571
574.984888	0.029856
575.197086	0.030294
575.409266	0.030426
575.621427	0.030540
575.833570	0.030540
576.045695	0.030559
576.257802	0.030894
576.469890	0.030792
576.681961	0.031101
576.894013	0.031089
577.106046	0.031000
577.318062	0.031073
577.530059	0.031106
577.742039	0.031144
577.954000	0.031276
578.165942	0.030997
578.377867	0.030936
578.589773	0.030920
578.801661	0.031006
579.013531	0.031552
579.225382	0.031334
579.437216	0.031610
579.649031	0.031771
579.860828	0.031660
580.072606	0.031966
580.284367	0.032352
580.496109	0.032471
580.707833	0.032608
580.919539	0.032025
581.131227	0.032326
581.342896	0.032321
581.554547	0.032004
581.766180	0.032400
581.977795	0.032736
582.189391	0.032589
582.400969	0.032598
582.612529	0.032253
582.824071	0.032577
583.035595	0.032331
583.247100	0.032358
583.458587	0.032622
583.670056	0.032568
583.881506	0.031989
584.092939	0.032128
584.304353	0.031963
584.515749	0.032469
584.727127	0.032831
584.938486	0.032958
585.149828	0.033118
585.361151	0.033295
585.572456	0.033600
585.783742	0.034021
585.995011	0.034446
586.206261	0.034935
586.417493	0.034836
586.628706	0.034094
586.839902	0.034122
587.051079	0.034296
587.262238	0.034362
587.473379	0.034123
587.684502	0.033997
587.895606	0.033443
588.106692	0.033327
588.317760	0.033262
588.528810	0.033746
588.739841	0.033798
588.950855	0.033521
589.161850	0.033491
589.372827	0.033650
589.583785	0.033874
589.794726	0.034216
590.005648	0.033714
590.216552	0.034014
590.427437	0.034183
590.638305	0.034283
590.849154	0.034580
591.059985	0.034697
591.270798	0.034754
591.481592	0.034922
591.692369	0.034806
591.903127	0.035406
592.113867	0.035542
592.324588	0.035345
592.535292	0.035736
592.745977	0.035654
592.956644	0.035967
593.167293	0.036024
593.377923	0.035922
593.588536	0.035946
593.799130	0.035989
594.009706	0.035847
594.220263	0.035909
594.430803	0.035655
594.641324	0.035704
594.851827	0.035373
595.062312	0.035100
595.272778	0.035039
595.483227	0.035201
595.693657	0.035081
595.904069	0.034935
596.114462	0.034803
596.324838	0.034882
596.535195	0.035057
596.745534	0.035214
596.955855	0.035233
597.166157	0.035245
597.376441	0.035425
597.586707	0.035685
597.796955	0.035899
598.007185	0.036320
598.217396	0.036493
598.427589	0.036614
598.637764	0.036971
598.847921	0.037396
599.058060	0.037721
599.268180	0.037650
599.478282	0.037702
599.688366	0.037635
599.898431	0.037541
600.108479	0.037608
600.318508	0.037664
600.528519	0.037495
600.738511	0.037476
600.948486	0.037231
601.158442	0.037204
601.368380	0.037173
601.578300	0.037194
601.788202	0.037276
601.998085	0.037340
602.207950	0.036900
602.417797	0.036867
602.627626	0.036737
602.837436	0.036961
603.047228	0.036902
603.257002	0.036928
603.466758	0.037313
603.676496	0.037297
603.886215	0.037295
604.095916	0.037648
604.305599	0.037587
604.515264	0.037564
604.724910	0.037388
604.934538	0.037715
605.144148	0.037740
605.353740	0.037590
605.563314	0.037621
605.772869	0.037494
605.982406	0.037656
606.191925	0.037774
606.401425	0.037791
606.610908	0.038100
606.820372	0.038089
607.029818	0.038272
607.239246	0.038448
607.448655	0.038561
607.658047	0.038684
607.867420	0.038964
608.076775	0.038843
608.286111	0.039004
608.495430	0.039143
608.704730	0.039304
608.914012	0.039398
609.123275	0.039288
609.332521	0.039429
609.541748	0.039523
609.750957	0.039329
609.960148	0.039603
610.169321	0.039727
610.378475	0.039585
610.587611	0.039405
610.796729	0.039384
611.005829	0.039524
611.214910	0.039704
611.423974	0.039807
611.633019	0.039790
611.842045	0.039655
612.051054	0.039982
612.260044	0.040026
612.469017	0.040301
612.677970	0.040518
612.886906	0.040577
613.095824	0.040333
613.304723	0.040471
613.513604	0.040636
613.722467	0.040925
613.931311	0.040893
614.140138	0.041009
614.348946	0.041056
614.557736	0.041039
614.766507	0.041115
614.975261	0.041258
615.183996	0.041282
615.392713	0.041123
615.601412	0.041203
615.810092	0.041230
616.018754	0.041348
616.227399	0.041264
616.436024	0.041234
616.644632	0.041345
616.853222	0.041557
617.061793	0.041488
617.270346	0.041622
617.478880	0.041692
617.687397	0.041710
617.895895	0.041828
618.104375	0.042024
618.312837	0.042296
618.521281	0.042154
618.729706	0.042166
618.938113	0.042485
619.146502	0.042713
619.354873	0.042710
619.563226	0.042709
619.771560	0.042651
619.979876	0.042886
620.188174	0.042833
620.396453	0.043042
620.604715	0.043224
620.812958	0.043014
621.021183	0.042923
621.229390	0.042861
621.437578	0.042820
621.645748	0.043061
621.853900	0.042932
622.062034	0.042835
622.270150	0.043155
622.478247	0.043177
622.686326	0.043361
622.894387	0.043562
623.102430	0.043632
623.310454	0.043869
623.518461	0.043717
623.726449	0.043664
623.934418	0.043887
624.142370	0.043752
624.350303	0.043697
624.558218	0.043746
624.766115	0.043633
624.973994	0.043769
625.181855	0.043808
625.389697	0.043715
625.597521	0.043717
625.805327	0.043610
626.013114	0.043400
626.220883	0.043674
626.428634	0.043534
626.636367	0.043483
626.844082	0.043659
627.051778	0.043607
627.259457	0.043912
627.467117	0.044141
627.674758	0.043913
627.882382	0.044073
628.089987	0.043881
628.297574	0.043999
628.505143	0.044253
628.712694	0.044251
628.920226	0.044280
629.127740	0.044347
629.335236	0.044423
629.542714	0.044708
629.750174	0.045089
629.957615	0.045170
630.165038	0.045370
630.372443	0.045422
630.579829	0.045466
630.787198	0.045835
630.994548	0.045894
631.201880	0.046003
631.409194	0.046378
631.616489	0.046247
631.823766	0.046549
632.031025	0.046494
632.238266	0.046678
632.445489	0.046735
632.652693	0.046757
632.859879	0.046924
633.067047	0.047057
633.274197	0.046965
633.481329	0.046879
633.688442	0.046756
633.895537	0.047071
634.102614	0.047076
634.309672	0.047094
634.516713	0.047220
634.723735	0.047070
634.930739	0.047004
635.137724	0.046987
635.344692	0.047273
635.551641	0.047348
635.758572	0.047306
635.965485	0.047423
636.172379	0.047675
636.379256	0.047638
636.586114	0.047727
636.792954	0.047980
636.999775	0.048334
637.206579	0.048100
637.413364	0.048252
637.620131	0.048351
637.826880	0.048507
638.033610	0.048549
638.240323	0.048597
638.447017	0.048727
638.653692	0.048673
638.860350	0.048489
639.066990	0.048667
639.273611	0.048599
639.480214	0.048453
639.686798	0.048285
639.893365	0.048267
640.099913	0.048138
640.306443	0.048039
640.512955	0.047984
640.719449	0.048030
640.925924	0.048223
641.132381	0.048293
641.338820	0.048541
641.545241	0.048710
641.751644	0.048838
641.958028	0.049015
642.164394	0.049215
642.370742	0.049377
642.577071	0.049549
642.783383	0.049538
642.989676	0.049579
643.195951	0.049567
643.402207	0.049784
643.608446	0.049873
643.814666	0.050020
644.020868	0.050248
644.227052	0.050096
644.433218	0.050134
644.639365	0.050197
644.845494	0.050394
645.051605	0.050431
645.257698	0.050159
645.463772	0.050400
645.669828	0.050590
645.875866	0.050621
646.081886	0.050959
646.287888	0.051010
646.493871	0.051216
646.699836	0.051157
646.905783	0.051458
647.111712	0.051784
647.317622	0.051574
647.523514	0.051541
647.729388	0.051563
647.935244	0.051354
648.141082	0.051415
648.346901	0.051563
648.552702	0.051667
648.758485	0.051436
648.964250	0.051373
649.169996	0.051646
649.375724	0.051574
649.581434	0.051541
649.787126	0.051974
649.992800	0.052120
650.198455	0.052097
650.404092	0.052245
650.609711	0.052505
650.815311	0.052660
651.020894	0.052545
651.226458	0.052536
651.432004	0.052625
651.637532	0.052602
651.843041	0.052666
652.048532	0.052822
652.254006	0.052926
652.459460	0.052999
652.664897	0.053123
652.870315	0.053254
653.075716	0.053394
653.281097	0.053641
653.486461	0.053582
653.691807	0.053671
653.897134	0.053682
654.102443	0.053931
654.307734	0.054018
654.513006	0.054167
654.718261	0.054208
654.923497	0.054519
655.128715	0.054615
655.333915	0.054577
655.539096	0.054558
655.744259	0.054736
655.949404	0.054744
656.154531	0.054862
656.359640	0.054838
656.564730	0.055161
656.769802	0.055267
656.974856	0.055349
657.179892	0.055725
657.384909	0.055975
657.589908	0.055942
657.794889	0.055893
657.999852	0.055878
658.204797	0.056033
658.409723	0.055834
658.614631	0.055769
658.819521	0.055611
659.024393	0.055684
659.229246	0.055601
659.434081	0.055769
659.638898	0.055818
659.843697	0.055724
660.048478	0.055574
660.253240	0.055501
660.457984	0.055502
660.662710	0.055524
660.867417	0.055595
661.072107	0.055715
661.276778	0.055769
661.481431	0.056121
661.686066	0.056321
661.890682	0.056434
662.095281	0.056685
662.299861	0.056717
662.504422	0.056743
662.708966	0.056735
662.913491	0.056784
663.117999	0.056788
663.322488	0.056546
663.526958	0.057006
663.731411	0.057418
663.935845	0.057592
664.140261	0.057807
664.344659	0.058051
664.549038	0.058289
664.753400	0.058487
664.957743	0.058710
665.162068	0.058728
665.366375	0.058455
665.570663	0.058341
665.774933	0.058523
665.979185	0.058464
666.183419	0.058628
666.387635	0.058609
666.591832	0.058870
666.796011	0.058803
667.000172	0.059151
667.204315	0.059331
667.408439	0.059349
667.612545	0.059456
667.816634	0.059614
668.020703	0.059628
668.224755	0.059721
668.428788	0.059750
668.632803	0.059870
668.836800	0.059901
669.040779	0.060147
669.244739	0.060337
669.448681	0.060366
669.652605	0.060545
669.856511	0.060826
670.060399	0.061005
670.264268	0.060712
670.468119	0.060878
670.671952	0.061012
670.875767	0.061000
671.079563	0.061036
671.283341	0.061197
671.487101	0.061165
671.690843	0.061372
671.894567	0.061532
672.098272	0.061916
672.301959	0.061888
672.505628	0.062009
672.709278	0.062267
672.912911	0.062220
673.116525	0.062304
673.320121	0.062579
673.523699	0.062468
673.727258	0.062256
673.930799	0.062278
674.134322	0.062575
674.337827	0.062700
674.541314	0.062661
674.744782	0.063072
674.948232	0.062930
675.151664	0.063050
675.355078	0.063224
675.558474	0.063465
675.761851	0.063631
675.965210	0.063444
676.168551	0.063607
676.371873	0.063683
676.575178	0.063626
676.778464	0.063788
676.981732	0.063881
677.184981	0.064040
677.388213	0.064201
677.591426	0.064486
677.794621	0.064793
677.997798	0.064658
678.200956	0.064716
678.404097	0.064866
678.607219	0.065297
678.810323	0.065231
679.013408	0.065319
679.216476	0.065544
679.419525	0.065469
679.622556	0.065607
679.825569	0.065668
680.028563	0.065746
680.231540	0.065684
680.434498	0.065499
680.637438	0.065660
680.840359	0.065620
681.043263	0.065402
681.246148	0.065281
681.449015	0.065256
681.651864	0.065560
681.854694	0.065769
682.057506	0.065976
682.260301	0.066005
682.463076	0.066190
682.665834	0.066202
682.868573	0.066488
683.071295	0.066803
683.273998	0.067020
683.476682	0.067005
683.679349	0.066990
683.881997	0.066991
684.084627	0.067200
684.287239	0.067200
684.489833	0.067373
684.692408	0.067279
684.894965	0.067411
685.097504	0.067366
685.300025	0.067307
685.502527	0.067315
685.705012	0.067488
685.907478	0.067355
686.109925	0.067414
686.312355	0.067558
686.514766	0.067682
686.717159	0.067528
686.919534	0.067490
687.121891	0.067696
687.324230	0.067728
687.526550	0.067727
687.728852	0.067892
687.931136	0.068081
688.133401	0.068053
688.335649	0.068140
688.537878	0.068370
688.740089	0.068520
688.942281	0.068502
689.144456	0.068870
689.346612	0.068834
689.548750	0.069034
689.750870	0.068962
689.952971	0.068939
690.155055	0.069123
690.357120	0.068969
690.559167	0.069073
690.761195	0.069198
690.963206	0.068994
691.165198	0.069108
691.367172	0.068935
691.569128	0.068952
691.771065	0.069103
691.972984	0.069030
692.174885	0.069280
692.376768	0.069204
692.578633	0.069164
692.780479	0.069264
692.982308	0.069474
693.184118	0.069502
693.385909	0.069694
693.587683	0.069776
693.789438	0.069918
693.991175	0.069945
694.192894	0.070155
694.394595	0.070426
694.596277	0.070434
694.797941	0.070350
694.999587	0.070768
695.201215	0.070745
695.402824	0.070826
695.604416	0.070977
695.805989	0.071021
696.007543	0.070947
696.209080	0.071071
696.410598	0.071211
696.612099	0.071422
696.813580	0.071222
697.015044	0.071481
697.216490	0.071380
697.417917	0.071398
697.619326	0.071340
697.820717	0.071481
698.022089	0.071330
698.223444	0.071277
698.424780	0.071265
698.626098	0.071347
698.827397	0.071270
699.028679	0.071484
699.229942	0.071548
699.431187	0.071761
699.632414	0.071869
699.833622	0.071992
700.034813	0.072341
700.235985	0.072592
700.437139	0.072803
700.638274	0.072799
700.839392	0.072899
701.040491	0.072970
701.241572	0.072989
701.442635	0.073067
701.643679	0.073123
701.844706	0.073029
702.045714	0.072812
702.246704	0.072636
702.447675	0.072756
702.648629	0.072777
702.849564	0.072763
703.050481	0.072588
703.251380	0.072521
703.452260	0.072679
703.653122	0.072625
703.853966	0.072745
704.054792	0.073012
704.255600	0.072878
704.456389	0.072678
704.657160	0.072557
704.857913	0.072691
705.058648	0.072973
705.259365	0.072714
705.460063	0.072662
705.660743	0.072491
705.861405	0.072518
706.062048	0.072659
706.262674	0.072865
706.463281	0.072817
706.663870	0.072800
706.864441	0.072469
707.064993	0.072590
707.265527	0.072807
707.466043	0.073079
707.666541	0.073008
707.867021	0.073144
708.067482	0.073273
708.267925	0.073472
708.468350	0.073787
708.668757	0.074059
708.869145	0.074147
709.069516	0.074159
709.269868	0.074149
709.470201	0.074118
709.670517	0.074130
709.870814	0.073966
710.071093	0.074051
710.271354	0.073923
710.471597	0.073804
710.671821	0.073915
710.872028	0.073816
711.072216	0.073893
711.272385	0.073866
711.472537	0.073787
711.672670	0.073892
711.872785	0.073880
712.072882	0.073957
712.272961	0.073884
712.473021	0.073685
712.673063	0.073706
712.873087	0.073494
713.073093	0.073554
713.273081	0.073432
713.473050	0.073322
713.673001	0.073160
713.872934	0.073143
714.072849	0.073333
714.272745	0.073426
714.472623	0.073298
714.672483	0.073274
714.872325	0.073234
715.072148	0.073099
715.271954	0.073115
715.471741	0.073066
715.671509	0.072783
715.871260	0.072627
716.070992	0.072367
716.270707	0.072506
716.470403	0.072482
716.670080	0.072522
716.869740	0.072527
717.069381	0.072629
717.269004	0.072562
717.468609	0.072635
717.668195	0.072596
717.867764	0.072539
718.067314	0.072162
718.266846	0.072110
718.466360	0.071904
718.665855	0.071877
718.865332	0.071660
719.064791	0.071733
719.264232	0.071651
719.463655	0.071463
719.663059	0.071530
719.862445	0.071822
720.061813	0.071893
720.261163	0.071873
720.460494	0.071946
720.659807	0.072094
720.859102	0.072221
721.058379	0.072242
721.257638	0.072167
721.456878	0.072103
721.656100	0.071811
721.855304	0.071731
722.054490	0.071683
722.253657	0.071714
722.452806	0.071445
722.651937	0.071109
722.851050	0.071037
723.050145	0.071054
723.249221	0.070941
723.448279	0.071041
723.647319	0.070902
723.846340	0.070941
724.045344	0.070746
724.244329	0.070597
724.443296	0.070711
724.642245	0.070768
724.841175	0.070687
725.040088	0.070755
725.238982	0.070660
725.437857	0.070510
725.636715	0.070296
725.835554	0.070327
726.034376	0.070278
726.233179	0.070056
726.431963	0.069884
726.630730	0.070051
726.829478	0.069819
727.028208	0.069892
727.226920	0.069897
727.425614	0.070010
727.624289	0.069653
727.822946	0.069773
728.021585	0.069726
728.220206	0.069730
728.418808	0.069463
728.617392	0.069534
728.815958	0.069320
729.014506	0.069554
729.213036	0.069538
729.411547	0.069723
729.610040	0.069701
729.808515	0.069951
730.006972	0.069674
730.205410	0.069869
730.403831	0.069901
730.602233	0.069874
730.800616	0.069569
730.998982	0.069547
731.197329	0.069457
731.395658	0.069135
731.593969	0.068565
731.792262	0.068718
731.990536	0.068499
732.188793	0.068601
732.387031	0.068556
732.585250	0.068586
732.783452	0.068263
732.981635	0.068270
733.179800	0.068265
733.377947	0.068504
733.576076	0.068291
733.774186	0.068067
733.972278	0.067797
734.170352	0.067599
734.368408	0.067513
734.566446	0.067380
734.764465	0.067453
734.962466	0.067326
735.160449	0.067174
735.358413	0.067143
735.556360	0.067252
735.754288	0.067264
735.952198	0.067296
736.150090	0.066991
736.347963	0.066981
736.545818	0.066529
736.743655	0.066593
736.941474	0.066411
737.139275	0.066106
737.337057	0.065991
737.534821	0.065826
737.732567	0.065545
737.930295	0.065456
738.128005	0.065323
738.325696	0.065336
738.523369	0.064981
738.721024	0.064864
738.918660	0.064971
739.116279	0.064690
739.313879	0.064542
739.511461	0.064637
739.709024	0.064377
739.906570	0.064166
740.104097	0.064055
740.301606	0.064137
740.499097	0.064357
740.696569	0.064537
740.894024	0.064602
741.091460	0.064544
741.288878	0.064579
741.486277	0.064793
741.683659	0.064859
741.881022	0.064765
742.078367	0.064890
742.275694	0.064594
742.473002	0.064524
742.670293	0.064349
742.867565	0.064250
743.064819	0.064082
743.262054	0.063900
743.459272	0.063880
743.656471	0.063952
743.853652	0.063686
744.050815	0.063915
744.247959	0.063486
744.445085	0.063400
744.642194	0.063524
744.839283	0.063635
745.036355	0.063657
745.233408	0.063471
745.430444	0.063176
745.627461	0.063100
745.824459	0.062841
746.021440	0.062764
746.218402	0.062689
746.415346	0.062286
746.612272	0.061864
746.809180	0.061793
747.006069	0.061824
747.202940	0.061897
747.399793	0.061743
747.596628	0.061418
747.793444	0.061606
747.990243	0.061368
748.187023	0.061350
748.383784	0.061297
748.580528	0.061012
748.777253	0.060978
748.973960	0.060664
749.170649	0.060587
749.367320	0.060608
749.563973	0.060205
749.760607	0.060292
749.957223	0.060197
750.153821	0.060339
750.350400	0.060317
750.546962	0.060324
750.743505	0.060542
750.940030	0.060460
751.136536	0.060338
751.333025	0.060508
751.529495	0.060512
751.725947	0.060381
751.922381	0.059997
752.118796	0.059872
752.315194	0.059528
752.511573	0.059199
752.707934	0.059041
752.904276	0.059031
753.100601	0.058659
753.296907	0.058398
753.493195	0.058302
753.689465	0.058513
753.885716	0.058504
754.081949	0.058442
754.278164	0.058355
754.474361	0.058260
754.670540	0.058176
754.866700	0.058067
755.062843	0.057946
755.258967	0.057836
755.455072	0.057540
755.651160	0.057730
755.847229	0.057838
756.043280	0.057959
756.239313	0.057961
756.435328	0.057882
756.631324	0.057993
756.827302	0.057949
757.023262	0.057761
757.219204	0.057718
757.415127	0.057425
757.611033	0.057348
757.806920	0.057336
758.002788	0.057204
758.198639	0.057062
758.394471	0.056997
758.590286	0.057021
758.786081	0.057132
758.981859	0.056992
759.177619	0.056584
759.373360	0.056361
759.569083	0.055792
759.764788	0.055674
759.960474	0.055485
760.156143	0.055400
760.351793	0.055157
760.547425	0.054969
760.743038	0.054955
760.938634	0.055120
761.134211	0.054865
761.329770	0.055203
761.525311	0.055079
761.720833	0.055063
761.916338	0.054885
762.111824	0.054919
762.307292	0.054928
762.502741	0.054953
762.698173	0.054812
762.893586	0.054902
763.088981	0.054855
763.284358	0.054886
763.479716	0.054767
763.675057	0.054728
763.870379	0.054692
764.065683	0.054564
764.260968	0.054390
764.456236	0.054289
764.651485	0.054005
764.846716	0.053615
765.041929	0.053406
765.237123	0.053386
765.432299	0.053202
765.627457	0.053140
765.822597	0.053226
766.017719	0.053297
766.212822	0.053369
766.407907	0.053684
766.602974	0.053871
766.798023	0.053958
766.993054	0.053816
767.188066	0.053938
767.383060	0.053741
767.578036	0.053336
767.772993	0.052970
767.967933	0.052820
768.162854	0.052631
768.357757	0.052553
768.552642	0.052439
768.747508	0.052453
768.942356	0.052167
769.137186	0.052083
769.331998	0.052258
769.526792	0.052428
769.721567	0.052577
769.916324	0.052501
770.111063	0.052196
770.305784	0.052109
770.500486	0.052150
770.695171	0.052392
770.889837	0.052684
771.084484	0.052525
771.279114	0.052332
771.473725	0.052188
771.668318	0.052078
771.862893	0.052341
772.057450	0.052343
772.251988	0.052095
772.446509	0.051833
772.641011	0.051720
772.835494	0.051805
773.029960	0.051996
773.224407	0.051782
773.418836	0.051883
773.613247	0.051708
773.807640	0.051892
774.002014	0.051982
774.196370	0.052169
774.390708	0.051949
774.585028	0.051824
774.779330	0.051466
774.973613	0.051495
775.167878	0.051474
775.362125	0.051349
775.556354	0.051251
775.750564	0.051412
775.944756	0.051452
776.138930	0.051391
776.333086	0.051482
776.527223	0.051629
776.721343	0.051878
776.915444	0.051774
777.109526	0.052004
777.303591	0.052024
777.497637	0.051713
777.691666	0.051705
777.885676	0.051801
778.079667	0.051717
778.273641	0.051688
778.467596	0.051489
778.661533	0.051498
778.855452	0.051545
779.049352	0.051445
779.243235	0.051675
779.437099	0.051349
779.630945	0.051451
779.824773	0.051284
780.018582	0.051347
780.212373	0.051347
780.406146	0.051246
780.599901	0.051052
780.793638	0.051200
780.987356	0.051091
781.181056	0.051314
781.374738	0.051018
781.568402	0.051098
781.762047	0.050976
781.955674	0.050938
782.149283	0.051029
782.342874	0.051033
782.536447	0.051023
782.730001	0.051131
782.923537	0.051170
783.117055	0.051371
783.310555	0.051590
783.504036	0.051667
783.697499	0.051648
783.890944	0.051581
784.084371	0.051712
784.277780	0.051603
784.471170	0.051447
784.664542	0.051471
784.857896	0.051328
785.051231	0.051176
785.244549	0.051370
785.437848	0.051382
785.631129	0.051621
785.824392	0.051568
786.017636	0.051556
786.210863	0.051590
786.404071	0.051492
786.597260	0.051706
786.790432	0.051945
786.983585	0.051936
787.176721	0.052051
787.369838	0.052006
787.562936	0.052155
787.756017	0.052140
787.949079	0.052224
788.142123	0.052308
788.335149	0.052376
788.528156	0.052412
788.721146	0.052318
788.914117	0.052509
789.107070	0.052666
789.300005	0.052505
789.492921	0.052747
789.685819	0.052823
789.878699	0.052732
790.071561	0.052718
790.264405	0.052511
790.457230	0.052430
790.650037	0.052219
790.842826	0.052120
791.035597	0.052238
791.228349	0.052142
791.421084	0.052215
791.613800	0.052321
791.806497	0.052405
791.999177	0.052590
792.191838	0.052566
792.384481	0.052745
792.577106	0.052580
792.769713	0.052635
792.962301	0.052514
793.154871	0.052639
793.347423	0.052795
793.539957	0.052776
793.732473	0.052759
793.924970	0.052969
794.117449	0.053074
794.309910	0.053332
794.502353	0.053491
794.694777	0.053627
794.887183	0.053643
795.079571	0.053538
795.271941	0.053633
795.464293	0.053690
795.656626	0.053734
795.848941	0.053946
796.041238	0.053961
796.233516	0.053997
796.425777	0.054236
796.618019	0.054298
796.810243	0.054488
797.002449	0.054601
797.194636	0.054775
797.386805	0.055079
797.578956	0.055018
797.771089	0.055098
797.963204	0.055126
798.155300	0.055219
798.347378	0.055087
798.539438	0.055088
798.731480	0.055082
798.923503	0.055341
799.115509	0.055263
799.307496	0.055377
799.499465	0.055343
799.691415	0.055475
799.883348	0.055289
800.075262	0.055650
800.267158	0.055747
800.459035	0.055798
800.650895	0.055504
800.842736	0.055603
801.034559	0.055497
801.226364	0.055698
801.418150	0.055644
801.609919	0.055851
801.801669	0.055936
801.993401	0.056094
802.185114	0.056461
802.376810	0.056675
802.568487	0.056838
802.760146	0.056996
802.951787	0.057062
803.143409	0.057366
803.335014	0.057638
803.526600	0.057789
803.718168	0.057813
803.909717	0.057687
804.101249	0.057799
804.292762	0.057984
804.484257	0.058157
804.675734	0.058277
804.867192	0.058067
805.058632	0.058301
805.250054	0.058269
805.441458	0.058120
805.632844	0.058417
805.824211	0.058682
806.015561	0.058608
806.206891	0.058663
806.398204	0.058710
806.589499	0.059021
806.780775	0.058820
806.972033	0.058852
807.163273	0.059020
807.354495	0.058801
807.545698	0.058915
807.736883	0.059199
807.928050	0.059243
808.119199	0.059560
808.310329	0.059655
808.501441	0.059969
808.692535	0.060242
808.883611	0.060519
809.074669	0.060907
809.265708	0.060963
809.456729	0.060807
809.647732	0.061003
809.838717	0.060937
810.029683	0.061106
810.220632	0.060963
810.411562	0.060928
810.602474	0.061139
810.793367	0.061292
810.984242	0.061308
811.175100	0.061413
811.365938	0.061673
811.556759	0.062050
811.747562	0.062065
811.938346	0.062340
812.129112	0.062613
812.319860	0.062658
812.510589	0.062682
812.701300	0.062889
812.891994	0.063064
813.082668	0.063058
813.273325	0.063089
813.463964	0.063276
813.654584	0.063274
813.845186	0.063226
814.035769	0.063503
814.226335	0.063675
814.416882	0.063831
814.607411	0.064098
814.797922	0.064171
814.988415	0.064109
815.178889	0.064337
815.369345	0.064590
815.559783	0.064628
815.750203	0.064687
815.940605	0.064679
816.130988	0.064811
816.321353	0.064905
816.511700	0.065110
816.702028	0.065428
816.892339	0.065607
817.082631	0.065897
817.272905	0.066228
817.463161	0.066369
817.653398	0.066488
817.843617	0.066737
818.033819	0.066929
818.224001	0.067152
818.414166	0.067361
818.604312	0.067459
818.794440	0.067527
818.984550	0.067590
819.174642	0.067823
819.364716	0.068065
819.554771	0.068180
819.744808	0.068468
819.934827	0.068573
820.124827	0.068666
820.314810	0.068767
820.504774	0.068889
820.694720	0.068902
820.884647	0.069051
821.074557	0.069017
821.264448	0.068881
821.454321	0.068952
821.644176	0.068979
821.834012	0.068900
822.023831	0.068839
822.213631	0.069004
822.403413	0.069481
822.593176	0.069466
822.782922	0.069742
822.972649	0.070177
823.162358	0.070138
823.352049	0.070406
823.541721	0.070885
823.731376	0.071042
823.921012	0.071242
824.110629	0.071375
824.300229	0.071722
824.489811	0.072110
824.679374	0.072280
824.868919	0.072470
825.058445	0.072876
825.247954	0.072938
825.437444	0.073481
825.626916	0.073651
825.816370	0.073887
826.005806	0.074151
826.195223	0.074091
826.384622	0.074166
826.574003	0.074258
826.763366	0.073956
826.952711	0.073686
827.142037	0.073874
827.331345	0.074119
827.520635	0.074283
827.709906	0.074236
827.899160	0.074343
828.088395	0.074577
828.277612	0.075197
828.466810	0.075567
828.655991	0.076281
828.845153	0.076489
829.034297	0.076889
829.223423	0.076987
829.412531	0.077430
829.601620	0.077863
829.790691	0.078121
829.979744	0.078218
830.168779	0.078369
830.357795	0.078519
830.546793	0.078538
830.735773	0.078559
830.924735	0.078652
831.113679	0.078745
831.302604	0.078934
831.491511	0.079068
831.680400	0.079198
831.869271	0.079750
832.058123	0.079933
832.246957	0.080113
832.435773	0.080374
832.624571	0.080686
832.813351	0.080962
833.002112	0.081311
833.190855	0.081491
833.379580	0.081698
833.568287	0.081832
833.756975	0.082138
833.945645	0.082443
834.134297	0.082472
834.322931	0.082364
834.511547	0.082403
834.700144	0.082431
834.888723	0.082666
835.077284	0.082779
835.265826	0.083025
835.454351	0.083175
835.642857	0.083300
835.831345	0.083782
836.019815	0.084299
836.208266	0.084502
836.396699	0.084833
836.585114	0.085086
836.773511	0.085528
836.961890	0.085450
837.150250	0.085763
837.338592	0.086106
837.526916	0.085981
837.715222	0.086268
837.903510	0.086751
838.091779	0.087046
838.280030	0.087427
838.468263	0.087390
838.656477	0.087880
838.844674	0.088204
839.032852	0.088399
839.221012	0.088909
839.409153	0.089196
839.597277	0.089328
839.785382	0.089424
839.973469	0.089535
840.161538	0.089925
840.349589	0.090177
840.537621	0.090408
840.725635	0.090726
840.913631	0.090887
841.101609	0.091116
841.289568	0.091268
841.477509	0.091583
841.665432	0.092019
841.853337	0.092246
842.041224	0.092523
842.229092	0.092491
842.416942	0.092828
842.604774	0.093056
842.792588	0.093184
842.980383	0.093586
843.168160	0.093957
843.355919	0.093823
843.543660	0.093995
843.731382	0.093974
843.919087	0.094396
844.106773	0.094615
844.294441	0.094926
844.482090	0.095345
844.669722	0.095573
844.857335	0.095503
845.044930	0.095902
845.232507	0.096502
845.420065	0.096751
845.607605	0.097012
845.795127	0.097111
845.982631	0.097299
846.170117	0.097311
846.357584	0.097495
846.545033	0.098005
846.732464	0.098317
846.919877	0.098141
847.107272	0.098670
847.294648	0.099000
847.482006	0.099234
847.669346	0.099530
847.856667	0.100125
848.043971	0.100372
848.231256	0.100670
848.418523	0.100918
848.605771	0.101294
848.793002	0.101378
848.980214	0.101456
849.167408	0.101687
849.354584	0.101948
849.541742	0.101932
849.728881	0.102091
849.916002	0.102137
850.103105	0.102445
850.290190	0.102547
850.477256	0.102856
850.664304	0.103006
850.851334	0.103114
851.038346	0.103269
851.225340	0.103482
851.412315	0.103971
851.599272	0.104297
851.786211	0.104550
851.973132	0.105179
852.160034	0.105405
852.346918	0.105594
852.533784	0.105888
852.720632	0.105973
852.907462	0.106213
853.094273	0.106307
853.281066	0.106446
853.467841	0.106567
853.654598	0.106218
853.841336	0.106177
854.028056	0.106290
854.214758	0.106390
854.401442	0.106477
854.588107	0.106789
854.774755	0.106878
854.961384	0.106977
855.147995	0.107294
855.334587	0.107583
855.521162	0.107760
855.707718	0.108105
855.894256	0.108456
856.080775	0.108574
856.267277	0.108614
856.453760	0.108682
856.640225	0.109253
856.826672	0.109208
857.013101	0.109467
857.199511	0.110009
857.385903	0.110493
857.572277	0.110598
857.758633	0.111347
857.944970	0.111790
858.131290	0.112132
858.317591	0.112278
858.503873	0.112607
858.690138	0.113011
858.876384	0.113144
859.062612	0.113109
859.248822	0.113378
859.435014	0.113206
859.621188	0.113323
859.807343	0.113414
859.993480	0.113410
860.179599	0.113705
860.365699	0.113774
860.551781	0.113919
860.737846	0.114155
860.923891	0.114233
861.109919	0.114521
861.295929	0.114643
861.481920	0.115119
861.667893	0.115406
861.853848	0.115300
862.039784	0.115347
862.225702	0.115375
862.411603	0.115680
862.597484	0.115958
862.783348	0.116247
862.969193	0.116338
863.155021	0.116414
863.340830	0.116571
863.526620	0.116915
863.712393	0.117467
863.898147	0.117788
864.083883	0.117466
864.269601	0.117585
864.455301	0.117618
864.640982	0.117868
864.826645	0.117884
865.012290	0.117910
865.197917	0.118192
865.383526	0.118411
865.569116	0.118720
865.754688	0.119493
865.940242	0.119715
866.125777	0.119980
866.311295	0.120146
866.496794	0.120705
866.682275	0.121129
866.867737	0.121196
867.053182	0.121054
867.238608	0.121071
867.424016	0.120774
867.609406	0.121302
867.794778	0.121248
867.980131	0.121468
868.165466	0.121336
868.350783	0.121272
868.536082	0.121158
868.721362	0.121431
868.906625	0.121647
869.091869	0.121964
869.277094	0.121787
869.462302	0.122204
869.647491	0.122377
869.832662	0.122397
870.017815	0.122629
870.202950	0.123010
870.388066	0.123528
870.573165	0.123574
870.758245	0.123610
870.943306	0.123721
871.128350	0.123693
871.313375	0.123883
871.498382	0.124389
871.683371	0.124668
871.868342	0.124769
872.053294	0.124776
872.238229	0.124912
872.423144	0.125263
872.608042	0.125303
872.792922	0.125460
872.977783	0.125578
873.162626	0.125498
873.347451	0.125321
873.532258	0.125221
873.717046	0.125194
873.901816	0.125500
874.086568	0.125374
874.271302	0.125609
874.456017	0.125761
874.640715	0.125936
874.825394	0.125874
875.010055	0.126442
875.194697	0.126689
875.379322	0.126982
875.563928	0.126876
875.748516	0.127429
875.933085	0.127556
876.117637	0.127901
876.302170	0.128140
876.486685	0.128393
876.671182	0.127985
876.855661	0.128381
877.040121	0.128170
877.224563	0.128396
877.408987	0.128108
877.593393	0.128265
877.777780	0.127892
877.962150	0.127713
878.146501	0.127813
878.330833	0.127973
878.515148	0.127780
878.699444	0.127750
878.883722	0.127874
879.067982	0.128212
879.252224	0.128189
879.436447	0.128776
879.620653	0.128992
879.804840	0.129122
879.989008	0.129386
880.173159	0.129557
880.357291	0.130366
880.541405	0.130366
880.725501	0.130621
880.909579	0.130785
881.093638	0.130799
881.277680	0.130860
881.461703	0.130997
881.645707	0.130867
881.829694	0.131025
882.013662	0.130682
882.197612	0.130720
882.381544	0.130715
882.565458	0.130950
882.749353	0.131075
882.933230	0.131429
883.117089	0.131525
883.300930	0.131825
883.484753	0.132169
883.668557	0.132181
883.852343	0.132564
884.036111	0.132402
884.219861	0.132790
884.403592	0.133097
884.587305	0.132677
884.771000	0.133109
884.954677	0.133458
885.138335	0.133322
885.321976	0.133634
885.505598	0.133598
885.689201	0.133848
885.872787	0.133911
886.056354	0.133608
886.239904	0.134229
886.423434	0.134082
886.606947	0.133974
886.790442	0.134501
886.973918	0.134355
887.157376	0.134282
887.340816	0.134636
887.524237	0.134412
887.707641	0.134283
887.891026	0.134011
888.074393	0.134124
888.257741	0.134086
888.441072	0.133888
888.624384	0.133754
888.807678	0.133585
888.990954	0.132853
889.174211	0.132499
889.357451	0.132616
889.540672	0.132419
889.723875	0.132265
889.907059	0.131940
890.090226	0.131442
890.273374	0.131298
890.456504	0.131406
890.639616	0.131652
890.822709	0.131917
891.005785	0.131872
891.188842	0.132098
891.371881	0.131499
891.554901	0.131544
891.737904	0.131275
891.920888	0.131447
892.103854	0.131323
892.286802	0.131206
892.469731	0.130926
892.652643	0.131450
892.835536	0.131262
893.018410	0.131933
893.201267	0.132113
893.384106	0.132543
893.566926	0.132854
893.749728	0.132903
893.932511	0.133153
894.115277	0.133051
894.298024	0.132611
894.480753	0.132425
894.663464	0.131942
894.846157	0.131928
895.028831	0.132048
895.211487	0.131554
895.394125	0.131840
895.576745	0.131648
895.759346	0.131852
895.941930	0.131822
896.124495	0.132020
896.307041	0.132275
896.489570	0.132112
896.672080	0.131933
896.854573	0.131945
897.037046	0.132172
897.219502	0.132239
897.401940	0.132497
897.584359	0.132233
897.766760	0.132148
897.949143	0.132152
898.131507	0.132155
898.313854	0.132381
898.496182	0.132372
898.678492	0.131669
898.860783	0.131448
899.043057	0.131014
899.225312	0.130739
899.407549	0.130264
899.589768	0.130016
899.771968	0.129840
899.954151	0.129266
900.136315	0.129159
900.318461	0.128894
900.500588	0.128651
900.682698	0.128688
900.864789	0.129152
901.046862	0.129257
901.228917	0.128798
901.410953	0.128720
901.592971	0.128731
901.774972	0.128290
901.956953	0.128302
902.138917	0.128266
902.320862	0.128115
902.502790	0.127748
902.684699	0.127583
902.866589	0.127625
903.048462	0.127636
903.230316	0.127263
903.412152	0.127138
903.593970	0.126889
903.775770	0.126963
903.957551	0.126981
904.139314	0.126686
904.321059	0.126505
904.502786	0.126156
904.684494	0.125582
904.866185	0.125706
905.047857	0.125594
905.229510	0.125534
905.411146	0.125356
905.592763	0.124633
905.774363	0.124421
905.955943	0.124862
906.137506	0.125013
906.319051	0.125027
906.500577	0.124798
906.682085	0.124774
906.863575	0.124520
907.045046	0.123960
907.226500	0.123936
907.407935	0.123872
907.589352	0.123448
907.770750	0.123278
907.952131	0.123047
908.133493	0.122726
908.314837	0.123170
908.496163	0.123208
908.677470	0.123066
908.858760	0.123138
909.040031	0.122751
909.221284	0.122401
909.402518	0.122188
909.583735	0.122078
909.764933	0.121988
909.946113	0.121204
910.127275	0.120865
910.308418	0.120772
910.489544	0.120496
910.670651	0.120567
910.851740	0.120222
911.032810	0.120247
911.213863	0.119727
911.394897	0.119503
911.575913	0.118894
911.756911	0.118642
911.937890	0.118541
912.118851	0.118150
912.299794	0.117533
912.480719	0.117623
912.661626	0.116913
912.842514	0.116707
913.023384	0.116284
913.204236	0.116443
913.385070	0.116272
913.565886	0.115906
913.746683	0.115343
913.927462	0.115287
914.108223	0.115220
914.288965	0.115569
914.469690	0.115807
914.650396	0.115791
914.831084	0.115356
915.011754	0.115172
915.192405	0.115456
915.373038	0.115809
915.553653	0.115646
915.734250	0.114889
915.914829	0.114125
916.095389	0.113744
916.275931	0.113336
916.456455	0.113411
916.636961	0.113484
916.817448	0.112523
916.997917	0.112038
917.178368	0.111806
917.358801	0.111584
917.539216	0.111393
917.719612	0.111183
917.899990	0.110685
918.080350	0.110159
918.260692	0.109553
918.441015	0.109190
918.621320	0.108872
918.801607	0.108508
918.981876	0.108099
919.162127	0.107356
919.342359	0.107157
919.522573	0.107239
919.702769	0.106803
919.882947	0.106330
920.063106	0.106266
920.243247	0.106437
920.423370	0.105962
920.603475	0.105836
920.783562	0.105868
920.963630	0.105141
921.143680	0.104036
921.323712	0.103836
921.503725	0.103270
921.683721	0.103008
921.863698	0.102099
922.043657	0.101684
922.223598	0.101171
922.403520	0.100486
922.583424	0.100002
922.763311	0.100471
922.943178	0.099723
923.123028	0.099945
923.302859	0.099381
923.482673	0.098750
923.662467	0.098760
923.842244	0.098412
924.022003	0.098182
924.201743	0.098220
924.381465	0.098123
924.561169	0.097633
924.740854	0.097222
924.920522	0.096799
925.100171	0.097077
925.279802	0.096657
925.459414	0.096286
925.639009	0.096127
925.818585	0.095251
925.998143	0.094546
926.177683	0.094461
926.357205	0.093517
926.536708	0.092526
926.716193	0.091747
926.895660	0.090564
927.075109	0.090004
927.254539	0.089628
927.433951	0.089330
927.613345	0.088487
927.792721	0.087920
927.972079	0.087215
928.151418	0.087451
928.330739	0.086784
928.510042	0.087138
928.689327	0.086713
928.868593	0.086210
929.047841	0.085228
929.227071	0.084779
929.406283	0.084239
929.585476	0.083926
929.764652	0.083257
929.943809	0.082761
930.122948	0.081595
930.302068	0.081221
930.481171	0.080624
930.660255	0.080699
930.839321	0.080156
931.018369	0.079607
931.197398	0.079623
931.376409	0.079168
931.555402	0.079023
931.734377	0.078921
931.913334	0.078246
932.092272	0.077926
932.271192	0.078144
932.450094	0.077871
932.628978	0.077783
932.807844	0.076984
932.986691	0.076513
933.165520	0.075734
933.344331	0.075956
933.523123	0.074924
933.701898	0.074557
933.880654	0.073627
934.059392	0.073265
934.238111	0.072216
934.416813	0.071977
934.595496	0.071387
934.774161	0.070642
934.952808	0.068576
935.131437	0.067956
935.310047	0.067297
935.488639	0.066545
935.667213	0.065249
935.845769	0.065041
936.024306	0.063960
936.202825	0.063913
936.381326	0.063403
936.559809	0.063885
936.738274	0.063812
936.916720	0.062882
937.095148	0.062275
937.273558	0.062177
937.451950	0.062089
937.630323	0.061806
937.808678	0.061163
937.987015	0.060802
938.165334	0.059994
938.343635	0.059984
938.521917	0.060696
938.700181	0.059824
938.878427	0.059909
939.056655	0.059439
939.234864	0.059162
939.413055	0.058118
939.591228	0.057058
939.769383	0.057134
939.947519	0.056968
940.125638	0.054590
940.303738	0.054120
940.481820	0.052612
940.659883	0.051650
940.837929	0.051105
941.015956	0.050527
941.193965	0.051174
941.371955	0.050811
941.549928	0.049747
941.727882	0.049174
941.905818	0.049351
942.083736	0.049300
942.261636	0.048318
942.439517	0.048532
942.617380	0.048139
942.795225	0.047298
942.973052	0.045127
943.150860	0.044033
943.328651	0.044597
943.506423	0.043341
943.684176	0.043581
943.861912	0.044191
944.039629	0.042632
944.217328	0.041596
944.395009	0.041070
944.572672	0.041643
944.750317	0.040489
944.927943	0.039572
945.105551	0.038933
945.283141	0.037761
945.460712	0.037033
945.638265	0.036374
945.815801	0.036399
945.993317	0.037284
946.170816	0.035633
946.348297	0.037016
946.525759	0.036819
946.703203	0.037586
946.880629	0.037670
947.058036	0.036778
947.235425	0.036602
947.412797	0.036266
947.590149	0.033557
947.767484	0.033936
947.944800	0.032101
948.122099	0.031475
948.299379	0.030195
948.476640	0.028313
948.653884	0.028824
948.831109	0.028503
949.008316	0.028219
949.185505	0.028342
949.362676	0.026143
949.539828	0.026680
949.716962	0.025889
949.894078	0.024783
950.071176	0.024447
950.248256	0.023793
950.425317	0.022484
950.602360	0.021773
950.779385	0.020757
950.956391	0.022390
951.133380	0.021214
951.310350	0.020598
951.487302	0.019805
951.664235	0.019247
951.841151	0.017375
952.018048	0.017723
952.194927	0.016961
952.371788	0.016922
952.548631	0.016624
952.725455	0.016340
952.902261	0.015993
953.079049	0.017281
953.255819	0.017328
953.432570	0.016585
953.609303	0.015564
953.786018	0.015220
953.962715	0.015573
954.139394	0.014418
954.316054	0.013307
954.492696	0.013888
954.669320	0.013025
954.845926	0.012876
955.022513	0.012352
955.199083	0.011760
955.375634	0.013257
955.552166	0.011381
955.728681	0.011345
955.905177	0.012371
956.081655	0.010499
956.258115	0.009637
956.434557	0.009565
956.610980	0.009663
956.787385	0.010079
956.963772	0.008902
957.140141	0.009820
957.316492	0.007961
957.492824	0.007637
957.669138	0.008469
957.845434	0.008977
958.021712	0.008193
958.197971	0.009451
958.374212	0.009868
958.550435	0.009704
958.726640	0.009693
958.902826	0.011136
959.078995	0.010859
959.255145	0.012285
959.431277	0.012452
959.607390	0.012703
959.783486	0.010605
959.959563	0.009381
960.135622	0.008515
960.311662	0.007670
960.487685	0.006764
960.663689	0.006461
960.839675	0.004749
961.015643	0.004420
961.191593	0.003202
961.367524	0.003411
961.543437	0.003536
961.719332	0.002470
961.895209	0.002945
962.071067	0.003855
962.246907	0.002815
962.422730	0.003445
962.598533	0.002574
962.774319	0.003008
962.950086	0.003015
963.125835	0.002369
963.301566	0.003805
963.477279	0.003850
963.652973	0.004254
963.828650	0.003669
964.004308	0.003602
964.179947	0.005524
964.355569	0.003375
964.531172	0.004023
964.706757	0.004101
964.882324	0.004058
965.057873	0.001365
965.233403	0.001080
965.408916	-0.000385
965.584410	-0.000102
965.759885	-0.001572
965.935343	-0.000095
966.110782	-0.000685
966.286203	-0.001913
966.461606	-0.003797
966.636991	-0.002893
966.812357	-0.003090
966.987705	-0.001201
967.163035	-0.001742
967.338347	-0.002084
967.513641	-0.000132
967.688916	0.001146
967.864173	0.000728
968.039412	0.001506
968.214632	0.002584
968.389835	0.002234
968.565019	0.003171
968.740185	0.002298
968.915333	0.001163
969.090462	-0.001691
969.265573	-0.002642
969.440667	-0.001644
969.615741	-0.001899
969.790798	-0.001683
969.965836	-0.002534
970.140856	-0.003924
970.315858	-0.002763
970.490842	-0.003198
970.665808	-0.000835
970.840755	-0.001007
971.015684	-0.001518
971.190595	-0.001349
971.365487	-0.000577
971.540362	0.000318
971.715218	0.000205
971.890056	-0.000552
972.064875	0.001775
972.239677	-0.000037
972.414460	0.001140
972.589225	0.003235
972.763972	0.004430
972.938700	0.002770
973.113411	0.001798
973.288103	0.001691
973.462777	0.000280
973.637432	-0.000972
973.812070	0.001711
973.986689	0.001690
974.161290	0.001320
974.335873	0.001185
974.510437	0.001010
974.684984	0.001652
974.859512	0.004412
975.034022	0.004083
975.208513	0.003486
975.382987	0.001664
975.557442	-0.000688
975.731879	-0.002179
975.906298	-0.000994
976.080698	0.000129
976.255080	-0.002222
976.429445	-0.004141
976.603790	-0.002355
976.778118	-0.001886
976.952427	-0.001129
977.126719	0.001125
977.300992	0.004094
977.475246	0.003155
977.649483	0.003117
977.823701	0.007680
977.997901	0.006781
978.172083	0.004820
978.346247	0.004597
978.520392	0.003752
978.694519	0.002500
978.868628	0.001499
979.042719	0.002669
979.216791	0.002125
979.390845	-0.001254
979.564882	-0.000305
979.738899	0.000254
979.912899	0.000030
980.086880	-0.001455
980.260843	0.000631
980.434788	0.000774
980.608715	-0.000122
980.782623	-0.000302
980.956514	0.003311
981.130386	0.000835
981.304240	0.001919
981.478075	0.002325
981.651892	0.004140
981.825692	0.000136
981.999472	-0.001709
982.173235	-0.001369
982.346980	-0.001387
982.520706	-0.002613
982.694414	-0.000052
982.868104	-0.001093
983.041775	-0.000814
983.215428	-0.001059
983.389064	0.000888
983.562680	0.002631
983.736279	0.001129
983.909860	0.003226
984.083422	0.002132
984.256966	0.001189
984.430491	0.000788
984.603999	0.000897
984.777488	0.000859
984.950959	0.001925
985.124412	0.001146
985.297847	0.001070
985.471263	-0.001896
985.644661	-0.002288
985.818041	-0.001926
985.991403	-0.000744
986.164747	-0.000952
986.338072	0.000115
986.511379	0.001078
986.684668	0.000318
986.857938	0.000188
987.031191	0.003312
987.204425	0.003720
987.377641	0.003390
987.550839	0.001864
987.724018	0.001285
987.897179	-0.000548
988.070322	-0.000854
988.243447	-0.000558
988.416554	0.001893
988.589642	-0.002315
988.762712	-0.000656
988.935764	-0.000234
989.108798	-0.000092
989.281813	0.001486
989.454811	0.002655
989.627790	0.000066
989.800751	-0.000048
989.973693	-0.001323
990.146617	0.001584
990.319524	-0.000484
990.492412	-0.002163
990.665281	-0.000281
990.838133	-0.002677
991.010966	-0.003683
991.183781	-0.003556
991.356578	-0.003722
991.529356	-0.005564
991.702117	-0.006722
991.874859	-0.005443
992.047583	-0.004792
992.220288	-0.006778
992.392976	-0.005761
992.565645	-0.006330
992.738296	-0.004372
992.910929	-0.003158
993.083543	-0.002345
993.256139	-0.001964
993.428718	-0.003269
993.601277	-0.002365
993.773819	-0.002273
993.946342	-0.002855
994.118848	-0.000661
994.291335	-0.001620
994.463803	-0.002997
994.636254	-0.003687
994.808686	-0.003423
994.981100	-0.002487
995.153496	-0.002722
995.325874	-0.001371
995.498233	-0.001844
995.670574	-0.004016
995.842897	-0.005228
996.015202	-0.004437
996.187488	-0.003797
996.359757	-0.003292
996.532007	-0.002450
996.704239	-0.004029
996.876452	-0.004299
997.048648	-0.004497
997.220825	-0.004609
997.392984	-0.003829
997.565124	-0.004372
997.737247	-0.005330
997.909351	-0.007775
998.081437	-0.009209
998.253505	-0.007121
998.425554	-0.007181
998.597586	-0.004738
998.769599	-0.005821
998.941594	-0.006114
999.113571	-0.005739
999.285529	-0.003687
999.457469	-0.002736
999.629391	-0.002091
999.801295	-0.003014
999.973181	-0.003701
1000.145048	-0.005630
1000.316897	-0.004224
1000.488728	-0.003126
1000.660541	-0.003117
1000.832335	-0.004462
1001.004111	-0.004086
1001.175869	-0.004916
1001.347609	-0.005847
1001.519331	-0.005128
1001.691034	-0.003973
1001.862719	-0.003568
1002.034386	-0.002841
1002.206035	-0.003789
1002.377665	-0.003638
1002.549277	-0.003187
1002.720871	-0.004364
1002.892447	-0.003603
1003.064004	-0.004396
1003.235544	-0.004730
1003.407065	-0.005286
1003.578568	-0.006563
1003.750052	-0.003814
1003.921519	-0.004238
1004.092967	-0.005466
1004.264397	-0.006620
1004.435809	-0.006664
1004.607202	-0.006162
1004.778577	-0.006977
1004.949934	-0.005659
1005.121273	-0.006592
1005.292594	-0.008377
1005.463896	-0.007478
1005.635180	-0.006222
1005.806446	-0.004089
1005.977694	-0.003161
1006.148923	-0.004759
1006.320135	-0.003646
1006.491328	-0.003698
1006.662503	-0.002745
1006.833659	-0.003517
1007.004798	-0.004231
1007.175918	-0.005282
1007.347020	-0.004591
1007.518103	-0.004856
1007.689169	-0.003825
1007.860216	-0.004870
1008.031245	-0.005566
1008.202256	-0.005016
1008.373248	-0.004164
1008.544223	-0.003004
1008.715179	-0.002530
1008.886117	-0.003438
1009.057036	-0.004365
1009.227938	-0.003860
1009.398821	-0.004879
1009.569686	-0.004280
1009.740533	-0.005167
1009.911361	-0.008318
1010.082172	-0.009363
1010.252964	-0.010517
1010.423738	-0.010268
1010.594493	-0.009184
1010.765231	-0.009781
1010.935950	-0.008390
1011.106651	-0.008221
1011.277334	-0.009178
1011.447998	-0.006232
1011.618645	-0.006947
1011.789273	-0.006015
1011.959882	-0.006633
1012.130474	-0.008023
1012.301048	-0.007580
1012.471603	-0.008275
1012.642140	-0.008541
1012.812658	-0.007840
1012.983159	-0.010117
1013.153641	-0.009537
1013.324105	-0.009533
1013.494551	-0.008331
1013.664979	-0.008437
1013.835388	-0.007534
1014.005779	-0.006283
1014.176152	-0.006724
1014.346507	-0.006992
1014.516843	-0.004941
1014.687162	-0.004388
1014.857462	-0.005947
1015.027744	-0.006238
1015.198007	-0.005781
1015.368252	-0.007641
1015.538480	-0.008234
1015.708689	-0.009218
1015.878879	-0.008259
1016.049052	-0.008161
1016.219206	-0.008288
1016.389342	-0.006067
1016.559460	-0.006380
1016.729559	-0.005067
1016.899641	-0.003316
1017.069704	-0.002518
1017.239749	-0.002168
1017.409775	-0.000710
1017.579784	-0.000439
1017.749774	-0.001499
1017.919746	-0.002312
1018.089700	-0.002562
1018.259635	-0.004325
1018.429553	-0.005981
1018.599452	-0.006370
1018.769333	-0.007118
1018.939195	-0.009746
1019.109040	-0.010774
1019.278866	-0.009751
1019.448674	-0.009905
1019.618464	-0.010776
1019.788235	-0.008998
1019.957989	-0.007521
1020.127724	-0.008162
1020.297441	-0.006422
1020.467139	-0.006889
1020.636820	-0.006667
1020.806482	-0.007280
1020.976126	-0.007585
1021.145752	-0.008001
1021.315359	-0.010112
1021.484948	-0.010636
1021.654519	-0.010702
1021.824072	-0.011234
1021.993607	-0.010429
1022.163123	-0.011476
1022.332621	-0.011151
1022.502101	-0.012445
1022.671563	-0.011683
1022.841007	-0.010331
1023.010432	-0.010211
1023.179839	-0.009792
1023.349228	-0.011580
1023.518598	-0.012123
1023.687951	-0.010216
1023.857285	-0.011435
1024.026601	-0.010480
1024.195899	-0.010681
1024.365178	-0.009402
1024.534439	-0.010393
1024.703682	-0.011760
1024.872907	-0.011526
1025.042114	-0.011120
1025.211302	-0.012852
1025.380472	-0.011365
1025.549624	-0.011440
1025.718758	-0.012380
1025.887873	-0.013335
1026.056970	-0.013776
1026.226049	-0.013169
1026.395110	-0.012556
1026.564153	-0.012456
1026.733177	-0.010571
1026.902183	-0.010513
1027.071171	-0.010766
1027.240141	-0.008347
1027.409092	-0.010217
1027.578026	-0.009866
1027.746940	-0.008195
1027.915837	-0.006675
1028.084716	-0.006826
1028.253576	-0.008583
1028.422418	-0.009328
1028.591242	-0.007324
1028.760048	-0.008662
1028.928835	-0.006583
1029.097604	-0.008697
1029.266355	-0.011347
1029.435088	-0.013371
1029.603803	-0.012960
1029.772499	-0.012920
1029.941177	-0.012697
1030.109837	-0.013712
1030.278478	-0.013864
1030.447102	-0.013981
1030.615707	-0.012100
1030.784294	-0.011181
1030.952863	-0.009157
1031.121413	-0.009710
1031.289945	-0.009292
1031.458460	-0.008934
1031.626955	-0.009630
1031.795433	-0.009888
1031.963892	-0.011964
1032.132334	-0.011123
1032.300756	-0.012864
1032.469161	-0.013726
1032.637548	-0.013397
1032.805916	-0.013825
1032.974266	-0.014062
1033.142598	-0.013910
1033.310911	-0.013440
1033.479207	-0.013369
1033.647484	-0.013881
1033.815743	-0.013957
1033.983983	-0.013539
1034.152206	-0.014596
1034.320410	-0.014671
1034.488596	-0.014999
1034.656764	-0.014363
1034.824914	-0.014002
1034.993045	-0.012539
1035.161158	-0.012420
1035.329253	-0.010535
1035.497330	-0.010883
1035.665388	-0.009858
1035.833428	-0.009144
1036.001450	-0.009596
1036.169454	-0.009860
1036.337440	-0.010968
1036.505407	-0.012045
1036.673356	-0.010370
1036.841287	-0.011141
1037.009200	-0.010975
1037.177094	-0.011949
1037.344970	-0.012315
1037.512828	-0.011473
1037.680668	-0.010867
1037.848489	-0.008539
1038.016293	-0.007344
1038.184078	-0.008493
1038.351845	-0.007757
1038.519593	-0.008824
1038.687324	-0.008992
1038.855036	-0.008682
1039.022730	-0.009209
1039.190406	-0.010992
1039.358063	-0.012843
1039.525702	-0.014124
1039.693323	-0.014030
1039.860926	-0.015075
1040.028511	-0.015458
1040.196077	-0.013806
1040.363625	-0.013637
1040.531155	-0.015908
1040.698667	-0.014083
1040.866161	-0.013424
1041.033636	-0.013091
1041.201093	-0.014522
1041.368532	-0.012750
1041.535952	-0.013060
1041.703355	-0.014315
1041.870739	-0.015305
1042.038105	-0.014076
1042.205452	-0.015019
1042.372782	-0.014909
1042.540093	-0.013701
1042.707386	-0.013058
1042.874661	-0.015002
1043.041918	-0.013228
1043.209156	-0.013101
1043.376376	-0.011475
1043.543578	-0.009667
1043.710762	-0.007839
1043.877927	-0.007741
1044.045074	-0.010133
1044.212203	-0.010463
1044.379314	-0.008723
1044.546407	-0.009181
1044.713481	-0.008114
1044.880537	-0.010990
1045.047575	-0.012571
1045.214595	-0.012184
1045.381596	-0.012142
1045.548579	-0.011856
1045.715544	-0.012333
1045.882491	-0.012999
1046.049420	-0.013099
1046.216330	-0.014573
1046.383222	-0.014195
1046.550096	-0.014770
1046.716951	-0.016380
1046.883789	-0.015556
1047.050608	-0.014887
1047.217409	-0.013663
1047.384192	-0.013709
1047.550956	-0.015151
1047.717703	-0.014805
1047.884431	-0.012246
1048.051140	-0.010504
1048.217832	-0.010921
1048.384505	-0.013292
1048.551161	-0.011604
1048.717798	-0.010472
1048.884416	-0.009655
1049.051017	-0.008986
1049.217599	-0.007926
1049.384163	-0.008044
1049.550709	-0.007549
1049.717237	-0.007664
1049.883746	-0.006700
1050.050237	-0.007783
1050.216710	-0.008123
1050.383165	-0.009498
1050.549601	-0.007810
1050.716019	-0.009735
1050.882420	-0.010512
1051.048801	-0.011724
1051.215165	-0.011839
1051.381510	-0.011524
1051.547837	-0.010973
1051.714146	-0.013681
1051.880437	-0.012611
1052.046709	-0.012045
1052.212964	-0.010905
1052.379200	-0.010672
1052.545417	-0.010828
1052.711617	-0.010910
1052.877798	-0.010610
1053.043961	-0.009318
1053.210106	-0.008359
1053.376233	-0.007286
1053.542341	-0.008333
1053.708432	-0.008134
1053.874504	-0.009236
1054.040557	-0.009806
1054.206593	-0.009823
1054.372610	-0.011221
1054.538609	-0.013655
1054.704590	-0.013325
1054.870553	-0.015603
1055.036497	-0.015691
1055.202424	-0.015145
1055.368331	-0.014282
1055.534221	-0.012638
1055.700093	-0.012043
1055.865946	-0.010626
1056.031781	-0.010196
1056.197598	-0.010921
1056.363397	-0.009720
1056.529177	-0.010093
1056.694939	-0.010538
1056.860683	-0.009652
1057.026409	-0.012056
1057.192116	-0.012093
1057.357806	-0.014740
1057.523477	-0.015233
1057.689130	-0.013727
1057.854764	-0.014194
1058.020381	-0.013599
1058.185979	-0.014501
1058.351559	-0.016483
1058.517120	-0.015420
1058.682664	-0.015530
1058.848189	-0.013462
1059.013696	-0.011909
1059.179185	-0.012929
1059.344656	-0.012861
1059.510108	-0.012344
1059.675542	-0.011366
1059.840958	-0.011024
1060.006356	-0.008726
1060.171735	-0.009938
1060.337096	-0.009166
1060.502439	-0.009142
1060.667764	-0.007871
1060.833071	-0.006985
1060.998359	-0.009280
1061.163629	-0.009759
1061.328881	-0.008497
1061.494115	-0.010147
1061.659330	-0.009489
1061.824527	-0.010410
1061.989706	-0.010558
1062.154867	-0.012279
1062.320010	-0.012625
1062.485134	-0.010395
1062.650240	-0.008760
1062.815328	-0.007591
1062.980398	-0.006991
1063.145449	-0.007634
1063.310482	-0.007204
1063.475497	-0.008918
1063.640494	-0.008312
1063.805473	-0.008167
1063.970433	-0.008804
1064.135375	-0.009967
1064.300299	-0.009699
1064.465204	-0.010262
1064.630092	-0.008894
1064.794961	-0.009956
1064.959812	-0.008547
1065.124645	-0.011110
1065.289459	-0.012243
1065.454256	-0.013071
1065.619034	-0.012751
1065.783793	-0.015754
1065.948535	-0.014579
1066.113258	-0.014765
1066.277964	-0.012465
1066.442651	-0.012818
1066.607319	-0.009573
1066.771970	-0.008249
1066.936602	-0.007647
1067.101216	-0.006834
1067.265812	-0.004506
1067.430389	-0.005539
1067.594949	-0.005700
1067.759490	-0.005464
1067.924013	-0.005093
1068.088518	-0.005359
1068.253004	-0.007526
1068.417472	-0.007441
1068.581922	-0.007599
1068.746354	-0.009220
1068.910768	-0.008252
1069.075163	-0.006792
1069.239540	-0.010381
1069.403899	-0.010920
1069.568240	-0.009801
1069.732562	-0.008928
1069.896866	-0.008540
1070.061152	-0.008124
1070.225420	-0.007005
1070.389670	-0.006153
1070.553901	-0.006817
1070.718114	-0.004379
1070.882309	-0.003724
1071.046486	-0.004387
1071.210644	-0.001956
1071.374784	-0.001018
1071.538906	-0.002161
1071.703010	-0.002505
1071.867096	-0.003839
1072.031163	-0.005745
1072.195212	-0.006428
1072.359243	-0.006225
1072.523256	-0.006060
1072.687250	-0.006821
1072.851226	-0.008424
1073.015184	-0.010087
1073.179124	-0.011111
1073.343045	-0.009951
1073.506949	-0.009812
1073.670834	-0.008932
1073.834701	-0.009019
1073.998549	-0.008818
1074.162380	-0.011222
1074.326192	-0.010893
1074.489986	-0.008801
1074.653761	-0.006053
1074.817519	-0.007421
1074.981258	-0.006039
1075.144979	-0.007135
1075.308682	-0.006509
1075.472367	-0.005180
1075.636033	-0.000869
1075.799681	-0.000526
1075.963311	-0.000461
1076.126923	-0.003588
1076.290516	-0.004891
1076.454092	-0.004309
1076.617649	-0.001586
1076.781187	-0.002071
1076.944708	-0.004413
1077.108210	-0.007212
1077.271695	-0.008660
1077.435160	-0.012025
1077.598608	-0.011177
1077.762038	-0.009184
1077.925449	-0.008308
1078.088842	-0.012228
1078.252217	-0.015387
1078.415573	-0.015757
1078.578912	-0.015837
1078.742232	-0.015231
1078.905534	-0.010357
1079.068817	-0.009579
1079.232083	-0.010057
1079.395330	-0.009812
1079.558559	-0.007829
1079.721770	-0.006708
1079.884962	-0.006226
1080.048136	-0.005974
1080.211293	-0.003679
1080.374430	-0.005678
1080.537550	-0.005576
1080.700651	-0.003356
1080.863735	-0.006552
1081.026800	-0.005725
1081.189846	-0.003592
1081.352875	-0.002453
1081.515885	-0.001766
1081.678877	-0.001711
1081.841851	-0.000099
1082.004807	0.001001
1082.167744	-0.002580
1082.330663	-0.000503
1082.493564	-0.000831
1082.656447	-0.000133
1082.819312	0.001942
1082.982158	0.001991
1083.144986	-0.001715
1083.307796	-0.002542
1083.470587	-0.000822
1083.633361	0.000949
1083.796116	0.001013
1083.958853	0.000769
1084.121571	-0.000147
1084.284272	-0.001384
1084.446954	-0.001815
1084.609618	-0.000138
1084.772264	-0.002375
1084.934892	-0.005591
1085.097501	-0.005236
1085.260092	-0.003161
1085.422665	-0.001559
1085.585220	0.000034
1085.747756	-0.002948
1085.910274	-0.001127
1086.072774	-0.001264
1086.235256	0.000515
1086.397720	0.003331
1086.560165	0.002650
1086.722592	0.001629
1086.885001	0.001478
1087.047392	-0.000934
1087.209764	0.000633
1087.372119	0.000122
1087.534455	0.002064
1087.696772	0.002465
1087.859072	-0.002255
1088.021353	-0.002520
1088.183616	-0.001655
1088.345861	-0.003006
1088.508088	-0.000043
1088.670296	0.000801
1088.832486	-0.000123
1088.994658	-0.002825
1089.156812	-0.002729
1089.318948	-0.000732
1089.481065	0.000747
1089.643164	0.000157
1089.805245	0.002256
1089.967308	0.001620
1090.129352	0.002294
1090.291378	0.000569
1090.453386	0.003152
1090.615376	0.001668
1090.777347	0.002176
1090.939301	0.000135
1091.101236	0.000127
1091.263153	-0.001657
1091.425051	-0.000547
1091.586932	-0.001102
1091.748794	-0.001536
1091.910638	-0.002750
1092.072463	-0.001178
1092.234271	-0.001155
1092.396060	-0.000255
1092.557831	-0.000441
1092.719584	-0.001110
1092.881319	-0.002215
1093.043035	-0.003317
1093.204733	0.000659
1093.366413	-0.000314
1093.528075	-0.000403
1093.689718	-0.002357
1093.851343	-0.001986
1094.012950	-0.001152
1094.174539	0.001010
1094.336110	-0.002387
1094.497662	0.000716
1094.659196	-0.001565
1094.820712	0.000784
1094.982210	0.000212
1095.143689	0.000771
1095.305151	0.001364
1095.466594	-0.001837
1095.628018	-0.002800
1095.789425	-0.001885
1095.950813	-0.002958
1096.112183	-0.002031
1096.273535	-0.003432
1096.434869	-0.003922
1096.596184	-0.000821
1096.757482	-0.002837
1096.918761	-0.001318
1097.080021	-0.000062
1097.241264	0.001590
1097.402488	-0.000119
1097.563694	0.000095
1097.724882	0.001702
1097.886052	0.004038
1098.047203	0.000629
1098.208336	0.001738
1098.369451	0.001973
1098.530548	-0.000607
1098.691627	-0.001560
1098.852687	-0.000256
1099.013729	0.001247
1099.174753	0.004773
1099.335758	0.004294
1099.496746	0.007640
1099.657715	0.006128
1099.818666	0.005084
1099.979599	0.009329
1100.140513	0.008201
1100.301409	0.010825
1100.462287	0.007969
1100.623147	0.005423
1100.783989	0.004739
1100.944812	0.003899
1101.105617	0.002194
1101.266404	0.003598
1101.427173	0.000534
1101.587923	0.002456
1101.748656	-0.000750
1101.909370	0.000715
1102.070066	-0.000667
1102.230743	-0.000030
1102.391403	-0.000979
1102.552044	0.001045
1102.712667	-0.001399
1102.873271	-0.003793
1103.033858	-0.004552
1103.194426	-0.003711
1103.354976	-0.005432
1103.515508	-0.002358
1103.676021	-0.002311
1103.836517	-0.001449
1103.996994	0.000949
1104.157453	0.001721
1104.317893	0.002192
1104.478316	0.002051
1104.638720	0.003833
1104.799106	0.006029
1104.959474	0.003389
1105.119823	0.003476
1105.280155	0.001666
1105.440468	0.000760
1105.600763	0.003404
1105.761039	0.007283
1105.921298	0.009656
1106.081538	0.007983
1106.241760	0.006145
1106.401964	0.007891
1106.562149	0.008172
1106.722316	0.011310
1106.882465	0.012882
1107.042596	0.010244
1107.202709	0.009508
1107.362803	0.009695
1107.522879	0.009332
1107.682937	0.011321
1107.842977	0.009996
1108.002999	0.007521
1108.163002	0.006393
1108.322987	0.006218
1108.482954	0.008634
1108.642902	0.005551
1108.802833	0.005787
1108.962745	0.002522
1109.122639	0.000580
1109.282515	-0.002644
1109.442372	-0.001345
1109.602211	-0.003594
1109.762032	-0.002272
1109.921835	-0.004039
1110.081620	-0.001492
1110.241386	-0.003275
1110.401134	-0.001156
1110.560864	-0.002675
1110.720576	0.001926
1110.880269	0.001557
1111.039945	0.002689
1111.199602	-0.000581
1111.359240	-0.001421
1111.518861	-0.002805
1111.678463	-0.003219
1111.838047	-0.002477
1111.997613	0.001194
1112.157161	0.001690
1112.316690	0.002359
1112.476202	0.003301
1112.635695	0.005374
1112.795169	0.008314
1112.954626	0.008749
1113.114064	0.010217
1113.273484	0.008603
1113.432886	0.010689
1113.592270	0.005892
1113.751635	0.005392
1113.910983	0.008816
1114.070312	0.010414
1114.229622	0.009312
1114.388915	0.012784
1114.548189	0.011271
1114.707445	0.012023
1114.866683	0.007534
1115.025903	0.010031
1115.185104	0.012613
1115.344287	0.009885
1115.503452	0.006824
1115.662599	0.007200
1115.821727	0.009689
1115.980838	0.011476
1116.139930	0.015445
1116.299004	0.018117
1116.458059	0.014270
1116.617097	0.016382
1116.776116	0.014779
1116.935117	0.016972
1117.094099	0.015535
1117.253064	0.012035
1117.412010	0.013015
1117.570938	0.010209
1117.729848	0.013214
1117.888740	0.016361
1118.047613	0.013338
1118.206468	0.013454
1118.365305	0.011058
1118.524124	0.011119
1118.682924	0.007486
1118.841707	0.009381
1119.000471	0.005386
1119.159216	0.003515
1119.317944	0.008615
1119.476653	0.003558
1119.635344	0.002526
1119.794017	0.004664
1119.952672	0.005453
1120.111308	0.006564
1120.269927	0.004012
1120.428527	0.012381
1120.587108	0.010615
1120.745672	0.005588
1120.904217	0.010429
1121.062744	0.006895
1121.221253	0.004870
1121.379744	0.005663
1121.538216	0.006780
1121.696671	0.008723
1121.855107	0.006177
1122.013524	0.006604
1122.171924	0.010261
1122.330305	0.009044
1122.488668	0.020316
1122.647013	0.021984
1122.805340	0.018054
1122.963648	0.019956
1123.121938	0.019971
1123.280210	0.020995
1123.438464	0.021738
1123.596700	0.019450
1123.754917	0.019353
1123.913116	0.016909
1124.071297	0.017309
1124.229459	0.023095
1124.387604	0.021880
1124.545730	0.019356
1124.703838	0.015351
1124.861928	0.016626
1125.019999	0.014071
1125.178052	0.014757
1125.336088	0.013937
1125.494104	0.014683
1125.652103	0.015305
1125.810083	0.014888
1125.968045	0.016829
1126.125989	0.019269
1126.283915	0.016510
1126.441823	0.016957
1126.599712	0.020053
1126.757583	0.022022
1126.915436	0.019560
1127.073270	0.017246
1127.231087	0.022176
1127.388885	0.018418
1127.546665	0.016024
1127.704426	0.017235
1127.862170	0.017842
1128.019895	0.014121
1128.177602	0.013110
1128.335291	0.011342
1128.492961	0.009621
1128.650614	0.004742
1128.808248	0.004405
1128.965864	0.005409
1129.123461	0.005419
1129.281041	0.004798
1129.438602	0.005506
1129.596145	0.005770
1129.753670	0.011214
1129.911176	0.010707
1130.068665	0.011653
1130.226135	0.014421
1130.383587	0.014330
1130.541020	0.015220
1130.698436	0.014979
1130.855833	0.015991
1131.013212	0.013365
1131.170573	0.014611
1131.327915	0.015015
1131.485239	0.015005
1131.642545	0.015869
1131.799833	0.019355
1131.957103	0.017208
1132.114354	0.017100
1132.271588	0.014862
1132.428803	0.013179
1132.585999	0.011059
1132.743178	0.014863
1132.900338	0.011416
1133.057480	0.008490
1133.214604	0.003260
1133.371710	0.005135
1133.528797	0.005547
1133.685866	0.004101
1133.842917	0.009824
1133.999950	0.007219
1134.156964	0.005841
1134.313960	0.005462
1134.470938	0.006755
1134.627898	0.008290
1134.784840	0.005978
1134.941763	0.008629
1135.098668	0.013026
1135.255555	0.008497
1135.412424	0.014369
1135.569274	0.015997
1135.726107	0.014697
1135.882921	0.018549
1136.039716	0.018162
1136.196494	0.024700
1136.353253	0.020705
1136.509995	0.024787
1136.666717	0.023676
1136.823422	0.021909
1136.980109	0.023585
1137.136777	0.025699
1137.293427	0.019537
1137.450059	0.021284
1137.606672	0.014696
1137.763267	0.018725
1137.919844	0.010648
1138.076403	0.015898
1138.232944	0.011682
1138.389466	0.008322
1138.545971	0.014683
1138.702457	0.018164
1138.858924	0.014877
1139.015374	0.017754
1139.171805	0.011620
1139.328218	0.014180
1139.484613	0.012159
1139.640990	0.012356
1139.797348	0.011462
1139.953688	0.012424
1140.110010	0.008364
1140.266314	0.017839
1140.422600	0.013902
1140.578867	0.016442
1140.735116	0.015044
1140.891347	0.012915
1141.047559	0.015826
1141.203754	0.020413
1141.359930	0.017300
1141.516088	0.022753
1141.672228	0.019737
1141.828349	0.018162
1141.984452	0.021911
1142.140537	0.029438
1142.296604	0.026158
1142.452653	0.027543
1142.608683	0.022538
1142.764695	0.022700
1142.920689	0.020909
1143.076665	0.020026
1143.232622	0.023043
1143.388562	0.020923
1143.544483	0.015265
1143.700385	0.020386
1143.856270	0.021281
1144.012136	0.020068
1144.167985	0.014932
1144.323814	0.016477
1144.479626	0.008767
1144.635420	0.014931
1144.791195	0.013162
1144.946952	0.015768
1145.102691	0.015218
1145.258411	0.012666
1145.414113	0.017692
1145.569798	0.028585
1145.725463	0.025785
1145.881111	0.028764
1146.036741	0.022046
1146.192352	0.026294
1146.347945	0.023061
1146.503519	0.016295
1146.659076	0.019294
1146.814614	0.015850
1146.970134	0.013826
1147.125636	0.018149
1147.281120	0.025515
1147.436585	0.029822
1147.592032	0.031330
1147.747461	0.035090
1147.902872	0.044520
1148.058265	0.040506
1148.213639	0.033349
1148.368995	0.025422
1148.524333	0.023913
1148.679653	0.023563
1148.834954	0.016746
1148.990237	0.012741
1149.145502	0.003479
1149.300749	-0.000925
1149.455977	0.003941
1149.611188	0.012697
1149.766380	0.012073
1149.921553	0.010281
1150.076709	0.002860
1150.231846	0.003784
1150.386966	0.004781
1150.542066	0.012483
1150.697149	0.019893
1150.852214	0.011745
1151.007260	0.013742
1151.162288	0.017446
1151.317298	0.013401
1151.472289	0.016324
1151.627263	0.017974
1151.782218	0.019657
1151.937155	0.025265
1152.092073	0.017181
1152.246974	0.015058
1152.401856	0.013644
1152.556720	0.014696
1152.711566	0.016299
1152.866393	0.017555
1153.021203	0.020565
1153.175994	0.018491
1153.330767	0.015118
1153.485521	0.014781
1153.640258	0.019519
1153.794976	0.007892
1153.949676	0.002462
1154.104358	0.009773
1154.259021	0.007876
1154.413667	0.007965
1154.568294	0.010210
1154.722903	0.008530
1154.877493	0.010050
1155.032066	0.014215
1155.186620	0.023100
1155.341156	0.026647
1155.495674	0.025908
1155.650173	0.027922
1155.804654	0.026996
1155.959118	0.030050
1156.113562	0.024639
1156.267989	0.029028
1156.422397	0.032795
1156.576788	0.035300
1156.731160	0.036642
1156.885513	0.037608
1157.039849	0.030495
1157.194166	0.032603
1157.348465	0.028994
1157.502746	0.033065
1157.657009	0.018209
1157.811253	0.008598
1157.965479	0.005427
1158.119687	0.002509
1158.273877	-0.004216
1158.428048	0.004153
1158.582201	0.000384
1158.736337	-0.005222
1158.890453	-0.008098
1159.044552	0.003342
1159.198632	0.012152
1159.352694	0.013660
1159.506738	0.012447
1159.660764	0.017341
1159.814771	0.014102
1159.968761	0.018774
1160.122732	0.021812
1160.276685	0.022946
1160.430619	0.021783
1160.584535	0.020012
1160.738434	0.017823
1160.892313	0.018600
1161.046175	0.012697
1161.200019	0.009300
1161.353844	0.009222
1161.507651	0.021224
1161.661440	0.032172
1161.815210	0.036571
1161.968962	0.038277
1162.122697	0.038426
1162.276412	0.037086
1162.430110	0.046380
1162.583789	0.051404
1162.737451	0.046465
1162.891094	0.046407
1163.044718	0.039621
1163.198325	0.034056
1163.351913	0.015881
1163.505483	0.023116
1163.659035	0.028491
1163.812569	0.021881
1163.966084	0.022459
1164.119581	0.026285
1164.273060	0.015592
1164.426521	0.008411
1164.579964	0.007925
1164.733388	0.019485
1164.886794	0.017114
1165.040182	0.020130
1165.193551	0.017237
1165.346903	0.024762
1165.500236	0.019419
1165.653551	0.017257
1165.806848	0.024547
1165.960126	0.025001
1166.113386	0.031274
1166.266628	0.027131
1166.419852	0.025960
1166.573058	0.036914
1166.726245	0.035960
1166.879414	0.041438
1167.032565	0.047881
1167.185698	0.044278
1167.338812	0.046615
1167.491909	0.027095
1167.644987	0.027158
1167.798046	0.018143
1167.951088	0.004963
1168.104111	-0.002530
1168.257117	-0.001029
1168.410103	-0.005239
1168.563072	0.004111
1168.716023	0.003605
1168.868955	0.016066
1169.021869	0.017692
1169.174765	0.030680
1169.327642	0.037153
1169.480501	0.039570
1169.633343	0.048489
1169.786165	0.049820
1169.938970	0.038071
1170.091757	0.030300
1170.244525	0.013725
1170.397275	0.014589
1170.550007	0.018740
1170.702720	0.023546
1170.855415	0.023995
1171.008092	0.004761
1171.160751	-0.002019
1171.313392	-0.006292
1171.466014	0.038413
1171.618619	-0.039243
1171.771205	-0.039243
1171.923772	-0.039243
