sample name	sample
index	1377
start time	 05-03-2021  02:41:43 PM
880	0.026908
Peak Time (s)	91.038
Peak Height 	0.02691
calc peak height	90,93
Baseline Time (s)	10.54
Baseline Value 	-0.002808
subtract baseline	10,4
Abs	0.022606
Peak Time (s)	92.54
Peak Height 	0.02261
calc peak height	90,93
Baseline Time (s)	9.036
Baseline Value 	5.2283E-4
subtract baseline	10,3
PK_550	0.018584
Peak Time (s)	90.047
Peak Height 	0.01858
calc peak height	90,93
Baseline Time (s)	8.537
Baseline Value 	6.2771E-4
subtract baseline	10,2
PK_880	0.024186
Peak Time (s)	92.54
Peak Height 	0.02419
calc peak height	90,93
Baseline Time (s)	11.54
Baseline Value 	2.2753E-4
subtract baseline	10,1


Time (s)	A880-A510	A880-A775	A880-A975	A880	I510	I775	I975	I880	
0.035500	-0.000405	-0.000476	-0.006330	0.002253	6144.047138	42440.854491	3925.521335	22100.907940
0.537000	-0.002611	-0.000137	-0.003996	0.003513	6118.941518	42357.377152	3927.898074	22045.549749
1.037000	-0.001807	-0.000754	-0.005875	0.003065	6127.980548	42342.030478	3924.731464	22065.187644
1.548500	-0.000338	-0.000926	-0.006095	0.006399	6114.517930	42025.868801	3916.913848	21919.296240
2.039000	-0.000807	0.000503	0.002334	0.001389	6147.412200	42608.549653	3946.814510	22138.962342
2.537500	0.000979	-0.000605	-0.001236	0.001020	6163.145630	42541.239489	3939.608619	22155.264448
3.038000	0.000811	0.000181	0.003038	0.000634	6164.737669	42647.964066	3950.117712	22172.291586
3.540000	-0.000048	-0.000170	-0.002147	0.003111	6140.408206	42390.857018	3932.899277	22063.191167
4.039000	0.000129	-0.000447	0.001887	0.000699	6159.273045	42584.776551	3947.362751	22169.420387
4.540000	-0.001145	-0.000160	-0.003428	0.000305	6152.852565	42646.954909	3936.301734	22186.864143
5.045000	0.001835	0.000598	0.002175	0.001048	6169.206663	42648.325244	3947.225936	22154.012068
5.540000	0.003333	-0.000093	0.002619	0.000386	6185.085799	42645.682885	3949.729576	22183.270293
6.036500	0.002427	0.000583	-0.007197	0.000867	6174.882855	42663.452757	3926.667858	22162.021911
6.538000	0.000634	-0.000139	0.003616	-0.000070	6168.603880	42683.098833	3953.029025	22203.450032
7.039000	-0.001416	0.000066	0.001147	-0.000249	6154.912650	42718.165303	3947.836009	22211.370324
7.539500	0.001887	-0.000155	0.001052	-0.000519	6181.102094	42722.699246	3948.231134	22223.330169
8.038500	0.000232	0.000050	-0.003212	-0.000046	6165.475535	42698.165501	3937.569528	22202.354856
8.537000	-0.000355	0.000000	0.001915	0.000101	6160.103650	42680.125234	3948.780357	22195.847785
9.035500	-0.000429	-0.000200	0.000000	-0.000643	6165.003733	42729.819536	3946.132604	22228.796873
9.540000	0.002292	0.000752	-0.001819	0.000247	6178.444611	42735.595622	3940.035676	22189.428943
10.040000	0.000642	0.000400	0.000338	0.000468	6164.714348	42683.156732	3944.389159	22179.619046
10.540500	0.002628	0.000437	-0.000831	0.000000	6182.730251	42729.359682	3942.810243	22200.334581
11.039500	-0.000110	-0.000325	0.000623	-0.000674	6167.575443	42721.326055	3947.612041	22230.195109
11.540000	0.000000	-0.000461	-0.002166	-0.000910	6170.109899	42730.417289	3941.855980	22240.651348
12.040000	-0.000330	-0.000207	0.000159	-0.000173	6162.290271	42686.308220	3945.431022	22207.992750
12.543000	0.000788	-0.000328	0.000444	-0.000984	6176.437294	42749.364392	3947.906861	22243.912358
13.041000	-0.000099	0.000611	0.000239	-0.000275	6164.730653	42770.394151	3945.841691	22212.511128
13.540500	0.000901	0.000274	0.003309	-0.000183	6171.390715	42731.227097	3952.588301	22208.452474
14.073500	0.001805	-0.000564	-0.002088	-0.000593	6181.039592	42692.086337	3941.316983	22226.602551
14.540500	0.000692	-0.001217	0.000932	0.000955	6161.516139	42491.431551	3944.629721	22158.113353
15.047000	-0.000821	-0.000907	-0.007012	0.000410	6154.447815	42569.258343	3928.090421	22182.199634
15.548500	0.002199	-0.000337	-0.000722	-0.000907	6186.251937	42741.507755	3945.099003	22240.506959
16.042000	0.000831	-0.000614	0.003253	-0.000384	6172.344891	42668.324295	3952.915190	22217.316931
16.536500	0.002344	0.000375	-0.002986	-0.000483	6184.198571	42767.898039	3939.054663	22221.724793
17.037000	0.000372	-0.000041	0.002169	-0.000923	6172.929837	42770.059981	3951.677314	22241.206604
17.538500	0.001574	0.000452	0.001850	-0.000484	6178.532953	42774.954077	3949.957451	22221.743718
18.035000	0.003767	0.000454	-0.001316	-0.002325	6208.333118	42944.035816	3946.959966	22303.466885
18.541000	0.000598	0.000059	0.001251	0.000156	6166.677000	42680.493315	3947.153656	22193.417330
19.047000	-0.000938	-0.000344	0.005382	0.000379	6153.820773	42623.430668	3956.028318	22183.594533
19.538500	-0.001649	0.000328	-0.003893	0.000738	6146.019326	42651.905055	3934.296140	22167.690875
20.053500	0.000735	0.000489	-0.001266	0.000949	6161.871781	42647.396948	3939.699904	22158.375836
20.545500	0.001713	-0.000019	-0.002391	0.000778	6170.289252	42616.673662	3937.564484	22165.948754
21.046500	-0.001516	-0.000410	-0.000608	0.000337	6149.910440	42621.170562	3942.553585	22185.420278
21.544000	0.000205	0.000134	-0.001908	0.000497	6161.309266	42656.334463	3939.275481	22178.380055
22.050500	-0.000803	-0.000502	-0.001360	-0.000603	6161.981023	42698.649067	3942.977337	22227.033756
22.552000	-0.000312	-0.000749	-0.002444	0.000089	6160.512703	42612.918947	3938.987426	22196.411435
23.054500	0.000160	-0.000022	-0.001171	0.000608	6160.164670	42631.926200	3940.680607	22173.475137
23.550500	0.001054	0.000289	-0.000236	0.000554	6167.101320	42665.157811	3942.901527	22175.825610
24.039000	0.001671	-0.000438	0.003376	-0.000215	6177.270963	42669.061062	3952.812872	22209.856393
24.557000	0.003351	-0.000174	-0.000897	0.000424	6184.937178	42634.856476	3941.709026	22181.597208
25.039000	-0.001697	-0.000749	0.001512	0.000273	6149.054339	42596.112473	3947.478600	22188.242170
25.539500	0.000562	-0.000323	-0.000398	0.000231	6165.860476	42638.781792	3943.263584	22190.104461
26.040000	-0.001147	-0.000471	0.003329	0.000854	6148.837238	42568.613368	3950.278867	22162.607008
26.539500	0.001788	0.000217	0.000358	0.000438	6173.333504	42669.201065	3944.501100	22180.962987
27.038500	-0.001075	-0.000003	-0.000774	0.000396	6152.691790	42652.878396	3942.046743	22182.801548
27.543000	-0.000559	-0.000076	-0.001703	0.000779	6153.665877	42611.421994	3939.102827	22165.917592
28.041500	0.002032	-0.000485	0.005514	-0.001994	6193.037348	42827.465624	3961.756647	22288.740346
28.545000	0.002464	-0.000051	-0.000450	-0.001754	6194.459076	42845.299035	3947.626466	22278.096703
29.050500	0.003669	-0.000109	0.001852	-0.000971	6197.577738	42768.228364	3951.067912	22243.340131
29.573000	0.000274	-0.000576	0.003628	-0.000604	6169.874567	42691.956258	3954.270809	22227.068950
30.037500	-0.000119	0.000081	-0.001354	-0.000517	6166.357871	42744.094871	3942.797470	22223.223234
30.538000	0.001688	-0.000435	-0.000348	-0.000907	6182.491657	42732.525049	3945.943269	22240.504346
31.038000	0.001532	0.000451	0.001989	-0.000011	6174.752466	42731.625116	3949.203575	22200.834341
31.541500	0.000305	-0.000341	-0.001538	0.000489	6162.089821	42613.583002	3940.122674	22178.695572
32.035000	-0.000090	0.000355	0.001304	0.000149	6161.697369	42708.233407	3947.290023	22193.760191
32.535500	0.000342	0.001238	-0.001143	0.003103	6143.297415	42519.398512	3935.155589	22063.539795
33.050500	-0.000980	-0.000508	-0.003831	-0.000742	6161.699346	42710.802872	3937.742922	22233.190420
33.571000	0.001804	-0.000410	-0.000056	-0.000395	6179.572260	42688.052641	3945.446566	22217.814706
34.038000	0.003314	0.000647	-0.000899	-0.000129	6188.737923	42760.385369	3942.948642	22206.059856
34.537500	-0.000090	0.000035	-0.001556	-0.000865	6169.122373	42771.671229	3943.126167	22238.655467
35.038000	0.001730	0.000228	0.000440	-0.000475	6179.624732	42753.722498	3946.748994	22221.381336
35.538000	-0.002233	-0.000308	-0.000955	0.001029	6139.655518	42567.417131	3940.218692	22154.862059
36.050500	0.001613	-0.000350	-0.001400	0.001239	6166.181532	42544.462645	3938.750307	22145.590937
36.539000	-0.000989	0.000172	-0.003388	0.001274	6146.921475	42588.899036	3934.227543	22144.052946
37.038000	-0.002053	-0.000596	-0.001789	0.000798	6142.645322	42562.306382	3938.867652	22165.065226
37.540500	-0.001542	-0.000938	0.001186	0.000666	6147.327069	42543.116388	3945.855737	22170.897832
38.041000	-0.001741	-0.000690	-0.000275	0.000959	6143.739176	42539.018898	3941.903163	22157.937833
38.541500	0.001468	-0.000059	-0.003921	0.001455	6163.538921	42551.369817	3932.636767	22136.067290
39.039000	0.000341	-0.000335	0.000157	0.001116	6157.769052	42557.075498	3942.520380	22151.004246
39.539500	-0.001253	-0.000524	0.002897	0.000862	6148.000655	42562.976114	3949.280881	22162.247153
40.038500	-0.001018	0.000358	-0.000869	0.001362	6146.067351	42597.795975	3939.664891	22140.153622
40.537000	0.000816	-0.001040	0.000505	0.000424	6166.310192	42555.940327	3944.866169	22181.599048
41.042500	0.000206	-0.000600	-0.000416	0.000905	6158.330628	42552.130351	3941.708871	22160.339379
41.538000	0.001553	0.000051	-0.003009	0.001362	6164.842118	42569.833774	3934.876915	22140.178109
42.037500	0.001370	-0.000434	-0.003294	0.000800	6167.609980	42576.820452	3935.494959	22164.952273
42.538000	0.001045	0.000257	0.002657	0.001082	6163.171718	42614.103172	3948.238571	22152.521423
43.041500	0.000615	0.000109	0.000572	0.001020	6160.479056	42606.280154	3943.673290	22155.255573
43.536500	0.001993	0.000678	-0.005939	0.000951	6171.076329	42664.430786	3929.269255	22158.301025
44.046000	-0.000671	-0.000266	0.000159	0.000757	6153.008349	42596.014895	3943.334591	22166.865820
44.546000	0.001321	0.000532	-0.004999	0.001292	6163.655278	42620.039146	3930.600447	22143.269677
45.042500	-0.000188	0.000160	-0.005859	0.000853	6155.835056	42626.209039	3929.666548	22162.653093
45.548000	0.004626	0.001464	0.006436	-0.002554	6216.420837	43058.062837	3965.162254	22313.647253
46.042500	-0.000030	-0.000422	0.000640	-0.000757	6168.767669	42720.014956	3947.837438	22233.866572
46.538000	-0.000293	-0.000457	0.000946	-0.001030	6168.836693	42741.710674	3949.146924	22245.950200
47.038000	0.002901	0.000148	0.006738	-0.000466	6188.178817	42745.451271	3961.059197	22220.952658
47.541000	0.000987	-0.000253	0.003988	-0.000484	6174.226809	42710.541340	3954.816950	22221.773375
48.041500	0.001695	0.000526	0.004743	-0.000003	6175.887773	42737.729017	3955.440777	22200.446693
48.538500	0.001337	0.000313	0.008304	-0.000204	6174.732653	42736.622320	3964.053222	22209.342167
49.072000	0.000511	0.000467	0.004358	0.000073	6166.649233	42725.440556	3954.391925	22197.114272
49.538500	-0.000627	-0.000030	0.003590	0.001485	6148.026396	42551.278135	3949.440471	22134.757520
50.048000	0.000938	-0.000064	-0.004548	0.001662	6158.147817	42532.021289	3930.780090	22126.930239
50.565500	-0.000578	0.000100	0.003049	-0.000665	6164.078955	42759.359550	3953.092354	22229.794859
51.047000	-0.000688	-0.000869	0.002181	-0.001686	6170.750381	42764.111940	3953.440228	22275.067557
51.545500	0.002679	0.000682	0.000394	-0.000233	6184.817709	42772.993021	3946.095267	22210.627237
52.052500	0.002423	0.000766	-0.000611	-0.002085	6196.608591	42950.683983	3948.011521	22292.820934
52.549500	0.000913	-0.000262	0.008600	-0.001655	6182.283747	42816.766841	3968.077096	22273.679937
53.058000	0.002390	-0.000938	-0.000081	0.002535	6162.379799	42373.384841	3938.801844	22088.509306
53.540500	0.026733	-0.026156	-0.006147	0.593811	3846.431043	12535.946271	3211.482584	7881.384927
54.047500	0.015322	-0.024468	-0.024271	-0.014831	6391.947031	41818.834501	3923.629645	22867.857073
54.549000	0.011265	-0.012030	-0.020839	0.012233	6156.366099	40533.872114	3872.884726	21666.657350
55.040000	0.009554	-0.073178	-0.023932	-0.259065	8884.556794	63882.058401	4648.162013	37875.510908
55.550500	0.024482	-0.100488	-0.007218	-0.297478	9655.483887	65458.104544	4875.897277	41102.031063
56.040500	0.022253	-0.055967	-0.007351	-0.237124	8760.330160	63222.808225	4627.520310	36156.610706
56.549000	0.014223	-0.040009	-0.004238	-0.211502	8329.733030	61897.814813	4543.573403	34256.196656
57.057500	0.007378	-0.033286	-0.009254	-0.198859	8095.208155	61100.755358	4480.694051	33358.982585
57.544500	0.000013	-0.030143	-0.017421	-0.195690	7972.756026	61097.199369	4441.655390	33138.155907
58.039000	0.003104	-0.030625	-0.017003	-0.198982	8046.604221	61474.244454	4454.321092	33367.610100
58.542000	0.007860	-0.026467	-0.009927	-0.188996	7986.015179	60695.069094	4444.377524	32676.974827
59.042500	0.001377	-0.017195	-0.012554	-0.151315	7502.484502	57042.980699	4313.298524	30209.441405
59.541500	0.007385	-0.010528	-0.010233	-0.116310	7210.728433	53630.458308	4215.586350	28101.247250
60.043000	0.007630	-0.004862	-0.004615	-0.086184	6929.776707	50858.785033	4146.997069	26418.109243
60.548000	0.005111	-0.001899	-0.005842	-0.065446	6724.094411	48940.159482	4088.726497	25325.444518
61.052500	0.004999	-0.000708	-0.002826	-0.056283	6645.091037	48104.937424	4072.939714	24859.055964
61.554000	0.009881	0.001597	-0.005460	-0.035936	6517.060052	46270.403132	4015.862555	23857.915604
62.049500	0.008933	0.000680	-0.002848	-0.048562	6613.315029	47452.253145	4053.369706	24473.603458
62.539000	0.006321	0.004646	-0.001004	-0.025707	6406.686560	45561.178189	4001.992853	23372.041694
63.036500	0.008370	0.002986	-0.004088	-0.021539	6390.029439	44994.031622	3984.829261	23177.317126
63.539500	0.009431	0.005250	-0.005780	-0.006816	6284.591753	43807.030028	3947.020524	22504.289368
64.038000	0.009923	0.004458	-0.003168	0.005815	6193.649815	42565.657182	3924.635824	21944.771103
64.546500	0.002999	0.005899	-0.002137	-0.000790	6191.289524	43305.081524	3941.649897	22235.313568
65.063500	0.007140	0.009014	0.000072	-0.001050	6223.947325	43619.414203	3947.216624	22246.861339
65.535500	0.005486	0.008908	-0.002707	-0.003610	6230.707883	43849.457591	3946.720144	22360.717811
66.036000	0.007574	0.009970	-0.000596	-0.007704	6277.241110	44337.187175	3960.841305	22544.243967
66.554500	0.008053	0.010289	0.001663	-0.008892	6289.894416	44480.686698	3968.771259	22597.793017
67.044000	0.005805	0.009368	-0.000788	-0.006519	6254.926375	44167.469598	3957.689119	22490.946417
67.539000	0.009652	0.010639	0.002738	-0.008729	6300.845800	44498.585863	3970.882631	22590.463388
68.039000	0.010158	0.010825	-0.000230	-0.009580	6311.222316	44597.723354	3965.991045	22628.897861
68.538000	0.010766	0.011381	0.005789	-0.011116	6327.678147	44798.545244	3983.547868	22698.487496
69.039500	0.010824	0.011203	0.000716	-0.009374	6314.738814	44614.167058	3967.696551	22619.573496
69.539000	0.011808	0.010446	0.003682	-0.011758	6340.667036	44770.362565	3980.121381	22727.667359
70.041000	0.010561	0.010274	0.002000	-0.012269	6334.982050	44802.934790	3977.388282	22750.898989
70.546500	0.013097	0.011172	0.006084	-0.009985	6336.928200	44669.764814	3981.590972	22647.223428
71.044500	0.011716	0.012082	0.007786	-0.004654	6285.523448	44247.978612	3973.135930	22407.347570
71.539000	0.012593	0.011989	0.010571	-0.004962	6294.539453	44268.364458	3980.337311	22421.132167
72.036500	0.010195	0.011825	0.007905	-0.004576	6273.396292	44216.152913	3973.230675	22403.850574
72.537500	0.013209	0.012873	0.007150	-0.004889	6298.681660	44345.462906	3972.204287	22417.841287
73.038000	0.013460	0.012996	0.004424	-0.005810	6307.643612	44444.978605	3968.031497	22459.137718
73.539500	0.014537	0.013157	0.005084	-0.005191	6311.140743	44401.314137	3968.125570	22431.394563
74.045500	0.013102	0.012851	0.011025	-0.005143	6299.797155	44367.521432	3981.821551	22429.211759
74.540500	0.012404	0.013451	0.009560	-0.004906	6292.674679	44402.128193	3977.846668	22418.633279
75.046000	0.013970	0.013875	0.010212	-0.004413	6300.858597	44395.594065	3978.216695	22396.573919
75.543500	0.013200	0.014209	0.010211	-0.004241	6293.677720	44411.009898	3977.815183	22388.898549
76.041000	0.013184	0.014901	0.013593	-0.002937	6283.636391	44352.734186	3982.670396	22330.717169
76.545000	0.014613	0.013513	0.008116	-0.003961	6302.317579	44318.105709	3972.295037	22376.396464
77.049500	0.013669	0.015111	0.009010	-0.002155	6281.378524	44298.304871	3970.181186	22295.904644
77.538500	0.016645	0.015430	0.008282	-0.000939	6294.761544	44213.187810	3965.693901	22241.931515
78.042000	0.016566	0.015182	0.012499	0.000022	6286.843445	44098.586603	3973.221207	22199.339756
78.543000	0.017346	0.015520	0.010259	0.000804	6286.829363	44056.620469	3966.232451	22164.791554
79.043000	0.016217	0.016531	0.010918	0.002906	6262.361062	43953.725992	3962.914893	22072.195439
79.547000	0.019344	0.016431	0.010391	0.004508	6273.890278	43793.575506	3958.035856	22001.921075
80.044500	0.017920	0.016176	0.013980	0.005119	6258.514367	43712.353475	3964.867589	21975.194496
80.549500	0.019312	0.016589	0.014767	0.006725	6256.902515	43600.699609	3962.983335	21905.098455
81.041000	0.016720	0.017796	0.014971	0.013435	6187.575589	43089.761881	3948.151486	21615.027653
81.546000	0.019411	0.016577	0.012621	0.008749	6242.427568	43410.872495	3953.449919	21817.103654
82.045000	0.021537	0.018068	0.018501	0.010420	6245.848066	43394.209374	3963.074017	21744.819005
82.547500	0.018574	0.018442	0.011589	0.011717	6214.025466	43308.491797	3944.395098	21688.879835
83.053000	0.020736	0.018452	0.013837	0.013328	6218.115991	43160.235489	3945.831397	21619.617473
83.549500	0.016490	0.017412	0.015527	0.013939	6182.165463	43007.883357	3948.270347	21593.424015
84.052000	0.021072	0.019112	0.016176	0.015637	6203.470239	43008.132638	3945.897963	21520.816179
84.556500	0.018556	0.017922	0.013601	0.016381	6179.397848	42830.433602	3938.435880	21489.096398
85.046000	0.016997	0.018127	0.014035	0.021755	6128.813920	42359.363897	3927.430755	21261.533801
85.538500	0.019408	0.017322	0.012893	0.016152	6187.358983	42796.380995	3937.362154	21498.845980
86.041000	0.019789	0.018228	0.017094	0.017349	6181.348346	42769.779900	3944.107403	21447.881635
86.546000	0.020803	0.018305	0.021722	0.017306	6189.140454	42780.730382	3954.690498	21449.718777
87.041500	0.018253	0.017683	0.018190	0.017009	6172.560213	42751.021416	3947.349152	21462.339077
87.542500	0.018510	0.017525	0.015165	0.017454	6171.178011	42695.870752	3939.536494	21443.431806
88.046000	0.021202	0.017613	0.022778	0.018546	6182.932776	42604.207367	3954.269535	21397.058488
88.536500	0.019430	0.018443	0.019502	0.018763	6168.326106	42660.213250	3946.350564	21387.870210
89.049000	0.017234	0.017446	0.013927	0.024336	6111.891377	42065.020675	3921.492039	21153.242697
89.541500	0.019004	0.018346	0.019723	0.020514	6152.404282	42491.821312	3942.898825	21313.808215
90.047000	0.022371	0.018584	0.021969	0.021291	6171.354399	42442.894996	3946.212699	21281.078357
90.546500	0.023300	0.017662	0.019890	0.021533	6176.393815	42337.353582	3940.983018	21270.857471
91.038500	0.017134	0.016975	0.016525	0.026908	6092.711213	41792.407779	3921.549671	21045.964021
91.536500	0.019604	0.017773	0.017380	0.023180	6137.373440	42198.485782	3931.691301	21201.641012
92.038500	0.019742	0.017328	0.015422	0.023569	6135.559211	42123.328723	3926.483258	21185.339028
92.539500	0.024186	0.018038	0.022606	0.024637	6160.137149	42091.118610	3940.112312	21140.633830
93.040000	0.019539	0.017096	0.020394	0.030774	6082.275457	41459.445945	3921.556659	20885.907254
93.544000	0.022427	0.016923	0.019951	0.024687	6146.951614	41986.518713	3934.063754	21138.572945
94.037500	0.022928	0.016728	0.015110	0.025196	6146.891830	41923.356760	3922.204155	21117.303987
94.538000	0.020926	0.016503	0.018944	0.025861	6127.528510	41843.744622	3929.210039	21089.558128
95.041000	0.017022	0.015691	0.015812	0.031524	6059.062032	41269.135007	3909.890681	20855.006899
95.538500	0.022981	0.016775	0.019784	0.026921	6134.744120	41773.341437	3928.722580	21045.434901
96.039000	0.020724	0.016248	0.022851	0.027166	6116.649608	41704.537379	3935.002318	21035.250142
96.604500	0.023474	0.016842	0.021912	0.027957	6130.805031	41687.001242	3931.146589	21002.390964
97.036000	0.018406	0.016138	0.021102	0.034393	6048.578892	41056.477151	3915.170472	20737.371549
97.582500	0.021214	0.016473	0.017161	0.030376	6097.091223	41439.501881	3915.334261	20902.301676
98.037000	0.021022	0.016692	0.021315	0.029479	6102.145411	41538.389725	3926.447350	20939.345970
98.537000	0.023241	0.016772	0.019355	0.029802	6115.788419	41516.898299	3921.409706	20926.028796
99.037000	0.022613	0.017388	0.021586	0.030920	6103.226024	41472.391558	3923.860826	20879.877351
99.541000	0.024043	0.016289	0.020859	0.030455	6116.858161	41416.252757	3923.282684	20899.039405
100.035500	0.020684	0.016431	0.019550	0.031282	6086.819947	41355.709928	3918.584341	20864.964218
