sample name	sample
index	621
start time	 03-19-2021  02:34:49 PM


Wavelength (nm)	Absorbance
494.344910	NaN
494.563924	NaN
494.782919	NaN
495.001897	-0.829100
495.220856	-0.052328
495.439797	-0.270289
495.658719	-0.296147
495.877624	-0.377949
496.096510	-0.234149
496.315378	-0.157876
496.534227	-0.346821
496.753059	-0.358915
496.971872	-0.199721
497.190667	-0.008863
497.409444	0.008206
497.628203	0.013645
497.846943	0.014506
498.065665	0.014719
498.284369	0.014562
498.503055	0.015854
498.721723	0.016843
498.940372	0.016715
499.159003	0.018179
499.377616	0.017810
499.596210	0.017108
499.814787	0.017601
500.033345	0.018198
500.251885	0.018212
500.470406	0.018333
500.688910	0.017501
500.907395	0.017660
501.125862	0.017077
501.344311	0.017190
501.562742	0.017109
501.781154	0.016653
501.999548	0.015371
502.217924	0.014770
502.436282	0.014640
502.654621	0.014295
502.872942	0.012664
503.091245	0.012334
503.309530	0.012519
503.527797	0.012373
503.746045	0.012267
503.964275	0.012849
504.182487	0.013459
504.400681	0.013098
504.618856	0.014122
504.837013	0.014982
505.055152	0.015065
505.273273	0.015119
505.491376	0.013981
505.709460	0.014104
505.927526	0.013907
506.145574	0.013534
506.363604	0.013635
506.581615	0.012511
506.799608	0.012179
507.017583	0.011003
507.235540	0.010399
507.453478	0.011221
507.671399	0.010806
507.889301	0.010778
508.107185	0.011235
508.325050	0.010467
508.542898	0.011137
508.760727	0.011599
508.978538	0.012679
509.196330	0.013267
509.414105	0.013192
509.631861	0.013475
509.849599	0.014122
510.067319	0.014362
510.285021	0.015511
510.502704	0.016123
510.720369	0.016248
510.938016	0.016127
511.155645	0.015717
511.373255	0.016017
511.590848	0.014999
511.808422	0.014206
512.025977	0.013165
512.243515	0.012455
512.461034	0.012273
512.678536	0.012218
512.896018	0.012915
513.113483	0.013162
513.330930	0.013349
513.548358	0.014145
513.765768	0.014338
513.983160	0.015529
514.200533	0.015894
514.417889	0.015569
514.635226	0.015426
514.852545	0.015144
515.069845	0.015055
515.287128	0.014381
515.504392	0.014477
515.721638	0.014770
515.938866	0.014038
516.156075	0.013660
516.373267	0.013272
516.590440	0.013793
516.807594	0.013224
517.024731	0.012900
517.241850	0.013104
517.458950	0.013160
517.676032	0.012616
517.893095	0.012150
518.110141	0.012025
518.327168	0.012779
518.544177	0.012269
518.761168	0.012593
518.978141	0.012741
519.195095	0.013167
519.412031	0.012871
519.628949	0.012971
519.845849	0.013766
520.062731	0.013352
520.279594	0.012753
520.496439	0.012768
520.713266	0.012297
520.930074	0.012364
521.146865	0.011660
521.363637	0.011399
521.580391	0.011161
521.797127	0.011052
522.013844	0.011563
522.230543	0.012025
522.447224	0.011523
522.663887	0.011481
522.880532	0.010905
523.097158	0.011148
523.313766	0.011044
523.530356	0.011160
523.746928	0.011335
523.963481	0.011244
524.180017	0.010706
524.396534	0.011412
524.613032	0.011952
524.829513	0.012955
525.045975	0.013183
525.262420	0.013643
525.478845	0.013743
525.695253	0.013448
525.911643	0.013964
526.128014	0.014590
526.344367	0.014029
526.560702	0.013796
526.777018	0.013869
526.993316	0.013754
527.209597	0.014161
527.425858	0.014671
527.642102	0.014590
527.858328	0.014239
528.074535	0.013860
528.290724	0.014127
528.506894	0.014026
528.723047	0.013890
528.939181	0.013725
529.155297	0.013451
529.371395	0.013131
529.587475	0.013010
529.803536	0.012778
530.019579	0.012695
530.235604	0.012596
530.451611	0.013213
530.667600	0.013084
530.883570	0.012932
531.099522	0.012484
531.315456	0.012021
531.531372	0.012559
531.747269	0.012734
531.963148	0.012703
532.179009	0.012521
532.394852	0.012161
532.610676	0.011995
532.826482	0.012191
533.042271	0.012516
533.258040	0.012498
533.473792	0.012097
533.689525	0.012055
533.905240	0.012062
534.120937	0.012342
534.336616	0.012656
534.552277	0.012979
534.767919	0.013433
534.983543	0.013487
535.199149	0.013838
535.414736	0.013799
535.630306	0.013838
535.845857	0.014010
536.061390	0.014244
536.276904	0.013839
536.492401	0.013650
536.707879	0.013476
536.923339	0.013333
537.138781	0.013577
537.354204	0.013751
537.569610	0.013744
537.784997	0.013566
538.000366	0.013428
538.215716	0.013277
538.431049	0.013057
538.646363	0.012901
538.861659	0.013311
539.076937	0.012874
539.292196	0.012723
539.507438	0.012974
539.722661	0.012723
539.937866	0.012468
540.153052	0.012617
540.368221	0.012546
540.583371	0.012486
540.798503	0.012031
541.013617	0.011864
541.228712	0.011921
541.443789	0.011946
541.658848	0.012152
541.873889	0.012518
542.088912	0.012516
542.303916	0.012805
542.518902	0.012275
542.733870	0.012368
542.948820	0.012565
543.163752	0.012576
543.378665	0.012363
543.593560	0.012457
543.808437	0.011951
544.023295	0.012003
544.238136	0.011890
544.452958	0.012522
544.667762	0.012385
544.882548	0.012150
545.097315	0.012221
545.312064	0.012166
545.526795	0.012281
545.741508	0.012716
545.956203	0.012683
546.170879	0.012777
546.385537	0.012506
546.600177	0.012794
546.814799	0.013510
547.029402	0.013370
547.243988	0.013369
547.458555	0.013510
547.673103	0.013278
547.887634	0.013196
548.102146	0.013252
548.316640	0.013021
548.531116	0.013133
548.745574	0.012619
548.960013	0.012461
549.174435	0.012776
549.388838	0.012841
549.603222	0.013090
549.817589	0.013141
550.031937	0.012856
550.246267	0.012991
550.460579	0.012538
550.674873	0.012519
550.889148	0.012709
551.103405	0.012304
551.317644	0.011817
551.531865	0.011708
551.746068	0.011601
551.960252	0.011457
552.174418	0.011528
552.388566	0.011716
552.602696	0.011762
552.816807	0.011800
553.030900	0.012183
553.244975	0.012107
553.459032	0.012021
553.673070	0.012125
553.887091	0.012390
554.101093	0.012521
554.315077	0.012590
554.529042	0.012707
554.742990	0.012856
554.956919	0.012594
555.170830	0.012960
555.384722	0.013065
555.598597	0.012883
555.812453	0.012838
556.026291	0.012875
556.240111	0.012641
556.453913	0.012731
556.667696	0.012615
556.881461	0.012513
557.095208	0.012294
557.308937	0.012351
557.522647	0.012809
557.736339	0.012763
557.950013	0.012536
558.163669	0.012625
558.377307	0.012312
558.590926	0.012261
558.804527	0.012240
559.018110	0.012193
559.231675	0.012056
559.445221	0.011861
559.658749	0.011804
559.872259	0.012113
560.085751	0.012222
560.299225	0.012378
560.512680	0.012378
560.726117	0.012696
560.939536	0.012830
561.152937	0.012927
561.366319	0.013089
561.579683	0.013171
561.793029	0.012850
562.006357	0.013055
562.219667	0.013154
562.432958	0.013251
562.646231	0.013082
562.859486	0.012714
563.072723	0.012614
563.285941	0.012523
563.499141	0.012603
563.712323	0.012776
563.925487	0.012391
564.138632	0.012228
564.351760	0.012355
564.564869	0.012132
564.777960	0.012272
564.991032	0.012480
565.204087	0.012030
565.417123	0.011703
565.630141	0.011838
565.843140	0.011965
566.056122	0.011837
566.269085	0.011369
566.482030	0.011591
566.694957	0.011673
566.907866	0.011680
567.120756	0.012231
567.333628	0.012428
567.546482	0.012510
567.759318	0.012643
567.972135	0.012787
568.184935	0.012696
568.397716	0.012659
568.610478	0.012798
568.823223	0.012587
569.035949	0.012126
569.248657	0.012211
569.461347	0.011846
569.674019	0.011759
569.886672	0.011798
570.099308	0.012184
570.311925	0.012136
570.524523	0.012086
570.737104	0.011939
570.949666	0.012316
571.162210	0.012160
571.374736	0.012207
571.587244	0.012282
571.799733	0.012251
572.012205	0.012074
572.224658	0.011828
572.437092	0.011894
572.649509	0.012081
572.861907	0.012338
573.074287	0.012654
573.286649	0.012561
573.498993	0.012459
573.711318	0.012370
573.923625	0.012489
574.135914	0.012937
574.348185	0.012811
574.560438	0.013065
574.772672	0.012511
574.984888	0.012576
575.197086	0.012581
575.409266	0.012604
575.621427	0.012841
575.833570	0.012881
576.045695	0.012802
576.257802	0.012931
576.469890	0.012691
576.681961	0.012743
576.894013	0.012391
577.106046	0.012464
577.318062	0.012241
577.530059	0.012036
577.742039	0.012202
577.954000	0.012123
578.165942	0.012074
578.377867	0.012130
578.589773	0.012317
578.801661	0.012405
579.013531	0.012702
579.225382	0.012919
579.437216	0.013076
579.649031	0.012915
579.860828	0.012884
580.072606	0.013106
580.284367	0.013040
580.496109	0.012859
580.707833	0.012817
580.919539	0.012588
581.131227	0.012256
581.342896	0.011958
581.554547	0.012024
581.766180	0.012274
581.977795	0.012123
582.189391	0.011995
582.400969	0.012058
582.612529	0.012308
582.824071	0.012275
583.035595	0.012722
583.247100	0.013028
583.458587	0.012781
583.670056	0.012711
583.881506	0.012621
584.092939	0.012677
584.304353	0.012707
584.515749	0.012470
584.727127	0.012625
584.938486	0.012739
585.149828	0.012590
585.361151	0.012702
585.572456	0.012513
585.783742	0.012493
585.995011	0.012712
586.206261	0.012718
586.417493	0.012781
586.628706	0.012715
586.839902	0.012309
587.051079	0.012465
587.262238	0.012285
587.473379	0.012081
587.684502	0.012398
587.895606	0.012343
588.106692	0.012328
588.317760	0.012376
588.528810	0.012268
588.739841	0.012346
588.950855	0.012134
589.161850	0.012387
589.372827	0.012488
589.583785	0.012269
589.794726	0.012340
590.005648	0.012344
590.216552	0.012468
590.427437	0.012660
590.638305	0.012843
590.849154	0.012969
591.059985	0.012926
591.270798	0.012969
591.481592	0.013050
591.692369	0.013028
591.903127	0.013080
592.113867	0.012723
592.324588	0.012589
592.535292	0.012450
592.745977	0.012363
592.956644	0.012392
593.167293	0.012278
593.377923	0.012156
593.588536	0.011849
593.799130	0.011834
594.009706	0.011993
594.220263	0.011973
594.430803	0.012229
594.641324	0.012202
594.851827	0.012217
595.062312	0.012533
595.272778	0.012614
595.483227	0.012818
595.693657	0.012837
595.904069	0.012953
596.114462	0.012842
596.324838	0.012631
596.535195	0.012758
596.745534	0.012851
596.955855	0.012648
597.166157	0.012590
597.376441	0.012693
597.586707	0.012721
597.796955	0.012479
598.007185	0.012471
598.217396	0.012428
598.427589	0.012520
598.637764	0.012355
598.847921	0.012312
599.058060	0.012294
599.268180	0.012112
599.478282	0.012090
599.688366	0.012184
599.898431	0.012343
600.108479	0.012248
600.318508	0.012060
600.528519	0.011988
600.738511	0.012071
600.948486	0.011933
601.158442	0.011837
601.368380	0.011654
601.578300	0.011722
601.788202	0.011779
601.998085	0.011797
602.207950	0.011867
602.417797	0.011847
602.627626	0.011702
602.837436	0.011795
603.047228	0.011915
603.257002	0.011912
603.466758	0.012145
603.676496	0.012004
603.886215	0.012062
604.095916	0.012204
604.305599	0.011893
604.515264	0.012085
604.724910	0.012198
604.934538	0.012189
605.144148	0.012247
605.353740	0.012136
605.563314	0.012192
605.772869	0.012013
605.982406	0.011994
606.191925	0.012480
606.401425	0.012436
606.610908	0.012484
606.820372	0.012326
607.029818	0.012477
607.239246	0.012363
607.448655	0.012264
607.658047	0.012566
607.867420	0.012338
608.076775	0.012039
608.286111	0.012102
608.495430	0.012067
608.704730	0.012254
608.914012	0.012224
609.123275	0.012442
609.332521	0.012628
609.541748	0.012563
609.750957	0.012660
609.960148	0.012713
610.169321	0.012737
610.378475	0.012736
610.587611	0.012848
610.796729	0.012867
611.005829	0.012648
611.214910	0.012785
611.423974	0.012839
611.633019	0.012883
611.842045	0.012845
612.051054	0.012816
612.260044	0.012669
612.469017	0.012565
612.677970	0.012590
612.886906	0.012723
613.095824	0.012463
613.304723	0.012246
613.513604	0.012127
613.722467	0.012246
613.931311	0.012148
614.140138	0.012346
614.348946	0.012252
614.557736	0.012100
614.766507	0.012003
614.975261	0.011900
615.183996	0.011980
615.392713	0.011870
615.601412	0.012084
615.810092	0.012095
616.018754	0.011897
616.227399	0.011859
616.436024	0.012020
616.644632	0.012085
616.853222	0.012546
617.061793	0.012765
617.270346	0.013248
617.478880	0.012929
617.687397	0.013066
617.895895	0.013146
618.104375	0.013182
618.312837	0.013111
618.521281	0.013139
618.729706	0.012771
618.938113	0.012816
619.146502	0.012540
619.354873	0.012712
619.563226	0.012614
619.771560	0.012514
619.979876	0.012596
620.188174	0.012498
620.396453	0.012538
620.604715	0.012629
620.812958	0.012409
621.021183	0.012578
621.229390	0.012538
621.437578	0.012617
621.645748	0.012594
621.853900	0.012490
622.062034	0.012695
622.270150	0.012495
622.478247	0.012429
622.686326	0.012438
622.894387	0.012254
623.102430	0.012196
623.310454	0.012166
623.518461	0.012315
623.726449	0.012388
623.934418	0.012368
624.142370	0.012571
624.350303	0.012680
624.558218	0.012683
624.766115	0.012649
624.973994	0.012637
625.181855	0.012545
625.389697	0.012512
625.597521	0.012354
625.805327	0.012260
626.013114	0.012213
626.220883	0.012217
626.428634	0.012291
626.636367	0.012292
626.844082	0.012258
627.051778	0.012361
627.259457	0.012340
627.467117	0.012585
627.674758	0.012695
627.882382	0.012560
628.089987	0.012515
628.297574	0.012549
628.505143	0.012726
628.712694	0.012864
628.920226	0.013042
629.127740	0.013016
629.335236	0.013218
629.542714	0.013157
629.750174	0.013186
629.957615	0.013292
630.165038	0.013117
630.372443	0.013175
630.579829	0.013272
630.787198	0.013200
630.994548	0.013314
631.201880	0.013213
631.409194	0.013100
631.616489	0.013125
631.823766	0.012986
632.031025	0.013132
632.238266	0.013157
632.445489	0.012982
632.652693	0.012793
632.859879	0.012800
633.067047	0.012568
633.274197	0.012616
633.481329	0.012512
633.688442	0.012686
633.895537	0.012622
634.102614	0.012387
634.309672	0.012429
634.516713	0.012481
634.723735	0.012318
634.930739	0.012309
635.137724	0.012157
635.344692	0.012296
635.551641	0.012132
635.758572	0.011961
635.965485	0.012026
636.172379	0.012121
636.379256	0.011953
636.586114	0.012009
636.792954	0.011965
636.999775	0.012055
637.206579	0.011874
637.413364	0.011891
637.620131	0.012133
637.826880	0.012026
638.033610	0.011808
638.240323	0.012012
638.447017	0.012009
638.653692	0.012133
638.860350	0.012398
639.066990	0.012619
639.273611	0.012766
639.480214	0.012807
639.686798	0.012839
639.893365	0.012931
640.099913	0.012791
640.306443	0.012836
640.512955	0.012755
640.719449	0.012482
640.925924	0.012375
641.132381	0.012455
641.338820	0.012249
641.545241	0.012337
641.751644	0.012485
641.958028	0.012444
642.164394	0.012548
642.370742	0.012608
642.577071	0.012849
642.783383	0.012869
642.989676	0.012582
643.195951	0.012591
643.402207	0.012590
643.608446	0.012387
643.814666	0.012600
644.020868	0.012539
644.227052	0.012582
644.433218	0.012410
644.639365	0.012404
644.845494	0.012530
645.051605	0.012577
645.257698	0.012478
645.463772	0.012594
645.669828	0.012525
645.875866	0.012524
646.081886	0.012478
646.287888	0.012592
646.493871	0.012701
646.699836	0.012742
646.905783	0.012729
647.111712	0.012787
647.317622	0.012966
647.523514	0.012907
647.729388	0.012855
647.935244	0.012848
648.141082	0.012855
648.346901	0.012713
648.552702	0.012819
648.758485	0.013080
648.964250	0.013113
649.169996	0.012998
649.375724	0.013082
649.581434	0.013192
649.787126	0.013197
649.992800	0.013209
650.198455	0.013323
650.404092	0.013193
650.609711	0.013092
650.815311	0.013203
651.020894	0.013243
651.226458	0.013241
651.432004	0.013164
651.637532	0.013123
651.843041	0.013066
652.048532	0.012955
652.254006	0.013033
652.459460	0.013047
652.664897	0.012887
652.870315	0.012755
653.075716	0.012787
653.281097	0.012865
653.486461	0.012805
653.691807	0.012798
653.897134	0.012865
654.102443	0.012761
654.307734	0.012729
654.513006	0.012953
654.718261	0.012998
654.923497	0.012917
655.128715	0.012932
655.333915	0.013090
655.539096	0.012970
655.744259	0.012888
655.949404	0.012995
656.154531	0.013064
656.359640	0.012991
656.564730	0.013031
656.769802	0.013050
656.974856	0.012863
657.179892	0.012862
657.384909	0.012923
657.589908	0.012968
657.794889	0.012822
657.999852	0.012719
658.204797	0.012435
658.409723	0.012552
658.614631	0.012690
658.819521	0.012789
659.024393	0.012818
659.229246	0.012837
659.434081	0.012873
659.638898	0.012953
659.843697	0.013029
660.048478	0.013213
660.253240	0.013181
660.457984	0.013089
660.662710	0.013080
660.867417	0.013012
661.072107	0.012950
661.276778	0.013057
661.481431	0.012899
661.686066	0.012802
661.890682	0.012779
662.095281	0.012668
662.299861	0.012639
662.504422	0.012923
662.708966	0.012902
662.913491	0.013070
663.117999	0.013003
663.322488	0.013233
663.526958	0.013368
663.731411	0.013440
663.935845	0.013398
664.140261	0.013451
664.344659	0.013315
664.549038	0.013439
664.753400	0.013305
664.957743	0.013241
665.162068	0.013224
665.366375	0.013044
665.570663	0.013016
665.774933	0.013064
665.979185	0.013046
666.183419	0.013046
666.387635	0.013046
666.591832	0.013081
666.796011	0.013166
667.000172	0.012966
667.204315	0.012968
667.408439	0.013012
667.612545	0.013155
667.816634	0.013183
668.020703	0.013095
668.224755	0.012994
668.428788	0.013056
668.632803	0.013045
668.836800	0.013253
669.040779	0.013425
669.244739	0.013335
669.448681	0.013296
669.652605	0.013431
669.856511	0.013322
670.060399	0.013459
670.264268	0.013411
670.468119	0.013425
670.671952	0.013316
670.875767	0.013254
671.079563	0.013441
671.283341	0.013399
671.487101	0.013361
671.690843	0.013453
671.894567	0.013470
672.098272	0.013570
672.301959	0.013552
672.505628	0.013703
672.709278	0.013717
672.912911	0.013625
673.116525	0.013628
673.320121	0.013550
673.523699	0.013515
673.727258	0.013491
673.930799	0.013545
674.134322	0.013528
674.337827	0.013379
674.541314	0.013384
674.744782	0.013376
674.948232	0.013285
675.151664	0.013349
675.355078	0.013285
675.558474	0.013130
675.761851	0.013019
675.965210	0.013013
676.168551	0.013259
676.371873	0.013235
676.575178	0.013340
676.778464	0.013324
676.981732	0.013152
677.184981	0.013330
677.388213	0.013422
677.591426	0.013492
677.794621	0.013398
677.997798	0.013186
678.200956	0.013214
678.404097	0.013134
678.607219	0.013237
678.810323	0.013496
679.013408	0.013522
679.216476	0.013571
679.419525	0.013534
679.622556	0.013720
679.825569	0.013776
680.028563	0.013776
680.231540	0.013765
680.434498	0.013713
680.637438	0.013607
680.840359	0.013541
681.043263	0.013487
681.246148	0.013611
681.449015	0.013588
681.651864	0.013547
681.854694	0.013531
682.057506	0.013529
682.260301	0.013579
682.463076	0.013468
682.665834	0.013505
682.868573	0.013512
683.071295	0.013353
683.273998	0.013369
683.476682	0.013328
683.679349	0.013203
683.881997	0.013246
684.084627	0.013257
684.287239	0.013395
684.489833	0.013414
684.692408	0.013481
684.894965	0.013481
685.097504	0.013333
685.300025	0.013310
685.502527	0.013348
685.705012	0.013183
685.907478	0.013142
686.109925	0.013007
686.312355	0.012917
686.514766	0.012983
686.717159	0.012995
686.919534	0.013043
687.121891	0.013133
687.324230	0.013139
687.526550	0.013300
687.728852	0.013301
687.931136	0.013157
688.133401	0.013267
688.335649	0.013143
688.537878	0.013213
688.740089	0.013291
688.942281	0.013368
689.144456	0.013476
689.346612	0.013522
689.548750	0.013547
689.750870	0.013807
689.952971	0.013744
690.155055	0.013880
690.357120	0.013790
690.559167	0.013660
690.761195	0.013716
690.963206	0.013686
691.165198	0.013701
691.367172	0.013692
691.569128	0.013566
691.771065	0.013636
691.972984	0.013601
692.174885	0.013772
692.376768	0.013833
692.578633	0.013674
692.780479	0.013632
692.982308	0.013651
693.184118	0.013810
693.385909	0.013920
693.587683	0.013906
693.789438	0.013773
693.991175	0.013569
694.192894	0.013461
694.394595	0.013461
694.596277	0.013521
694.797941	0.013486
694.999587	0.013422
695.201215	0.013371
695.402824	0.013408
695.604416	0.013435
695.805989	0.013541
696.007543	0.013586
696.209080	0.013545
696.410598	0.013477
696.612099	0.013404
696.813580	0.013307
697.015044	0.013325
697.216490	0.013076
697.417917	0.013012
697.619326	0.013005
697.820717	0.013096
698.022089	0.013095
698.223444	0.013262
698.424780	0.013273
698.626098	0.013272
698.827397	0.013293
699.028679	0.013411
699.229942	0.013483
699.431187	0.013414
699.632414	0.013553
699.833622	0.013565
700.034813	0.013471
700.235985	0.013437
700.437139	0.013536
700.638274	0.013478
700.839392	0.013590
701.040491	0.013563
701.241572	0.013553
701.442635	0.013407
701.643679	0.013411
701.844706	0.013387
702.045714	0.013340
702.246704	0.013171
702.447675	0.013192
702.648629	0.013065
702.849564	0.013081
703.050481	0.013122
703.251380	0.013249
703.452260	0.013184
703.653122	0.013117
703.853966	0.013287
704.054792	0.013250
704.255600	0.013312
704.456389	0.013262
704.657160	0.013296
704.857913	0.013222
705.058648	0.013073
705.259365	0.013126
705.460063	0.013118
705.660743	0.012948
705.861405	0.013123
706.062048	0.013089
706.262674	0.013196
706.463281	0.013090
706.663870	0.013252
706.864441	0.013326
707.064993	0.013280
707.265527	0.013300
707.466043	0.013281
707.666541	0.013136
707.867021	0.013222
708.067482	0.013292
708.267925	0.013382
708.468350	0.013256
708.668757	0.013223
708.869145	0.013273
709.069516	0.013345
709.269868	0.013368
709.470201	0.013406
709.670517	0.013388
709.870814	0.013360
710.071093	0.013347
710.271354	0.013236
710.471597	0.013120
710.671821	0.013080
710.872028	0.013001
711.072216	0.013026
711.272385	0.013145
711.472537	0.013053
711.672670	0.012901
711.872785	0.012922
712.072882	0.013143
712.272961	0.013271
712.473021	0.013243
712.673063	0.013250
712.873087	0.013232
713.073093	0.013249
713.273081	0.013197
713.473050	0.013302
713.673001	0.013287
713.872934	0.013242
714.072849	0.013433
714.272745	0.013495
714.472623	0.013588
714.672483	0.013728
714.872325	0.013528
715.072148	0.013467
715.271954	0.013282
715.471741	0.013286
715.671509	0.013231
715.871260	0.013143
716.070992	0.013059
716.270707	0.013030
716.470403	0.012994
716.670080	0.013142
716.869740	0.013232
717.069381	0.013503
717.269004	0.013484
717.468609	0.013478
717.668195	0.013309
717.867764	0.013598
718.067314	0.013560
718.266846	0.013592
718.466360	0.013563
718.665855	0.013656
718.865332	0.013544
719.064791	0.013613
719.264232	0.013613
719.463655	0.013673
719.663059	0.013499
719.862445	0.013511
720.061813	0.013485
720.261163	0.013373
720.460494	0.013322
720.659807	0.013330
720.859102	0.013358
721.058379	0.013268
721.257638	0.013196
721.456878	0.013059
721.656100	0.013123
721.855304	0.012961
722.054490	0.013092
722.253657	0.013011
722.452806	0.012941
722.651937	0.012806
722.851050	0.012794
723.050145	0.012768
723.249221	0.012928
723.448279	0.012888
723.647319	0.012859
723.846340	0.012697
724.045344	0.012805
724.244329	0.012795
724.443296	0.012794
724.642245	0.012902
724.841175	0.012894
725.040088	0.012723
725.238982	0.012703
725.437857	0.012607
725.636715	0.012625
725.835554	0.012547
726.034376	0.012496
726.233179	0.012592
726.431963	0.012559
726.630730	0.012505
726.829478	0.012589
727.028208	0.012559
727.226920	0.012716
727.425614	0.012666
727.624289	0.012706
727.822946	0.012748
728.021585	0.012560
728.220206	0.012578
728.418808	0.012740
728.617392	0.012963
728.815958	0.012864
729.014506	0.012859
729.213036	0.012927
729.411547	0.012781
729.610040	0.012842
729.808515	0.012980
730.006972	0.012855
730.205410	0.012676
730.403831	0.012467
730.602233	0.012467
730.800616	0.012512
730.998982	0.012480
731.197329	0.012383
731.395658	0.012459
731.593969	0.012317
731.792262	0.012251
731.990536	0.012377
732.188793	0.012342
732.387031	0.012437
732.585250	0.012387
732.783452	0.012318
732.981635	0.012431
733.179800	0.012147
733.377947	0.012190
733.576076	0.012366
733.774186	0.012339
733.972278	0.012253
734.170352	0.012240
734.368408	0.012132
734.566446	0.012250
734.764465	0.012308
734.962466	0.012435
735.160449	0.012311
735.358413	0.012231
735.556360	0.012209
735.754288	0.012288
735.952198	0.012260
736.150090	0.012146
736.347963	0.012073
736.545818	0.011955
736.743655	0.011862
736.941474	0.011895
737.139275	0.011758
737.337057	0.011745
737.534821	0.011622
737.732567	0.011728
737.930295	0.011729
738.128005	0.011609
738.325696	0.011613
738.523369	0.011707
738.721024	0.011686
738.918660	0.011651
739.116279	0.011534
739.313879	0.011640
739.511461	0.011296
739.709024	0.011268
739.906570	0.011436
740.104097	0.011457
740.301606	0.011345
740.499097	0.011478
740.696569	0.011612
740.894024	0.011788
741.091460	0.011643
741.288878	0.011758
741.486277	0.011918
741.683659	0.011798
741.881022	0.011794
742.078367	0.011683
742.275694	0.011559
742.473002	0.011623
742.670293	0.011489
742.867565	0.011515
743.064819	0.011589
743.262054	0.011579
743.459272	0.011645
743.656471	0.011685
743.853652	0.011741
744.050815	0.011949
744.247959	0.011954
744.445085	0.012012
744.642194	0.012076
744.839283	0.012145
745.036355	0.012062
745.233408	0.012182
745.430444	0.012072
745.627461	0.012222
745.824459	0.011881
746.021440	0.011913
746.218402	0.011946
746.415346	0.011980
746.612272	0.011985
746.809180	0.012054
747.006069	0.011963
747.202940	0.011899
747.399793	0.011795
747.596628	0.012052
747.793444	0.011953
747.990243	0.011979
748.187023	0.012040
748.383784	0.011997
748.580528	0.012066
748.777253	0.012163
748.973960	0.012324
749.170649	0.012497
749.367320	0.012400
749.563973	0.012381
749.760607	0.012384
749.957223	0.012364
750.153821	0.012321
750.350400	0.012299
750.546962	0.012192
750.743505	0.012252
750.940030	0.012102
751.136536	0.012104
751.333025	0.012148
751.529495	0.012028
751.725947	0.012047
751.922381	0.012028
752.118796	0.011893
752.315194	0.011830
752.511573	0.011728
752.707934	0.011741
752.904276	0.011931
753.100601	0.011802
753.296907	0.011815
753.493195	0.011725
753.689465	0.011874
753.885716	0.012099
754.081949	0.012288
754.278164	0.012121
754.474361	0.012289
754.670540	0.012020
754.866700	0.012141
755.062843	0.012218
755.258967	0.012285
755.455072	0.012107
755.651160	0.012051
755.847229	0.012016
756.043280	0.012285
756.239313	0.012092
756.435328	0.012189
756.631324	0.012130
756.827302	0.012113
757.023262	0.011969
757.219204	0.011909
757.415127	0.011915
757.611033	0.011830
757.806920	0.011704
758.002788	0.012016
758.198639	0.012038
758.394471	0.012173
758.590286	0.012229
758.786081	0.012423
758.981859	0.012543
759.177619	0.012608
759.373360	0.012785
759.569083	0.012910
759.764788	0.012761
759.960474	0.012750
760.156143	0.012778
760.351793	0.012624
760.547425	0.012620
760.743038	0.012788
760.938634	0.012541
761.134211	0.012349
761.329770	0.012160
761.525311	0.012134
761.720833	0.012023
761.916338	0.011925
762.111824	0.012106
762.307292	0.012182
762.502741	0.012053
762.698173	0.012207
762.893586	0.012174
763.088981	0.012369
763.284358	0.012233
763.479716	0.012468
763.675057	0.012416
763.870379	0.012334
764.065683	0.012048
764.260968	0.011944
764.456236	0.011962
764.651485	0.011949
764.846716	0.011810
765.041929	0.011960
765.237123	0.011733
765.432299	0.011768
765.627457	0.011532
765.822597	0.011570
766.017719	0.011433
766.212822	0.011395
766.407907	0.011406
766.602974	0.011422
766.798023	0.011235
766.993054	0.011322
767.188066	0.011259
767.383060	0.011384
767.578036	0.011474
767.772993	0.011606
767.967933	0.011682
768.162854	0.011799
768.357757	0.011953
768.552642	0.012117
768.747508	0.012056
768.942356	0.012196
769.137186	0.012198
769.331998	0.012281
769.526792	0.012295
769.721567	0.012188
769.916324	0.012156
770.111063	0.011969
770.305784	0.011801
770.500486	0.011834
770.695171	0.011807
770.889837	0.011802
771.084484	0.011763
771.279114	0.011957
771.473725	0.011989
771.668318	0.011984
771.862893	0.012067
772.057450	0.012260
772.251988	0.012224
772.446509	0.012143
772.641011	0.012215
772.835494	0.012243
773.029960	0.012172
773.224407	0.012271
773.418836	0.012391
773.613247	0.012579
773.807640	0.012435
774.002014	0.012435
774.196370	0.012558
774.390708	0.012728
774.585028	0.012629
774.779330	0.012561
774.973613	0.012508
775.167878	0.012488
775.362125	0.012437
775.556354	0.012689
775.750564	0.012833
775.944756	0.012748
776.138930	0.012727
776.333086	0.012770
776.527223	0.012781
776.721343	0.012553
776.915444	0.012506
777.109526	0.012371
777.303591	0.012192
777.497637	0.012266
777.691666	0.012330
777.885676	0.012157
778.079667	0.012242
778.273641	0.012361
778.467596	0.012700
778.661533	0.012582
778.855452	0.012606
779.049352	0.012698
779.243235	0.012565
779.437099	0.012564
779.630945	0.012579
779.824773	0.012454
780.018582	0.012244
780.212373	0.011971
780.406146	0.012157
780.599901	0.012090
780.793638	0.012010
780.987356	0.012144
781.181056	0.012131
781.374738	0.012236
781.568402	0.012355
781.762047	0.012313
781.955674	0.012493
782.149283	0.012476
782.342874	0.012526
782.536447	0.012725
782.730001	0.012660
782.923537	0.012638
783.117055	0.012719
783.310555	0.012682
783.504036	0.012864
783.697499	0.012881
783.890944	0.013002
784.084371	0.013054
784.277780	0.012946
784.471170	0.012876
784.664542	0.012816
784.857896	0.012743
785.051231	0.012894
785.244549	0.012926
785.437848	0.013057
785.631129	0.012760
785.824392	0.012868
786.017636	0.012891
786.210863	0.012906
786.404071	0.013116
786.597260	0.013155
786.790432	0.012957
786.983585	0.012935
787.176721	0.012721
787.369838	0.012792
787.562936	0.012783
787.756017	0.012748
787.949079	0.012853
788.142123	0.012841
788.335149	0.012890
788.528156	0.012903
788.721146	0.013039
788.914117	0.013075
789.107070	0.013120
789.300005	0.013013
789.492921	0.012875
789.685819	0.012917
789.878699	0.012715
790.071561	0.012753
790.264405	0.012787
790.457230	0.012699
790.650037	0.012666
790.842826	0.012790
791.035597	0.012793
791.228349	0.012964
791.421084	0.012986
791.613800	0.013027
791.806497	0.012752
791.999177	0.012778
792.191838	0.012863
792.384481	0.012838
792.577106	0.012706
792.769713	0.012699
792.962301	0.012618
793.154871	0.012479
793.347423	0.012600
793.539957	0.012792
793.732473	0.012834
793.924970	0.012633
794.117449	0.012877
794.309910	0.012822
794.502353	0.012832
794.694777	0.012760
794.887183	0.012973
795.079571	0.013051
795.271941	0.013058
795.464293	0.012982
795.656626	0.013001
795.848941	0.012666
796.041238	0.012869
796.233516	0.012820
796.425777	0.012904
796.618019	0.012825
796.810243	0.012699
797.002449	0.012595
797.194636	0.012605
797.386805	0.012783
797.578956	0.013006
797.771089	0.012886
797.963204	0.013049
798.155300	0.013157
798.347378	0.013061
798.539438	0.013188
798.731480	0.013329
798.923503	0.013365
799.115509	0.013570
799.307496	0.013389
799.499465	0.013362
799.691415	0.013419
799.883348	0.013346
800.075262	0.013346
800.267158	0.013184
800.459035	0.013221
800.650895	0.013263
800.842736	0.012897
801.034559	0.013126
801.226364	0.013107
801.418150	0.013059
801.609919	0.013300
801.801669	0.013465
801.993401	0.013603
802.185114	0.013709
802.376810	0.013700
802.568487	0.013844
802.760146	0.013702
802.951787	0.013869
803.143409	0.013932
803.335014	0.013900
803.526600	0.013739
803.718168	0.013788
803.909717	0.013606
804.101249	0.013506
804.292762	0.013612
804.484257	0.013761
804.675734	0.013604
804.867192	0.013513
805.058632	0.013207
805.250054	0.013242
805.441458	0.013223
805.632844	0.013017
805.824211	0.013474
806.015561	0.013425
806.206891	0.013445
806.398204	0.013598
806.589499	0.013739
806.780775	0.013871
806.972033	0.014043
807.163273	0.013971
807.354495	0.014074
807.545698	0.013764
807.736883	0.013739
807.928050	0.013922
808.119199	0.013879
808.310329	0.013860
808.501441	0.013957
808.692535	0.013898
808.883611	0.014032
809.074669	0.014194
809.265708	0.014205
809.456729	0.014182
809.647732	0.013926
809.838717	0.014118
810.029683	0.014011
810.220632	0.013892
810.411562	0.013964
810.602474	0.013926
810.793367	0.013908
810.984242	0.014059
811.175100	0.014154
811.365938	0.014291
811.556759	0.014235
811.747562	0.014288
811.938346	0.014351
812.129112	0.014356
812.319860	0.014579
812.510589	0.014604
812.701300	0.014496
812.891994	0.014462
813.082668	0.014686
813.273325	0.014803
813.463964	0.014738
813.654584	0.014956
813.845186	0.015054
814.035769	0.014965
814.226335	0.015043
814.416882	0.015260
814.607411	0.015396
814.797922	0.015266
814.988415	0.015178
815.178889	0.015471
815.369345	0.015348
815.559783	0.015273
815.750203	0.015280
815.940605	0.015473
816.130988	0.015219
816.321353	0.015041
816.511700	0.015087
816.702028	0.015261
816.892339	0.015207
817.082631	0.015280
817.272905	0.015466
817.463161	0.015259
817.653398	0.015164
817.843617	0.015310
818.033819	0.015351
818.224001	0.015326
818.414166	0.015118
818.604312	0.014976
818.794440	0.014910
818.984550	0.014573
819.174642	0.014674
819.364716	0.014568
819.554771	0.014527
819.744808	0.014509
819.934827	0.014323
820.124827	0.014447
820.314810	0.014683
820.504774	0.014760
820.694720	0.014893
820.884647	0.014994
821.074557	0.015162
821.264448	0.015251
821.454321	0.015576
821.644176	0.015678
821.834012	0.015648
822.023831	0.015537
822.213631	0.015417
822.403413	0.015461
822.593176	0.015276
822.782922	0.015188
822.972649	0.015061
823.162358	0.014865
823.352049	0.014802
823.541721	0.014724
823.731376	0.014652
823.921012	0.014623
824.110629	0.014508
824.300229	0.014658
824.489811	0.014414
824.679374	0.014496
824.868919	0.014509
825.058445	0.014406
825.247954	0.014214
825.437444	0.014236
825.626916	0.014320
825.816370	0.014316
826.005806	0.014412
826.195223	0.014496
826.384622	0.014382
826.574003	0.014148
826.763366	0.014281
826.952711	0.014482
827.142037	0.014401
827.331345	0.014473
827.520635	0.014537
827.709906	0.014407
827.899160	0.014601
828.088395	0.014639
828.277612	0.014885
828.466810	0.014955
828.655991	0.014895
828.845153	0.014997
829.034297	0.015194
829.223423	0.015186
829.412531	0.015162
829.601620	0.015128
829.790691	0.015119
829.979744	0.015170
830.168779	0.015165
830.357795	0.015048
830.546793	0.014992
830.735773	0.014796
830.924735	0.014840
831.113679	0.014908
831.302604	0.014949
831.491511	0.014969
831.680400	0.015127
831.869271	0.015222
832.058123	0.015387
832.246957	0.015437
832.435773	0.015549
832.624571	0.015759
832.813351	0.015964
833.002112	0.015904
833.190855	0.016044
833.379580	0.015784
833.568287	0.015900
833.756975	0.015961
833.945645	0.016087
834.134297	0.016016
834.322931	0.015788
834.511547	0.015617
834.700144	0.015738
834.888723	0.015546
835.077284	0.015633
835.265826	0.015431
835.454351	0.015314
835.642857	0.015435
835.831345	0.015343
836.019815	0.015233
836.208266	0.015218
836.396699	0.015123
836.585114	0.015423
836.773511	0.015475
836.961890	0.015521
837.150250	0.015588
837.338592	0.015636
837.526916	0.015648
837.715222	0.015894
837.903510	0.016063
838.091779	0.016102
838.280030	0.016190
838.468263	0.016039
838.656477	0.016139
838.844674	0.016375
839.032852	0.016178
839.221012	0.016244
839.409153	0.016181
839.597277	0.015975
839.785382	0.016027
839.973469	0.015854
840.161538	0.015882
840.349589	0.015936
840.537621	0.015715
840.725635	0.015839
840.913631	0.015949
841.101609	0.015978
841.289568	0.016092
841.477509	0.016178
841.665432	0.016078
841.853337	0.016023
842.041224	0.015932
842.229092	0.015910
842.416942	0.015506
842.604774	0.015269
842.792588	0.015400
842.980383	0.015342
843.168160	0.015378
843.355919	0.015641
843.543660	0.015888
843.731382	0.016095
843.919087	0.016129
844.106773	0.016553
844.294441	0.016827
844.482090	0.016792
844.669722	0.017018
844.857335	0.016973
845.044930	0.016970
845.232507	0.016981
845.420065	0.016798
845.607605	0.016869
845.795127	0.016843
845.982631	0.016745
846.170117	0.016554
846.357584	0.016292
846.545033	0.016102
846.732464	0.016068
846.919877	0.016032
847.107272	0.016078
847.294648	0.016218
847.482006	0.016195
847.669346	0.016171
847.856667	0.016362
848.043971	0.016635
848.231256	0.016784
848.418523	0.016617
848.605771	0.016581
848.793002	0.016533
848.980214	0.016555
849.167408	0.016454
849.354584	0.016535
849.541742	0.016646
849.728881	0.016604
849.916002	0.016509
850.103105	0.016813
850.290190	0.017067
850.477256	0.017300
850.664304	0.017133
850.851334	0.017293
851.038346	0.017446
851.225340	0.017275
851.412315	0.017118
851.599272	0.017430
851.786211	0.017376
851.973132	0.017236
852.160034	0.017106
852.346918	0.017283
852.533784	0.017454
852.720632	0.017434
852.907462	0.017710
853.094273	0.017872
853.281066	0.017717
853.467841	0.017643
853.654598	0.017904
853.841336	0.017922
854.028056	0.018035
854.214758	0.017975
854.401442	0.017892
854.588107	0.017691
854.774755	0.017752
854.961384	0.017762
855.147995	0.017963
855.334587	0.017570
855.521162	0.017560
855.707718	0.017487
855.894256	0.017191
856.080775	0.017486
856.267277	0.017730
856.453760	0.017854
856.640225	0.018142
856.826672	0.017875
857.013101	0.017883
857.199511	0.017924
857.385903	0.017810
857.572277	0.018093
857.758633	0.017995
857.944970	0.017941
858.131290	0.018049
858.317591	0.018050
858.503873	0.018262
858.690138	0.018497
858.876384	0.018591
859.062612	0.018724
859.248822	0.018692
859.435014	0.018505
859.621188	0.018233
859.807343	0.018078
859.993480	0.017644
860.179599	0.017748
860.365699	0.017813
860.551781	0.017698
860.737846	0.017716
860.923891	0.017711
861.109919	0.017872
861.295929	0.018198
861.481920	0.017998
861.667893	0.018455
861.853848	0.018630
862.039784	0.018691
862.225702	0.018781
862.411603	0.019099
862.597484	0.019197
862.783348	0.019077
862.969193	0.018740
863.155021	0.018888
863.340830	0.018790
863.526620	0.018433
863.712393	0.018363
863.898147	0.018389
864.083883	0.017980
864.269601	0.017970
864.455301	0.018059
864.640982	0.018342
864.826645	0.018450
865.012290	0.018400
865.197917	0.018634
865.383526	0.018825
865.569116	0.018753
865.754688	0.019124
865.940242	0.019043
866.125777	0.019256
866.311295	0.019405
866.496794	0.019430
866.682275	0.019698
866.867737	0.019603
867.053182	0.019489
867.238608	0.019555
867.424016	0.019521
867.609406	0.019730
867.794778	0.019502
867.980131	0.019593
868.165466	0.019566
868.350783	0.019487
868.536082	0.019562
868.721362	0.019517
868.906625	0.019703
869.091869	0.019466
869.277094	0.019611
869.462302	0.019963
869.647491	0.019844
869.832662	0.019995
870.017815	0.019862
870.202950	0.020151
870.388066	0.020405
870.573165	0.020542
870.758245	0.020929
870.943306	0.020798
871.128350	0.020726
871.313375	0.020854
871.498382	0.020732
871.683371	0.020932
871.868342	0.020618
872.053294	0.020321
872.238229	0.020145
872.423144	0.020097
872.608042	0.020022
872.792922	0.019890
872.977783	0.019943
873.162626	0.020148
873.347451	0.020053
873.532258	0.020326
873.717046	0.020443
873.901816	0.020522
874.086568	0.020430
874.271302	0.020828
874.456017	0.020861
874.640715	0.020667
874.825394	0.020611
875.010055	0.020702
875.194697	0.020455
875.379322	0.020511
875.563928	0.020733
875.748516	0.020666
875.933085	0.020472
876.117637	0.020574
876.302170	0.020579
876.486685	0.020682
876.671182	0.020627
876.855661	0.020582
877.040121	0.020450
877.224563	0.020384
877.408987	0.020451
877.593393	0.020153
877.777780	0.020298
877.962150	0.020635
878.146501	0.020621
878.330833	0.020628
878.515148	0.020885
878.699444	0.020855
878.883722	0.020789
879.067982	0.020873
879.252224	0.021109
879.436447	0.021135
879.620653	0.021222
879.804840	0.021114
879.989008	0.020988
880.173159	0.021055
880.357291	0.021309
880.541405	0.021498
880.725501	0.021555
880.909579	0.021756
881.093638	0.021689
881.277680	0.021481
881.461703	0.021678
881.645707	0.022166
881.829694	0.022008
882.013662	0.022069
882.197612	0.021987
882.381544	0.022101
882.565458	0.021913
882.749353	0.021990
882.933230	0.021761
883.117089	0.021778
883.300930	0.021624
883.484753	0.021563
883.668557	0.021601
883.852343	0.021638
884.036111	0.021720
884.219861	0.021961
884.403592	0.021819
884.587305	0.021829
884.771000	0.021750
884.954677	0.021594
885.138335	0.021723
885.321976	0.021527
885.505598	0.021568
885.689201	0.021372
885.872787	0.021223
886.056354	0.021227
886.239904	0.021593
886.423434	0.021610
886.606947	0.021543
886.790442	0.021651
886.973918	0.021781
887.157376	0.021416
887.340816	0.021328
887.524237	0.021423
887.707641	0.021808
887.891026	0.021727
888.074393	0.021939
888.257741	0.022332
888.441072	0.022282
888.624384	0.022175
888.807678	0.022031
888.990954	0.021997
889.174211	0.021810
889.357451	0.021258
889.540672	0.021234
889.723875	0.021049
889.907059	0.020770
890.090226	0.020786
890.273374	0.021150
890.456504	0.021660
890.639616	0.021708
890.822709	0.021746
891.005785	0.021869
891.188842	0.021899
891.371881	0.021877
891.554901	0.021814
891.737904	0.021746
891.920888	0.021607
892.103854	0.021452
892.286802	0.021526
892.469731	0.021642
892.652643	0.021877
892.835536	0.021823
893.018410	0.021941
893.201267	0.021998
893.384106	0.021721
893.566926	0.021508
893.749728	0.021504
893.932511	0.021464
894.115277	0.021272
894.298024	0.021354
894.480753	0.021178
894.663464	0.021041
894.846157	0.020962
895.028831	0.021336
895.211487	0.021563
895.394125	0.021679
895.576745	0.021461
895.759346	0.021661
895.941930	0.021430
896.124495	0.021683
896.307041	0.021557
896.489570	0.021486
896.672080	0.021142
896.854573	0.021114
897.037046	0.021182
897.219502	0.021079
897.401940	0.021123
897.584359	0.021351
897.766760	0.021644
897.949143	0.021697
898.131507	0.021761
898.313854	0.021980
898.496182	0.021879
898.678492	0.021647
898.860783	0.021751
899.043057	0.021205
899.225312	0.020948
899.407549	0.020534
899.589768	0.020461
899.771968	0.020589
899.954151	0.020463
900.136315	0.020397
900.318461	0.020338
900.500588	0.020692
900.682698	0.021301
900.864789	0.021211
901.046862	0.021246
901.228917	0.021243
901.410953	0.020971
901.592971	0.021118
901.774972	0.020989
901.956953	0.020860
902.138917	0.020576
902.320862	0.020305
902.502790	0.020503
902.684699	0.020313
902.866589	0.020275
903.048462	0.020593
903.230316	0.020593
903.412152	0.020541
903.593970	0.020886
903.775770	0.021133
903.957551	0.021033
904.139314	0.020639
904.321059	0.020841
904.502786	0.020899
904.684494	0.020873
904.866185	0.020385
905.047857	0.020697
905.229510	0.020195
905.411146	0.019887
905.592763	0.019968
905.774363	0.020236
905.955943	0.020205
906.137506	0.019992
906.319051	0.020055
906.500577	0.020204
906.682085	0.020093
906.863575	0.020538
907.045046	0.020467
907.226500	0.020584
907.407935	0.020635
907.589352	0.020462
907.770750	0.020790
907.952131	0.020578
908.133493	0.020463
908.314837	0.020186
908.496163	0.019912
908.677470	0.020024
908.858760	0.019595
909.040031	0.019501
909.221284	0.019660
909.402518	0.019560
909.583735	0.019256
909.764933	0.019414
909.946113	0.019665
910.127275	0.019528
910.308418	0.019713
910.489544	0.019875
910.670651	0.019547
910.851740	0.019269
911.032810	0.019176
911.213863	0.019307
911.394897	0.019599
911.575913	0.019567
911.756911	0.019724
911.937890	0.019735
912.118851	0.019974
912.299794	0.020244
912.480719	0.020108
912.661626	0.020212
912.842514	0.020199
913.023384	0.020074
913.204236	0.019935
913.385070	0.020029
913.565886	0.019435
913.746683	0.019250
913.927462	0.019087
914.108223	0.019441
914.288965	0.018877
914.469690	0.018687
914.650396	0.018624
914.831084	0.018514
915.011754	0.018143
915.192405	0.018160
915.373038	0.017904
915.553653	0.018271
915.734250	0.017854
915.914829	0.018570
916.095389	0.018593
916.275931	0.018521
916.456455	0.018633
916.636961	0.018755
916.817448	0.018842
916.997917	0.019002
917.178368	0.018435
917.358801	0.018500
917.539216	0.018266
917.719612	0.018245
917.899990	0.018202
918.080350	0.017921
918.260692	0.017988
918.441015	0.018156
918.621320	0.017929
918.801607	0.017814
918.981876	0.018008
919.162127	0.017771
919.342359	0.017951
919.522573	0.017792
919.702769	0.017769
919.882947	0.017162
920.063106	0.016848
920.243247	0.016754
920.423370	0.016781
920.603475	0.016227
920.783562	0.016201
920.963630	0.015597
921.143680	0.015255
921.323712	0.015277
921.503725	0.015516
921.683721	0.015635
921.863698	0.015642
922.043657	0.015742
922.223598	0.016119
922.403520	0.015608
922.583424	0.015902
922.763311	0.016098
922.943178	0.015923
923.123028	0.015760
923.302859	0.015447
923.482673	0.015019
923.662467	0.014460
923.842244	0.014148
924.022003	0.014184
924.201743	0.013837
924.381465	0.014003
924.561169	0.013753
924.740854	0.013931
924.920522	0.014049
925.100171	0.014139
925.279802	0.014275
925.459414	0.014304
925.639009	0.014289
925.818585	0.014269
925.998143	0.014010
926.177683	0.013794
926.357205	0.013445
926.536708	0.013400
926.716193	0.013739
926.895660	0.013816
927.075109	0.013649
927.254539	0.013507
927.433951	0.013254
927.613345	0.012907
927.792721	0.013112
927.972079	0.013210
928.151418	0.013060
928.330739	0.013073
928.510042	0.012958
928.689327	0.012685
928.868593	0.012644
929.047841	0.012352
929.227071	0.013031
929.406283	0.012871
929.585476	0.013042
929.764652	0.012853
929.943809	0.012280
930.122948	0.012382
930.302068	0.012198
930.481171	0.012212
930.660255	0.012657
930.839321	0.012135
931.018369	0.012143
931.197398	0.012251
931.376409	0.012031
931.555402	0.012009
931.734377	0.012077
931.913334	0.011850
932.092272	0.011577
932.271192	0.011076
932.450094	0.010677
932.628978	0.010680
932.807844	0.009782
932.986691	0.009766
933.165520	0.009746
933.344331	0.009361
933.523123	0.009886
933.701898	0.009857
933.880654	0.009945
934.059392	0.009424
934.238111	0.009299
934.416813	0.009188
934.595496	0.009202
934.774161	0.009091
934.952808	0.008522
935.131437	0.008612
935.310047	0.008762
935.488639	0.008798
935.667213	0.008767
935.845769	0.008431
936.024306	0.008271
936.202825	0.007695
936.381326	0.007030
936.559809	0.007576
936.738274	0.007234
936.916720	0.007046
937.095148	0.007207
937.273558	0.007466
937.451950	0.006950
937.630323	0.007224
937.808678	0.008062
937.987015	0.008346
938.165334	0.007609
938.343635	0.007069
938.521917	0.006509
938.700181	0.005304
938.878427	0.004467
939.056655	0.004807
939.234864	0.004006
939.413055	0.003235
939.591228	0.003424
939.769383	0.003273
939.947519	0.003452
940.125638	0.003070
940.303738	0.004223
940.481820	0.004734
940.659883	0.003993
940.837929	0.004280
941.015956	0.004534
941.193965	0.003486
941.371955	0.003848
941.549928	0.003344
941.727882	0.003591
941.905818	0.002695
942.083736	0.002054
942.261636	0.002759
942.439517	0.002049
942.617380	0.001159
942.795225	0.002015
942.973052	0.001624
943.150860	0.001518
943.328651	0.000947
943.506423	0.001294
943.684176	0.002223
943.861912	0.001536
944.039629	0.002560
944.217328	0.003777
944.395009	0.003498
944.572672	0.004001
944.750317	0.003551
944.927943	0.004463
945.105551	0.004993
945.283141	0.004589
945.460712	0.004514
945.638265	0.004329
945.815801	0.003615
945.993317	0.003851
946.170816	0.003809
946.348297	0.003976
946.525759	0.003696
946.703203	0.003375
946.880629	0.003148
947.058036	0.002920
947.235425	0.002855
947.412797	0.002287
947.590149	0.002402
947.767484	0.002230
947.944800	0.002585
948.122099	0.002020
948.299379	0.001749
948.476640	0.001215
948.653884	0.000919
948.831109	0.000993
949.008316	0.001369
949.185505	0.000378
949.362676	-0.000662
949.539828	-0.000179
949.716962	0.000183
949.894078	0.000190
950.071176	0.000795
950.248256	0.001757
950.425317	0.001941
950.602360	0.002570
950.779385	0.003559
950.956391	0.004080
951.133380	0.003721
951.310350	0.003802
951.487302	0.003240
951.664235	0.003147
951.841151	0.002593
952.018048	0.002029
952.194927	0.001116
952.371788	0.000956
952.548631	0.000633
952.725455	0.000708
952.902261	0.002477
953.079049	0.002513
953.255819	0.002715
953.432570	0.004985
953.609303	0.004378
953.786018	0.005978
953.962715	0.005191
954.139394	0.005538
954.316054	0.004848
954.492696	0.003862
954.669320	0.004274
954.845926	0.005251
955.022513	0.002031
955.199083	0.003422
955.375634	0.002810
955.552166	0.004978
955.728681	0.005962
955.905177	0.005774
956.081655	0.005016
956.258115	0.004464
956.434557	0.004384
956.610980	0.006374
956.787385	0.006123
956.963772	0.005492
957.140141	0.003366
957.316492	0.002389
957.492824	0.003474
957.669138	0.003944
957.845434	0.005209
958.021712	0.004932
958.197971	0.003923
958.374212	0.004466
958.550435	0.005016
958.726640	0.005224
958.902826	0.006105
959.078995	0.005744
959.255145	0.006209
959.431277	0.005194
959.607390	0.004598
959.783486	0.005236
959.959563	0.006414
960.135622	0.005679
960.311662	0.006299
960.487685	0.004821
960.663689	0.004533
960.839675	0.003490
961.015643	0.004898
961.191593	0.004517
961.367524	0.004175
961.543437	0.002703
961.719332	0.002792
961.895209	0.003073
962.071067	0.004025
962.246907	0.005007
962.422730	0.005364
962.598533	0.004953
962.774319	0.006963
962.950086	0.007719
963.125835	0.006005
963.301566	0.006670
963.477279	0.008129
963.652973	0.009029
963.828650	0.009822
964.004308	0.011767
964.179947	0.012112
964.355569	0.012367
964.531172	0.011915
964.706757	0.015307
964.882324	0.013743
965.057873	0.011304
965.233403	0.010799
965.408916	0.009881
965.584410	0.009409
965.759885	0.008822
965.935343	0.007584
966.110782	0.008993
966.286203	0.005865
966.461606	0.009469
966.636991	0.009880
966.812357	0.009283
966.987705	0.007767
967.163035	0.006687
967.338347	0.007373
967.513641	0.007220
967.688916	0.006846
967.864173	0.008713
968.039412	0.006315
968.214632	0.006331
968.389835	0.008892
968.565019	0.010952
968.740185	0.012545
968.915333	0.011109
969.090462	0.012299
969.265573	0.010930
969.440667	0.010144
969.615741	0.011761
969.790798	0.013927
969.965836	0.012889
970.140856	0.012401
970.315858	0.010254
970.490842	0.012195
970.665808	0.011339
970.840755	0.013512
971.015684	0.014581
971.190595	0.012824
971.365487	0.012481
971.540362	0.012302
971.715218	0.012292
971.890056	0.014145
972.064875	0.014469
972.239677	0.015435
972.414460	0.015635
972.589225	0.016749
972.763972	0.018061
972.938700	0.018495
973.113411	0.019867
973.288103	0.019253
973.462777	0.018316
973.637432	0.017728
973.812070	0.017060
973.986689	0.015451
974.161290	0.016072
974.335873	0.016405
974.510437	0.014684
974.684984	0.014151
974.859512	0.014751
975.034022	0.014615
975.208513	0.013829
975.382987	0.013551
975.557442	0.014843
975.731879	0.013180
975.906298	0.012635
976.080698	0.013566
976.255080	0.011614
976.429445	0.012275
976.603790	0.012866
976.778118	0.012966
976.952427	0.014912
977.126719	0.014954
977.300992	0.014695
977.475246	0.013541
977.649483	0.012342
977.823701	0.013010
977.997901	0.014462
978.172083	0.014723
978.346247	0.014365
978.520392	0.011043
978.694519	0.009597
978.868628	0.010244
979.042719	0.011674
979.216791	0.012085
979.390845	0.012293
979.564882	0.011720
979.738899	0.011625
979.912899	0.012435
980.086880	0.013587
980.260843	0.013127
980.434788	0.013406
980.608715	0.011490
980.782623	0.011724
980.956514	0.010823
981.130386	0.008644
981.304240	0.007509
981.478075	0.007419
981.651892	0.008008
981.825692	0.009923
981.999472	0.010278
982.173235	0.011533
982.346980	0.010690
982.520706	0.012002
982.694414	0.013787
982.868104	0.014956
983.041775	0.016630
983.215428	0.016872
983.389064	0.015839
983.562680	0.016032
983.736279	0.017606
983.909860	0.019757
984.083422	0.020323
984.256966	0.018142
984.430491	0.018685
984.603999	0.016728
984.777488	0.015605
984.950959	0.015197
985.124412	0.013784
985.297847	0.013481
985.471263	0.013622
985.644661	0.012611
985.818041	0.013236
985.991403	0.012718
986.164747	0.012753
986.338072	0.014349
986.511379	0.015694
986.684668	0.016304
986.857938	0.015343
987.031191	0.013738
987.204425	0.014175
987.377641	0.015195
987.550839	0.015259
987.724018	0.015178
987.897179	0.013894
988.070322	0.013358
988.243447	0.012664
988.416554	0.013716
988.589642	0.014931
988.762712	0.014603
988.935764	0.014645
989.108798	0.014589
989.281813	0.014606
989.454811	0.014790
989.627790	0.015082
989.800751	0.015154
989.973693	0.012769
990.146617	0.012047
990.319524	0.011744
990.492412	0.010690
990.665281	0.009723
990.838133	0.009266
991.010966	0.008997
991.183781	0.009257
991.356578	0.008774
991.529356	0.009568
991.702117	0.007648
991.874859	0.007211
992.047583	0.008503
992.220288	0.011030
992.392976	0.011480
992.565645	0.011164
992.738296	0.011425
992.910929	0.013053
993.083543	0.013856
993.256139	0.015942
993.428718	0.016014
993.601277	0.014865
993.773819	0.011493
993.946342	0.010558
994.118848	0.011334
994.291335	0.011612
994.463803	0.009616
994.636254	0.008747
994.808686	0.009507
994.981100	0.010205
995.153496	0.010354
995.325874	0.011923
995.498233	0.014417
995.670574	0.013636
995.842897	0.013309
996.015202	0.014796
996.187488	0.016085
996.359757	0.015886
996.532007	0.015594
996.704239	0.016269
996.876452	0.016790
997.048648	0.014758
997.220825	0.016552
997.392984	0.017103
997.565124	0.018187
997.737247	0.017203
997.909351	0.016040
998.081437	0.015468
998.253505	0.015652
998.425554	0.015797
998.597586	0.017438
998.769599	0.015981
998.941594	0.015014
999.113571	0.013253
999.285529	0.014465
999.457469	0.014977
999.629391	0.015514
999.801295	0.015529
999.973181	0.014570
1000.145048	0.013778
1000.316897	0.014596
1000.488728	0.014053
1000.660541	0.013878
1000.832335	0.013066
1001.004111	0.012506
1001.175869	0.012653
1001.347609	0.011798
1001.519331	0.012396
1001.691034	0.011365
1001.862719	0.010810
1002.034386	0.012457
1002.206035	0.012808
1002.377665	0.012969
1002.549277	0.013458
1002.720871	0.013244
1002.892447	0.012189
1003.064004	0.010795
1003.235544	0.010313
1003.407065	0.010794
1003.578568	0.010660
1003.750052	0.011454
1003.921519	0.011048
1004.092967	0.011586
1004.264397	0.012929
1004.435809	0.014334
1004.607202	0.016291
1004.778577	0.017909
1004.949934	0.017486
1005.121273	0.016352
1005.292594	0.016835
1005.463896	0.017422
1005.635180	0.017120
1005.806446	0.016826
1005.977694	0.016573
1006.148923	0.015300
1006.320135	0.014962
1006.491328	0.015913
1006.662503	0.016594
1006.833659	0.015962
1007.004798	0.015991
1007.175918	0.014210
1007.347020	0.012260
1007.518103	0.011518
1007.689169	0.012738
1007.860216	0.013691
1008.031245	0.013210
1008.202256	0.011626
1008.373248	0.011248
1008.544223	0.010299
1008.715179	0.011586
1008.886117	0.013956
1009.057036	0.015585
1009.227938	0.014834
1009.398821	0.014240
1009.569686	0.014291
1009.740533	0.014336
1009.911361	0.013678
1010.082172	0.014586
1010.252964	0.014020
1010.423738	0.013285
1010.594493	0.012504
1010.765231	0.012754
1010.935950	0.012254
1011.106651	0.011998
1011.277334	0.012584
1011.447998	0.012041
1011.618645	0.012065
1011.789273	0.011911
1011.959882	0.011420
1012.130474	0.011890
1012.301048	0.010854
1012.471603	0.009941
1012.642140	0.008871
1012.812658	0.008828
1012.983159	0.009638
1013.153641	0.009178
1013.324105	0.009408
1013.494551	0.009739
1013.664979	0.010342
1013.835388	0.009851
1014.005779	0.010165
1014.176152	0.010820
1014.346507	0.011584
1014.516843	0.011686
1014.687162	0.011641
1014.857462	0.012485
1015.027744	0.012898
1015.198007	0.011027
1015.368252	0.013002
1015.538480	0.014281
1015.708689	0.014486
1015.878879	0.014400
1016.049052	0.013987
1016.219206	0.014217
1016.389342	0.014259
1016.559460	0.013689
1016.729559	0.015185
1016.899641	0.015500
1017.069704	0.015117
1017.239749	0.016341
1017.409775	0.015979
1017.579784	0.017585
1017.749774	0.017022
1017.919746	0.017603
1018.089700	0.016868
1018.259635	0.014994
1018.429553	0.013655
1018.599452	0.013483
1018.769333	0.012265
1018.939195	0.012463
1019.109040	0.011688
1019.278866	0.012008
1019.448674	0.012198
1019.618464	0.012823
1019.788235	0.014421
1019.957989	0.014669
1020.127724	0.015204
1020.297441	0.016234
1020.467139	0.016413
1020.636820	0.015873
1020.806482	0.016045
1020.976126	0.015417
1021.145752	0.016292
1021.315359	0.016476
1021.484948	0.017260
1021.654519	0.016901
1021.824072	0.016827
1021.993607	0.017252
1022.163123	0.017461
1022.332621	0.018578
1022.502101	0.017419
1022.671563	0.015901
1022.841007	0.014495
1023.010432	0.013710
1023.179839	0.013127
1023.349228	0.012313
1023.518598	0.011455
1023.687951	0.009592
1023.857285	0.007934
1024.026601	0.006827
1024.195899	0.007437
1024.365178	0.008244
1024.534439	0.009412
1024.703682	0.009430
1024.872907	0.008697
1025.042114	0.009528
1025.211302	0.011513
1025.380472	0.011828
1025.549624	0.013331
1025.718758	0.013650
1025.887873	0.012535
1026.056970	0.010724
1026.226049	0.010084
1026.395110	0.010642
1026.564153	0.010041
1026.733177	0.009433
1026.902183	0.008845
1027.071171	0.009127
1027.240141	0.007597
1027.409092	0.008437
1027.578026	0.009851
1027.746940	0.010174
1027.915837	0.009651
1028.084716	0.010553
1028.253576	0.010314
1028.422418	0.012415
1028.591242	0.010454
1028.760048	0.011100
1028.928835	0.012513
1029.097604	0.012864
1029.266355	0.013855
1029.435088	0.013919
1029.603803	0.013799
1029.772499	0.013942
1029.941177	0.011673
1030.109837	0.014607
1030.278478	0.013678
1030.447102	0.013524
1030.615707	0.011013
1030.784294	0.011585
1030.952863	0.012637
1031.121413	0.011329
1031.289945	0.012000
1031.458460	0.012611
1031.626955	0.012015
1031.795433	0.014315
1031.963892	0.013080
1032.132334	0.014971
1032.300756	0.014183
1032.469161	0.013662
1032.637548	0.014330
1032.805916	0.013659
1032.974266	0.013992
1033.142598	0.013974
1033.310911	0.011853
1033.479207	0.011765
1033.647484	0.011078
1033.815743	0.011293
1033.983983	0.011633
1034.152206	0.009756
1034.320410	0.008322
1034.488596	0.007639
1034.656764	0.007518
1034.824914	0.008226
1034.993045	0.009184
1035.161158	0.008455
1035.329253	0.007601
1035.497330	0.006914
1035.665388	0.007833
1035.833428	0.010440
1036.001450	0.010447
1036.169454	0.009418
1036.337440	0.009532
1036.505407	0.009685
1036.673356	0.010665
1036.841287	0.012050
1037.009200	0.011661
1037.177094	0.011547
1037.344970	0.010483
1037.512828	0.010073
1037.680668	0.011653
1037.848489	0.012868
1038.016293	0.012296
1038.184078	0.012472
1038.351845	0.012285
1038.519593	0.013231
1038.687324	0.014015
1038.855036	0.015535
1039.022730	0.016341
1039.190406	0.016670
1039.358063	0.015485
1039.525702	0.015985
1039.693323	0.015846
1039.860926	0.016220
1040.028511	0.015108
1040.196077	0.015361
1040.363625	0.014683
1040.531155	0.014573
1040.698667	0.013259
1040.866161	0.014741
1041.033636	0.014063
1041.201093	0.012829
1041.368532	0.011362
1041.535952	0.012853
1041.703355	0.012441
1041.870739	0.012901
1042.038105	0.014104
1042.205452	0.014566
1042.372782	0.012823
1042.540093	0.012627
1042.707386	0.013741
1042.874661	0.015158
1043.041918	0.013324
1043.209156	0.013141
1043.376376	0.011709
1043.543578	0.010315
1043.710762	0.011479
1043.877927	0.012710
1044.045074	0.012556
1044.212203	0.013388
1044.379314	0.012146
1044.546407	0.012887
1044.713481	0.013629
1044.880537	0.014952
1045.047575	0.014637
1045.214595	0.012960
1045.381596	0.012743
1045.548579	0.013242
1045.715544	0.012179
1045.882491	0.012482
1046.049420	0.012388
1046.216330	0.011218
1046.383222	0.010563
1046.550096	0.011774
1046.716951	0.010308
1046.883789	0.010198
1047.050608	0.008694
1047.217409	0.009435
1047.384192	0.008852
1047.550956	0.010044
1047.717703	0.010201
1047.884431	0.009997
1048.051140	0.009893
1048.217832	0.010834
1048.384505	0.010242
1048.551161	0.011643
1048.717798	0.010270
1048.884416	0.010463
1049.051017	0.008987
1049.217599	0.009472
1049.384163	0.009626
1049.550709	0.008649
1049.717237	0.010887
1049.883746	0.011013
1050.050237	0.011620
1050.216710	0.011445
1050.383165	0.012179
1050.549601	0.013659
1050.716019	0.013810
1050.882420	0.013530
1051.048801	0.014603
1051.215165	0.013029
1051.381510	0.014096
1051.547837	0.014933
1051.714146	0.015716
1051.880437	0.015383
1052.046709	0.013769
1052.212964	0.014753
1052.379200	0.014919
1052.545417	0.014728
1052.711617	0.015958
1052.877798	0.014391
1053.043961	0.012035
1053.210106	0.011516
1053.376233	0.011007
1053.542341	0.012710
1053.708432	0.011911
1053.874504	0.011771
1054.040557	0.012627
1054.206593	0.011290
1054.372610	0.012436
1054.538609	0.013275
1054.704590	0.014031
1054.870553	0.014948
1055.036497	0.014748
1055.202424	0.014094
1055.368331	0.013783
1055.534221	0.013219
1055.700093	0.013162
1055.865946	0.013053
1056.031781	0.012500
1056.197598	0.012403
1056.363397	0.011596
1056.529177	0.010642
1056.694939	0.010912
1056.860683	0.010835
1057.026409	0.010994
1057.192116	0.010347
1057.357806	0.009092
1057.523477	0.007512
1057.689130	0.008246
1057.854764	0.010204
1058.020381	0.010676
1058.185979	0.010826
1058.351559	0.012643
1058.517120	0.011283
1058.682664	0.013407
1058.848189	0.013767
1059.013696	0.015965
1059.179185	0.015684
1059.344656	0.012606
1059.510108	0.012555
1059.675542	0.013337
1059.840958	0.013011
1060.006356	0.012664
1060.171735	0.010652
1060.337096	0.011617
1060.502439	0.012184
1060.667764	0.011847
1060.833071	0.013735
1060.998359	0.013630
1061.163629	0.013859
1061.328881	0.012917
1061.494115	0.014237
1061.659330	0.013555
1061.824527	0.012680
1061.989706	0.013033
1062.154867	0.015116
1062.320010	0.014175
1062.485134	0.014198
1062.650240	0.012578
1062.815328	0.012153
1062.980398	0.013478
1063.145449	0.014642
1063.310482	0.014414
1063.475497	0.013998
1063.640494	0.011652
1063.805473	0.013255
1063.970433	0.014737
1064.135375	0.014627
1064.300299	0.014968
1064.465204	0.012541
1064.630092	0.012150
1064.794961	0.013152
1064.959812	0.012889
1065.124645	0.012775
1065.289459	0.012387
1065.454256	0.011486
1065.619034	0.012278
1065.783793	0.012637
1065.948535	0.012909
1066.113258	0.013789
1066.277964	0.012889
1066.442651	0.011886
1066.607319	0.014238
1066.771970	0.013980
1066.936602	0.013330
1067.101216	0.012235
1067.265812	0.013425
1067.430389	0.014596
1067.594949	0.014600
1067.759490	0.014955
1067.924013	0.015367
1068.088518	0.012216
1068.253004	0.009810
1068.417472	0.010142
1068.581922	0.011044
1068.746354	0.010751
1068.910768	0.010397
1069.075163	0.010303
1069.239540	0.010460
1069.403899	0.011748
1069.568240	0.014196
1069.732562	0.016148
1069.896866	0.015790
1070.061152	0.015553
1070.225420	0.013713
1070.389670	0.014750
1070.553901	0.015164
1070.718114	0.014408
1070.882309	0.013181
1071.046486	0.011252
1071.210644	0.010987
1071.374784	0.009858
1071.538906	0.008645
1071.703010	0.009444
1071.867096	0.009099
1072.031163	0.006658
1072.195212	0.008830
1072.359243	0.009907
1072.523256	0.011582
1072.687250	0.012957
1072.851226	0.013945
1073.015184	0.015292
1073.179124	0.016211
1073.343045	0.015581
1073.506949	0.018134
1073.670834	0.017277
1073.834701	0.016161
1073.998549	0.015779
1074.162380	0.014544
1074.326192	0.014512
1074.489986	0.012775
1074.653761	0.011446
1074.817519	0.010934
1074.981258	0.010113
1075.144979	0.009659
1075.308682	0.010445
1075.472367	0.008810
1075.636033	0.009234
1075.799681	0.009446
1075.963311	0.012415
1076.126923	0.012139
1076.290516	0.012153
1076.454092	0.010973
1076.617649	0.011442
1076.781187	0.012144
1076.944708	0.014130
1077.108210	0.013076
1077.271695	0.012318
1077.435160	0.011915
1077.598608	0.013059
1077.762038	0.011288
1077.925449	0.010752
1078.088842	0.008513
1078.252217	0.008066
1078.415573	0.007608
1078.578912	0.007984
1078.742232	0.008758
1078.905534	0.009458
1079.068817	0.008064
1079.232083	0.011989
1079.395330	0.016062
1079.558559	0.017464
1079.721770	0.017397
1079.884962	0.016734
1080.048136	0.016266
1080.211293	0.016221
1080.374430	0.013866
1080.537550	0.015829
1080.700651	0.012663
1080.863735	0.011864
1081.026800	0.012923
1081.189846	0.011046
1081.352875	0.011641
1081.515885	0.011064
1081.678877	0.012214
1081.841851	0.013389
1082.004807	0.012659
1082.167744	0.013710
1082.330663	0.011967
1082.493564	0.011309
1082.656447	0.011400
1082.819312	0.012394
1082.982158	0.014377
1083.144986	0.014048
1083.307796	0.013186
1083.470587	0.014559
1083.633361	0.015760
1083.796116	0.016403
1083.958853	0.015566
1084.121571	0.017439
1084.284272	0.014827
1084.446954	0.015550
1084.609618	0.013968
1084.772264	0.015579
1084.934892	0.014836
1085.097501	0.012571
1085.260092	0.011877
1085.422665	0.012431
1085.585220	0.011178
1085.747756	0.011460
1085.910274	0.010030
1086.072774	0.010469
1086.235256	0.008574
1086.397720	0.004594
1086.560165	0.006524
1086.722592	0.005571
1086.885001	0.004433
1087.047392	0.004179
1087.209764	0.005533
1087.372119	0.005186
1087.534455	0.006148
1087.696772	0.006430
1087.859072	0.009538
1088.021353	0.007011
1088.183616	0.009223
1088.345861	0.010905
1088.508088	0.010391
1088.670296	0.010885
1088.832486	0.012883
1088.994658	0.010715
1089.156812	0.012050
1089.318948	0.009816
1089.481065	0.011453
1089.643164	0.011586
1089.805245	0.012258
1089.967308	0.013813
1090.129352	0.011427
1090.291378	0.011642
1090.453386	0.013677
1090.615376	0.012659
1090.777347	0.014809
1090.939301	0.014734
1091.101236	0.013604
1091.263153	0.014178
1091.425051	0.013359
1091.586932	0.017379
1091.748794	0.016517
1091.910638	0.017093
1092.072463	0.015577
1092.234271	0.015433
1092.396060	0.014280
1092.557831	0.011583
1092.719584	0.010178
1092.881319	0.008718
1093.043035	0.005287
1093.204733	0.003674
1093.366413	0.002237
1093.528075	0.004701
1093.689718	0.004139
1093.851343	0.004955
1094.012950	0.008820
1094.174539	0.008270
1094.336110	0.010024
1094.497662	0.010739
1094.659196	0.012733
1094.820712	0.014782
1094.982210	0.013736
1095.143689	0.014732
1095.305151	0.014656
1095.466594	0.012991
1095.628018	0.013915
1095.789425	0.014330
1095.950813	0.013620
1096.112183	0.011700
1096.273535	0.010674
1096.434869	0.009338
1096.596184	0.010192
1096.757482	0.013768
1096.918761	0.012027
1097.080021	0.012195
1097.241264	0.013651
1097.402488	0.015964
1097.563694	0.017081
1097.724882	0.013025
1097.886052	0.011560
1098.047203	0.009843
1098.208336	0.008218
1098.369451	0.012399
1098.530548	0.010935
1098.691627	0.008015
1098.852687	0.005807
1099.013729	0.006509
1099.174753	0.008661
1099.335758	0.013626
1099.496746	0.013031
1099.657715	0.011453
1099.818666	0.007145
1099.979599	0.009706
1100.140513	0.010169
1100.301409	0.007874
1100.462287	0.005130
1100.623147	0.005010
1100.783989	0.004252
1100.944812	0.005259
1101.105617	0.003829
1101.266404	0.006795
1101.427173	0.005268
1101.587923	0.005877
1101.748656	0.008288
1101.909370	0.010224
1102.070066	0.011928
1102.230743	0.009818
1102.391403	0.009896
1102.552044	0.008797
1102.712667	0.006303
1102.873271	0.005817
1103.033858	0.005248
1103.194426	0.004946
1103.354976	0.007029
1103.515508	0.006948
1103.676021	0.006293
1103.836517	0.006078
1103.996994	0.005779
1104.157453	0.009283
1104.317893	0.007988
1104.478316	0.008032
1104.638720	0.009330
1104.799106	0.006127
1104.959474	0.005590
1105.119823	0.007869
1105.280155	0.006845
1105.440468	0.010291
1105.600763	0.008220
1105.761039	0.009801
1105.921298	0.008317
1106.081538	0.006691
1106.241760	0.008272
1106.401964	0.007006
1106.562149	0.004418
1106.722316	0.004119
1106.882465	0.004534
1107.042596	0.003790
1107.202709	0.001101
1107.362803	0.003689
1107.522879	0.003920
1107.682937	0.002175
1107.842977	0.007074
1108.002999	0.010219
1108.163002	0.012330
1108.322987	0.011979
1108.482954	0.013891
1108.642902	0.013772
1108.802833	0.012457
1108.962745	0.013989
1109.122639	0.014872
1109.282515	0.009336
1109.442372	0.008428
1109.602211	0.009390
1109.762032	0.007847
1109.921835	0.010927
1110.081620	0.013956
1110.241386	0.017304
1110.401134	0.015095
1110.560864	0.016112
1110.720576	0.018618
1110.880269	0.018407
1111.039945	0.018165
1111.199602	0.019722
1111.359240	0.014080
1111.518861	0.015213
1111.678463	0.013250
1111.838047	0.014743
1111.997613	0.013089
1112.157161	0.011087
1112.316690	0.012561
1112.476202	0.012677
1112.635695	0.010628
1112.795169	0.012464
1112.954626	0.011026
1113.114064	0.007984
1113.273484	0.007444
1113.432886	0.006856
1113.592270	0.005879
1113.751635	0.007468
1113.910983	0.003691
1114.070312	0.004571
1114.229622	0.006429
1114.388915	0.005560
1114.548189	0.009921
1114.707445	0.011984
1114.866683	0.012987
1115.025903	0.015857
1115.185104	0.009449
1115.344287	0.011611
1115.503452	0.011730
1115.662599	0.008801
1115.821727	0.007206
1115.980838	0.005442
1116.139930	0.007630
1116.299004	0.004300
1116.458059	0.003993
1116.617097	0.008070
1116.776116	0.006380
1116.935117	0.007943
1117.094099	0.009059
1117.253064	0.009837
1117.412010	0.004367
1117.570938	-0.002148
1117.729848	0.004553
1117.888740	0.003184
1118.047613	0.001432
1118.206468	-0.000104
1118.365305	-0.005374
1118.524124	-0.007399
1118.682924	-0.007817
1118.841707	-0.003742
1119.000471	-0.003665
1119.159216	-0.003442
1119.317944	-0.003644
1119.476653	-0.001379
1119.635344	0.003050
1119.794017	0.007076
1119.952672	0.011897
1120.111308	0.017170
1120.269927	0.020516
1120.428527	0.021511
1120.587108	0.019935
1120.745672	0.023062
1120.904217	0.022286
1121.062744	0.022618
1121.221253	0.022805
1121.379744	0.018705
1121.538216	0.015537
1121.696671	0.012409
1121.855107	0.012684
1122.013524	0.011022
1122.171924	0.008240
1122.330305	0.009025
1122.488668	0.008951
1122.647013	0.008862
1122.805340	0.010445
1122.963648	0.009493
1123.121938	0.010227
1123.280210	0.010984
1123.438464	0.012469
1123.596700	0.013209
1123.754917	0.005387
1123.913116	0.003487
1124.071297	0.004773
1124.229459	0.005965
1124.387604	0.002726
1124.545730	0.002640
1124.703838	0.003684
1124.861928	0.002623
1125.019999	0.004366
1125.178052	0.007439
1125.336088	0.007737
1125.494104	0.005218
1125.652103	0.005939
1125.810083	0.013798
1125.968045	0.014492
1126.125989	0.009273
1126.283915	0.011447
1126.441823	0.007718
1126.599712	0.005931
1126.757583	0.008639
1126.915436	0.009497
1127.073270	0.006923
1127.231087	0.007164
1127.388885	0.005673
1127.546665	0.010584
1127.704426	0.007121
1127.862170	0.010282
1128.019895	0.012270
1128.177602	0.010990
1128.335291	0.008294
1128.492961	0.005273
1128.650614	-0.001131
1128.808248	0.003719
1128.965864	-0.000184
1129.123461	0.001190
1129.281041	0.000017
1129.438602	0.008097
1129.596145	0.001916
1129.753670	0.002407
1129.911176	0.001836
1130.068665	0.004969
1130.226135	-0.001454
1130.383587	0.003361
1130.541020	0.003001
1130.698436	0.001692
1130.855833	-0.001495
1131.013212	0.005567
1131.170573	0.009258
1131.327915	0.011800
1131.485239	0.013506
1131.642545	0.013942
1131.799833	0.009822
1131.957103	0.006740
1132.114354	0.006507
1132.271588	0.005578
1132.428803	0.004726
1132.585999	0.001919
1132.743178	0.003547
1132.900338	-0.000115
1133.057480	0.001989
1133.214604	0.004152
1133.371710	0.006469
1133.528797	0.005287
1133.685866	0.005148
1133.842917	0.004267
1133.999950	0.008570
1134.156964	0.005824
1134.313960	0.009751
1134.470938	0.009051
1134.627898	0.007383
1134.784840	0.005873
1134.941763	0.009955
1135.098668	0.010265
1135.255555	0.010515
1135.412424	0.009879
1135.569274	0.012170
1135.726107	0.011067
1135.882921	0.014344
1136.039716	0.011342
1136.196494	0.014502
1136.353253	0.016545
1136.509995	0.011894
1136.666717	0.011643
1136.823422	0.011113
1136.980109	0.007587
1137.136777	0.008848
1137.293427	0.009263
1137.450059	0.015624
1137.606672	0.013346
1137.763267	0.012421
1137.919844	0.017895
1138.076403	0.013613
1138.232944	0.015376
1138.389466	0.021430
1138.545971	0.017443
1138.702457	0.018929
1138.858924	0.018089
1139.015374	0.020415
1139.171805	0.016218
1139.328218	0.017763
1139.484613	0.014635
1139.640990	0.010734
1139.797348	0.009350
1139.953688	0.011042
1140.110010	0.009944
1140.266314	0.010130
1140.422600	0.011907
1140.578867	0.014532
1140.735116	0.012395
1140.891347	0.019500
1141.047559	0.023231
1141.203754	0.023409
1141.359930	0.024850
1141.516088	0.018913
1141.672228	0.019169
1141.828349	0.012175
1141.984452	0.008602
1142.140537	0.004859
1142.296604	0.007213
1142.452653	0.003277
1142.608683	-0.002939
1142.764695	-0.002911
1142.920689	0.002758
1143.076665	0.000273
1143.232622	0.002399
1143.388562	0.009690
1143.544483	0.017104
1143.700385	0.009370
1143.856270	0.008551
1144.012136	0.012978
1144.167985	0.011508
1144.323814	0.005068
1144.479626	0.010799
1144.635420	0.008877
1144.791195	0.004938
1144.946952	0.005324
1145.102691	0.009705
1145.258411	0.016104
1145.414113	0.016968
1145.569798	0.011446
1145.725463	0.010969
1145.881111	0.010277
1146.036741	0.014610
1146.192352	0.021891
1146.347945	0.019548
1146.503519	0.025863
1146.659076	0.023843
1146.814614	0.027435
1146.970134	0.036499
1147.125636	0.036104
1147.281120	0.032395
1147.436585	0.027245
1147.592032	0.023878
1147.747461	0.021529
1147.902872	0.016456
1148.058265	0.009489
1148.213639	0.007349
1148.368995	0.008177
1148.524333	0.006315
1148.679653	0.006965
1148.834954	0.005335
1148.990237	-0.003045
1149.145502	-0.007624
1149.300749	-0.007942
1149.455977	-0.005943
1149.611188	-0.010321
1149.766380	-0.012342
1149.921553	-0.005267
1150.076709	-0.011794
1150.231846	-0.004603
1150.386966	0.006996
1150.542066	0.012726
1150.697149	0.017733
1150.852214	0.015781
1151.007260	0.017275
1151.162288	0.012567
1151.317298	0.012188
1151.472289	0.024109
1151.627263	0.027289
1151.782218	0.024059
1151.937155	0.022285
1152.092073	0.017381
1152.246974	0.022002
1152.401856	0.020046
1152.556720	0.020592
1152.711566	0.021396
1152.866393	0.016817
1153.021203	0.014318
1153.175994	0.011351
1153.330767	0.009889
1153.485521	0.011688
1153.640258	0.014303
1153.794976	0.016541
1153.949676	0.020964
1154.104358	0.011061
1154.259021	0.009363
1154.413667	0.003921
1154.568294	0.005477
1154.722903	0.009269
1154.877493	0.002949
1155.032066	-0.001480
1155.186620	0.000169
1155.341156	-0.004413
1155.495674	0.007309
1155.650173	0.007037
1155.804654	0.005343
1155.959118	0.005778
1156.113562	0.000204
1156.267989	0.004254
1156.422397	0.002895
1156.576788	0.001561
1156.731160	0.002237
1156.885513	-0.006522
1157.039849	-0.003634
1157.194166	0.009158
1157.348465	0.002798
1157.502746	0.007099
1157.657009	0.010018
1157.811253	0.018458
1157.965479	0.021886
1158.119687	0.019018
1158.273877	0.028003
1158.428048	0.028241
1158.582201	0.020841
1158.736337	0.026438
1158.890453	0.027140
1159.044552	0.020931
1159.198632	0.018959
1159.352694	0.018756
1159.506738	0.022251
1159.660764	0.011201
1159.814771	0.005481
1159.968761	0.003714
1160.122732	0.004431
1160.276685	0.004696
1160.430619	0.009311
1160.584535	0.002870
1160.738434	-0.005151
1160.892313	-0.005687
1161.046175	0.003399
1161.200019	0.004884
1161.353844	-0.008560
1161.507651	-0.014699
1161.661440	-0.019036
1161.815210	-0.019540
1161.968962	-0.023291
1162.122697	-0.020340
1162.276412	-0.021733
1162.430110	-0.026069
1162.583789	-0.025958
1162.737451	-0.007202
1162.891094	-0.001903
1163.044718	-0.005332
1163.198325	-0.006465
1163.351913	0.000641
1163.505483	0.005192
1163.659035	0.009979
1163.812569	0.012006
1163.966084	0.011392
1164.119581	0.008512
1164.273060	0.013529
1164.426521	0.024849
1164.579964	0.011994
1164.733388	0.011153
1164.886794	0.003656
1165.040182	0.005449
1165.193551	0.007802
1165.346903	0.002101
1165.500236	0.003005
1165.653551	-0.004856
1165.806848	-0.014712
1165.960126	-0.000407
1166.113386	0.000117
1166.266628	0.015494
1166.419852	0.009022
1166.573058	0.010085
1166.726245	0.018294
1166.879414	0.013317
1167.032565	0.012229
1167.185698	0.021269
1167.338812	0.021456
1167.491909	0.020960
1167.644987	0.013460
1167.798046	0.012916
1167.951088	0.011876
1168.104111	0.015704
1168.257117	0.022148
1168.410103	0.017990
1168.563072	0.017337
1168.716023	0.006313
1168.868955	-0.002741
1169.021869	-0.005553
1169.174765	-0.004946
1169.327642	-0.008405
1169.480501	-0.013118
1169.633343	-0.014966
1169.786165	-0.010012
1169.938970	-0.022093
1170.091757	-0.010044
1170.244525	-0.005101
1170.397275	-0.009904
1170.550007	-0.002225
1170.702720	-0.006240
1170.855415	-0.005681
1171.008092	-0.009054
1171.160751	-0.010513
1171.313392	-0.001464
1171.466014	-0.005444
1171.618619	-0.002956
1171.771205	-0.002956
1171.923772	-0.002956
