sample name	sample
index	1002
start time	 04-14-2021  04:45:32 PM


Wavelength (nm)	Absorbance
494.344910	-0.076886
494.563924	-0.076886
494.782919	-0.076886
495.001897	-0.252057
495.220856	-0.148882
495.439797	-0.101213
495.658719	-0.142448
495.877624	-0.124115
496.096510	-0.068980
496.315378	0.017809
496.534227	0.051388
496.753059	0.062014
496.971872	0.068766
497.190667	0.034021
497.409444	0.027041
497.628203	0.030658
497.846943	0.033513
498.065665	0.033216
498.284369	0.032751
498.503055	0.031883
498.721723	0.031569
498.940372	0.031182
499.159003	0.030760
499.377616	0.031503
499.596210	0.031479
499.814787	0.029919
500.033345	0.029403
500.251885	0.029231
500.470406	0.028840
500.688910	0.029548
500.907395	0.030490
501.125862	0.030608
501.344311	0.030674
501.562742	0.030724
501.781154	0.031058
501.999548	0.031699
502.217924	0.030920
502.436282	0.032347
502.654621	0.031558
502.872942	0.031674
503.091245	0.032260
503.309530	0.032796
503.527797	0.032043
503.746045	0.031272
503.964275	0.030910
504.182487	0.031640
504.400681	0.030535
504.618856	0.031004
504.837013	0.030886
505.055152	0.030921
505.273273	0.030585
505.491376	0.031421
505.709460	0.032088
505.927526	0.032949
506.145574	0.032433
506.363604	0.032567
506.581615	0.033318
506.799608	0.033063
507.017583	0.032046
507.235540	0.031685
507.453478	0.031981
507.671399	0.032451
507.889301	0.032050
508.107185	0.032307
508.325050	0.033307
508.542898	0.032302
508.760727	0.033464
508.978538	0.034778
509.196330	0.034561
509.414105	0.033718
509.631861	0.034235
509.849599	0.033898
510.067319	0.033991
510.285021	0.033409
510.502704	0.034001
510.720369	0.032961
510.938016	0.031878
511.155645	0.031967
511.373255	0.032055
511.590848	0.031297
511.808422	0.031572
512.025977	0.031837
512.243515	0.031621
512.461034	0.031072
512.678536	0.032186
512.896018	0.032645
513.113483	0.032767
513.330930	0.033452
513.548358	0.034174
513.765768	0.034395
513.983160	0.034570
514.200533	0.034974
514.417889	0.035811
514.635226	0.035066
514.852545	0.035140
515.069845	0.035061
515.287128	0.034920
515.504392	0.033559
515.721638	0.033779
515.938866	0.034051
516.156075	0.034123
516.373267	0.033853
516.590440	0.034330
516.807594	0.034485
517.024731	0.034555
517.241850	0.034527
517.458950	0.035084
517.676032	0.035430
517.893095	0.035173
518.110141	0.035536
518.327168	0.036170
518.544177	0.036128
518.761168	0.036580
518.978141	0.037360
519.195095	0.038203
519.412031	0.038882
519.628949	0.038568
519.845849	0.038918
520.062731	0.039155
520.279594	0.039251
520.496439	0.039123
520.713266	0.039489
520.930074	0.039212
521.146865	0.039045
521.363637	0.039307
521.580391	0.039628
521.797127	0.039730
522.013844	0.039509
522.230543	0.039377
522.447224	0.040170
522.663887	0.039935
522.880532	0.039893
523.097158	0.039819
523.313766	0.039202
523.530356	0.039100
523.746928	0.039456
523.963481	0.040102
524.180017	0.040043
524.396534	0.039943
524.613032	0.039805
524.829513	0.039846
525.045975	0.040018
525.262420	0.040731
525.478845	0.040655
525.695253	0.040162
525.911643	0.040105
526.128014	0.040682
526.344367	0.040807
526.560702	0.040807
526.777018	0.041214
526.993316	0.041145
527.209597	0.041186
527.425858	0.041836
527.642102	0.042705
527.858328	0.042331
528.074535	0.042353
528.290724	0.042590
528.506894	0.043117
528.723047	0.042772
528.939181	0.042954
529.155297	0.043410
529.371395	0.043561
529.587475	0.043504
529.803536	0.044320
530.019579	0.044430
530.235604	0.044594
530.451611	0.044174
530.667600	0.045073
530.883570	0.045116
531.099522	0.044954
531.315456	0.044702
531.531372	0.045086
531.747269	0.044905
531.963148	0.044988
532.179009	0.044770
532.394852	0.045371
532.610676	0.045486
532.826482	0.046001
533.042271	0.046479
533.258040	0.047030
533.473792	0.046562
533.689525	0.046712
533.905240	0.046245
534.120937	0.046478
534.336616	0.046959
534.552277	0.046913
534.767919	0.046737
534.983543	0.046845
535.199149	0.046768
535.414736	0.047222
535.630306	0.047066
535.845857	0.047842
536.061390	0.047905
536.276904	0.047162
536.492401	0.048104
536.707879	0.048299
536.923339	0.048320
537.138781	0.048148
537.354204	0.048763
537.569610	0.049018
537.784997	0.049046
538.000366	0.049978
538.215716	0.050783
538.431049	0.050375
538.646363	0.050344
538.861659	0.050397
539.076937	0.050755
539.292196	0.050614
539.507438	0.051182
539.722661	0.051738
539.937866	0.051352
540.153052	0.051075
540.368221	0.051536
540.583371	0.051787
540.798503	0.052151
541.013617	0.052350
541.228712	0.052347
541.443789	0.051916
541.658848	0.051979
541.873889	0.052066
542.088912	0.052768
542.303916	0.052454
542.518902	0.052612
542.733870	0.052754
542.948820	0.053159
543.163752	0.053351
543.378665	0.053873
543.593560	0.053521
543.808437	0.053620
544.023295	0.054050
544.238136	0.053875
544.452958	0.053969
544.667762	0.053955
544.882548	0.053585
545.097315	0.053378
545.312064	0.053642
545.526795	0.054318
545.741508	0.054059
545.956203	0.054135
546.170879	0.054794
546.385537	0.054810
546.600177	0.055367
546.814799	0.055493
547.029402	0.055861
547.243988	0.055304
547.458555	0.055156
547.673103	0.055834
547.887634	0.055812
548.102146	0.055642
548.316640	0.056317
548.531116	0.056116
548.745574	0.056293
548.960013	0.056129
549.174435	0.056693
549.388838	0.056957
549.603222	0.057224
549.817589	0.057035
550.031937	0.057692
550.246267	0.058134
550.460579	0.058619
550.674873	0.059018
550.889148	0.059267
551.103405	0.059265
551.317644	0.059220
551.531865	0.059282
551.746068	0.059243
551.960252	0.058947
552.174418	0.058554
552.388566	0.058192
552.602696	0.057968
552.816807	0.058022
553.030900	0.057969
553.244975	0.058006
553.459032	0.057643
553.673070	0.058168
553.887091	0.058076
554.101093	0.058125
554.315077	0.058365
554.529042	0.058665
554.742990	0.058801
554.956919	0.059158
555.170830	0.059532
555.384722	0.059746
555.598597	0.059736
555.812453	0.059867
556.026291	0.059806
556.240111	0.059944
556.453913	0.059882
556.667696	0.060019
556.881461	0.059924
557.095208	0.059631
557.308937	0.059579
557.522647	0.060034
557.736339	0.060141
557.950013	0.060215
558.163669	0.060033
558.377307	0.060231
558.590926	0.060211
558.804527	0.060273
559.018110	0.060228
559.231675	0.060290
559.445221	0.059887
559.658749	0.060163
559.872259	0.060176
560.085751	0.060896
560.299225	0.061032
560.512680	0.061295
560.726117	0.061480
560.939536	0.062079
561.152937	0.062423
561.366319	0.062403
561.579683	0.062201
561.793029	0.062666
562.006357	0.062025
562.219667	0.062369
562.432958	0.062333
562.646231	0.062405
562.859486	0.062002
563.072723	0.061890
563.285941	0.062486
563.499141	0.062682
563.712323	0.062637
563.925487	0.062870
564.138632	0.062771
564.351760	0.062911
564.564869	0.063043
564.777960	0.063158
564.991032	0.063492
565.204087	0.062927
565.417123	0.063699
565.630141	0.063920
565.843140	0.063960
566.056122	0.063963
566.269085	0.064383
566.482030	0.064411
566.694957	0.064821
566.907866	0.065077
567.120756	0.065156
567.333628	0.064763
567.546482	0.064924
567.759318	0.064943
567.972135	0.064870
568.184935	0.064747
568.397716	0.065105
568.610478	0.064770
568.823223	0.064663
569.035949	0.064863
569.248657	0.065030
569.461347	0.064987
569.674019	0.065017
569.886672	0.065543
570.099308	0.065587
570.311925	0.065670
570.524523	0.066092
570.737104	0.066193
570.949666	0.066545
571.162210	0.066465
571.374736	0.066570
571.587244	0.067012
571.799733	0.066757
572.012205	0.066731
572.224658	0.066665
572.437092	0.066553
572.649509	0.066375
572.861907	0.066354
573.074287	0.066212
573.286649	0.066221
573.498993	0.065946
573.711318	0.066263
573.923625	0.066481
574.135914	0.066434
574.348185	0.066807
574.560438	0.066656
574.772672	0.066744
574.984888	0.067080
575.197086	0.067072
575.409266	0.067820
575.621427	0.067721
575.833570	0.067728
576.045695	0.067940
576.257802	0.067663
576.469890	0.068077
576.681961	0.068305
576.894013	0.068609
577.106046	0.068947
577.318062	0.068576
577.530059	0.068916
577.742039	0.068954
577.954000	0.069064
578.165942	0.069350
578.377867	0.069381
578.589773	0.069385
578.801661	0.069441
579.013531	0.069075
579.225382	0.069000
579.437216	0.068458
579.649031	0.068785
579.860828	0.069058
580.072606	0.069387
580.284367	0.069679
580.496109	0.069715
580.707833	0.069757
580.919539	0.069939
581.131227	0.070370
581.342896	0.070997
581.554547	0.070745
581.766180	0.070538
581.977795	0.070217
582.189391	0.070291
582.400969	0.070378
582.612529	0.070341
582.824071	0.070519
583.035595	0.070223
583.247100	0.070042
583.458587	0.070460
583.670056	0.071041
583.881506	0.071246
584.092939	0.071154
584.304353	0.071408
584.515749	0.071174
584.727127	0.071138
584.938486	0.071358
585.149828	0.071692
585.361151	0.071493
585.572456	0.071288
585.783742	0.071422
585.995011	0.071685
586.206261	0.071566
586.417493	0.072279
586.628706	0.072461
586.839902	0.072493
587.051079	0.072286
587.262238	0.072331
587.473379	0.072425
587.684502	0.072735
587.895606	0.072772
588.106692	0.072888
588.317760	0.072871
588.528810	0.073043
588.739841	0.073556
588.950855	0.073801
589.161850	0.074035
589.372827	0.074299
589.583785	0.074126
589.794726	0.074525
590.005648	0.074592
590.216552	0.074322
590.427437	0.074269
590.638305	0.074110
590.849154	0.074011
591.059985	0.074045
591.270798	0.073821
591.481592	0.073867
591.692369	0.073614
591.903127	0.073742
592.113867	0.073834
592.324588	0.074198
592.535292	0.074263
592.745977	0.074624
592.956644	0.074656
593.167293	0.074445
593.377923	0.074573
593.588536	0.074668
593.799130	0.074994
594.009706	0.075332
594.220263	0.075387
594.430803	0.075261
594.641324	0.075283
594.851827	0.075414
595.062312	0.075691
595.272778	0.075677
595.483227	0.075622
595.693657	0.075561
595.904069	0.075364
596.114462	0.075479
596.324838	0.075658
596.535195	0.075728
596.745534	0.075837
596.955855	0.076107
597.166157	0.076290
597.376441	0.076393
597.586707	0.076467
597.796955	0.076569
598.007185	0.076430
598.217396	0.076675
598.427589	0.076912
598.637764	0.077230
598.847921	0.077428
599.058060	0.077578
599.268180	0.078005
599.478282	0.078055
599.688366	0.078002
599.898431	0.078154
600.108479	0.078268
600.318508	0.078335
600.528519	0.078189
600.738511	0.078156
600.948486	0.078073
601.158442	0.078077
601.368380	0.078169
601.578300	0.078453
601.788202	0.078367
601.998085	0.078224
602.207950	0.078249
602.417797	0.078433
602.627626	0.078402
602.837436	0.078632
603.047228	0.078730
603.257002	0.078559
603.466758	0.078597
603.676496	0.078878
603.886215	0.079053
604.095916	0.079092
604.305599	0.078986
604.515264	0.078921
604.724910	0.079088
604.934538	0.079043
605.144148	0.079670
605.353740	0.079726
605.563314	0.080029
605.772869	0.080226
605.982406	0.080396
606.191925	0.080556
606.401425	0.080989
606.610908	0.081016
606.820372	0.080969
607.029818	0.080832
607.239246	0.080868
607.448655	0.080675
607.658047	0.080924
607.867420	0.080982
608.076775	0.081080
608.286111	0.081289
608.495430	0.081439
608.704730	0.081822
608.914012	0.081841
609.123275	0.082223
609.332521	0.082524
609.541748	0.082350
609.750957	0.082238
609.960148	0.082458
610.169321	0.082158
610.378475	0.082182
610.587611	0.082193
610.796729	0.082413
611.005829	0.082536
611.214910	0.082634
611.423974	0.082621
611.633019	0.082967
611.842045	0.083012
612.051054	0.083274
612.260044	0.083257
612.469017	0.083143
612.677970	0.082968
612.886906	0.082878
613.095824	0.082732
613.304723	0.083222
613.513604	0.083214
613.722467	0.083380
613.931311	0.083480
614.140138	0.083577
614.348946	0.083587
614.557736	0.083895
614.766507	0.083924
614.975261	0.084193
615.183996	0.083961
615.392713	0.084095
615.601412	0.084025
615.810092	0.084159
616.018754	0.084466
616.227399	0.084660
616.436024	0.084760
616.644632	0.084983
616.853222	0.085068
617.061793	0.085264
617.270346	0.085319
617.478880	0.085516
617.687397	0.085503
617.895895	0.085451
618.104375	0.085668
618.312837	0.085725
618.521281	0.085824
618.729706	0.085886
618.938113	0.086046
619.146502	0.086203
619.354873	0.086261
619.563226	0.086704
619.771560	0.086829
619.979876	0.086828
620.188174	0.086998
620.396453	0.087141
620.604715	0.087087
620.812958	0.087280
621.021183	0.087317
621.229390	0.087233
621.437578	0.087049
621.645748	0.087263
621.853900	0.087461
622.062034	0.087410
622.270150	0.087551
622.478247	0.087687
622.686326	0.087623
622.894387	0.087805
623.102430	0.087843
623.310454	0.087788
623.518461	0.087610
623.726449	0.087458
623.934418	0.087822
624.142370	0.087926
624.350303	0.088155
624.558218	0.088363
624.766115	0.088501
624.973994	0.088767
625.181855	0.089030
625.389697	0.089178
625.597521	0.089471
625.805327	0.089412
626.013114	0.089256
626.220883	0.089129
626.428634	0.089059
626.636367	0.089045
626.844082	0.089226
627.051778	0.089281
627.259457	0.089341
627.467117	0.089263
627.674758	0.089402
627.882382	0.089430
628.089987	0.089710
628.297574	0.089694
628.505143	0.089769
628.712694	0.089959
628.920226	0.089651
629.127740	0.089706
629.335236	0.089896
629.542714	0.089632
629.750174	0.089714
629.957615	0.089624
630.165038	0.089650
630.372443	0.089473
630.579829	0.089251
630.787198	0.089609
630.994548	0.089646
631.201880	0.089751
631.409194	0.089910
631.616489	0.089924
631.823766	0.089968
632.031025	0.090065
632.238266	0.090229
632.445489	0.090320
632.652693	0.090282
632.859879	0.090406
633.067047	0.090383
633.274197	0.090454
633.481329	0.090659
633.688442	0.090849
633.895537	0.091046
634.102614	0.091284
634.309672	0.091306
634.516713	0.091459
634.723735	0.091473
634.930739	0.091627
635.137724	0.091745
635.344692	0.091788
635.551641	0.091838
635.758572	0.091891
635.965485	0.091990
636.172379	0.092144
636.379256	0.092165
636.586114	0.092282
636.792954	0.092242
636.999775	0.092145
637.206579	0.091954
637.413364	0.092036
637.620131	0.092064
637.826880	0.092099
638.033610	0.092169
638.240323	0.092399
638.447017	0.092621
638.653692	0.092623
638.860350	0.092709
639.066990	0.093030
639.273611	0.093186
639.480214	0.093312
639.686798	0.093192
639.893365	0.093205
640.099913	0.093445
640.306443	0.093480
640.512955	0.093677
640.719449	0.093990
640.925924	0.094362
641.132381	0.094332
641.338820	0.094325
641.545241	0.094609
641.751644	0.094825
641.958028	0.094728
642.164394	0.094870
642.370742	0.095038
642.577071	0.095183
642.783383	0.094957
642.989676	0.095077
643.195951	0.095163
643.402207	0.094979
643.608446	0.094863
643.814666	0.094850
644.020868	0.094703
644.227052	0.094902
644.433218	0.094765
644.639365	0.094700
644.845494	0.094526
645.051605	0.094713
645.257698	0.094771
645.463772	0.094851
645.669828	0.094980
645.875866	0.094959
646.081886	0.094813
646.287888	0.094895
646.493871	0.095096
646.699836	0.095276
646.905783	0.095150
647.111712	0.095477
647.317622	0.095758
647.523514	0.095799
647.729388	0.095954
647.935244	0.096036
648.141082	0.096165
648.346901	0.096413
648.552702	0.096572
648.758485	0.096806
648.964250	0.096772
649.169996	0.096912
649.375724	0.096972
649.581434	0.097313
649.787126	0.097382
649.992800	0.097410
650.198455	0.097349
650.404092	0.097435
650.609711	0.097502
650.815311	0.097518
651.020894	0.097491
651.226458	0.097646
651.432004	0.097794
651.637532	0.097915
651.843041	0.097963
652.048532	0.098244
652.254006	0.098537
652.459460	0.098634
652.664897	0.098738
652.870315	0.098981
653.075716	0.099017
653.281097	0.099074
653.486461	0.099502
653.691807	0.099831
653.897134	0.100025
654.102443	0.099933
654.307734	0.100226
654.513006	0.100407
654.718261	0.100606
654.923497	0.100905
655.128715	0.100992
655.333915	0.101043
655.539096	0.101088
655.744259	0.101059
655.949404	0.101335
656.154531	0.101440
656.359640	0.101547
656.564730	0.101317
656.769802	0.101337
656.974856	0.101276
657.179892	0.101106
657.384909	0.101214
657.589908	0.101383
657.794889	0.101388
657.999852	0.101442
658.204797	0.101660
658.409723	0.101963
658.614631	0.101937
658.819521	0.102118
659.024393	0.102250
659.229246	0.102347
659.434081	0.102554
659.638898	0.102669
659.843697	0.102675
660.048478	0.102773
660.253240	0.102768
660.457984	0.102818
660.662710	0.103001
660.867417	0.103064
661.072107	0.103272
661.276778	0.103076
661.481431	0.103234
661.686066	0.103427
661.890682	0.103426
662.095281	0.103570
662.299861	0.103697
662.504422	0.103779
662.708966	0.103846
662.913491	0.103971
663.117999	0.104232
663.322488	0.104408
663.526958	0.104610
663.731411	0.104828
663.935845	0.104859
664.140261	0.105031
664.344659	0.104743
664.549038	0.104999
664.753400	0.104955
664.957743	0.105137
665.162068	0.105097
665.366375	0.105039
665.570663	0.104990
665.774933	0.105330
665.979185	0.105585
666.183419	0.106185
666.387635	0.106285
666.591832	0.106513
666.796011	0.106396
667.000172	0.106606
667.204315	0.106838
667.408439	0.107088
667.612545	0.107094
667.816634	0.107263
668.020703	0.107243
668.224755	0.107542
668.428788	0.107507
668.632803	0.107787
668.836800	0.107706
669.040779	0.107647
669.244739	0.107625
669.448681	0.107602
669.652605	0.107506
669.856511	0.107650
670.060399	0.107567
670.264268	0.107737
670.468119	0.107593
670.671952	0.107754
670.875767	0.107837
671.079563	0.108118
671.283341	0.108358
671.487101	0.108676
671.690843	0.108863
671.894567	0.109063
672.098272	0.109216
672.301959	0.109300
672.505628	0.109383
672.709278	0.109654
672.912911	0.109749
673.116525	0.109817
673.320121	0.109778
673.523699	0.109639
673.727258	0.109470
673.930799	0.109622
674.134322	0.110103
674.337827	0.110212
674.541314	0.110189
674.744782	0.110205
674.948232	0.110111
675.151664	0.110269
675.355078	0.110579
675.558474	0.110781
675.761851	0.110705
675.965210	0.110535
676.168551	0.110618
676.371873	0.110740
676.575178	0.110840
676.778464	0.111088
676.981732	0.111028
677.184981	0.111289
677.388213	0.111480
677.591426	0.111601
677.794621	0.111795
677.997798	0.112014
678.200956	0.112087
678.404097	0.112229
678.607219	0.112367
678.810323	0.112547
679.013408	0.112434
679.216476	0.112388
679.419525	0.112470
679.622556	0.112461
679.825569	0.112449
680.028563	0.112551
680.231540	0.112611
680.434498	0.112611
680.637438	0.112844
680.840359	0.112983
681.043263	0.113216
681.246148	0.113523
681.449015	0.113792
681.651864	0.113783
681.854694	0.113719
682.057506	0.113912
682.260301	0.114077
682.463076	0.114139
682.665834	0.113995
682.868573	0.114072
683.071295	0.113804
683.273998	0.113765
683.476682	0.113819
683.679349	0.114078
683.881997	0.114090
684.084627	0.114165
684.287239	0.114166
684.489833	0.114497
684.692408	0.114519
684.894965	0.114801
685.097504	0.115090
685.300025	0.115451
685.502527	0.115249
685.705012	0.115318
685.907478	0.115463
686.109925	0.115587
686.312355	0.115779
686.514766	0.115978
686.717159	0.116126
686.919534	0.116141
687.121891	0.116084
687.324230	0.116496
687.526550	0.116641
687.728852	0.116610
687.931136	0.116673
688.133401	0.116574
688.335649	0.116568
688.537878	0.116617
688.740089	0.116658
688.942281	0.116950
689.144456	0.117117
689.346612	0.117174
689.548750	0.117203
689.750870	0.117451
689.952971	0.117372
690.155055	0.117497
690.357120	0.117624
690.559167	0.117636
690.761195	0.117627
690.963206	0.117515
691.165198	0.117621
691.367172	0.117971
691.569128	0.117975
691.771065	0.118167
691.972984	0.118124
692.174885	0.118222
692.376768	0.118247
692.578633	0.118312
692.780479	0.118397
692.982308	0.118358
693.184118	0.118191
693.385909	0.118161
693.587683	0.118318
693.789438	0.118512
693.991175	0.118405
694.192894	0.118652
694.394595	0.118748
694.596277	0.118932
694.797941	0.119190
694.999587	0.119452
695.201215	0.119488
695.402824	0.119687
695.604416	0.119828
695.805989	0.120020
696.007543	0.119979
696.209080	0.120070
696.410598	0.120120
696.612099	0.120038
696.813580	0.120051
697.015044	0.120161
697.216490	0.119920
697.417917	0.119882
697.619326	0.119954
697.820717	0.120078
698.022089	0.119988
698.223444	0.120098
698.424780	0.120064
698.626098	0.119997
698.827397	0.120254
699.028679	0.120485
699.229942	0.120483
699.431187	0.120450
699.632414	0.120622
699.833622	0.120602
700.034813	0.120664
700.235985	0.120641
700.437139	0.120877
700.638274	0.120786
700.839392	0.120889
701.040491	0.121150
701.241572	0.121235
701.442635	0.121116
701.643679	0.121389
701.844706	0.121506
702.045714	0.121742
702.246704	0.121824
702.447675	0.121829
702.648629	0.121805
702.849564	0.121816
703.050481	0.122065
703.251380	0.122233
703.452260	0.122088
703.653122	0.122043
703.853966	0.121952
704.054792	0.121779
704.255600	0.121783
704.456389	0.121745
704.657160	0.121694
704.857913	0.121473
705.058648	0.121236
705.259365	0.121188
705.460063	0.121090
705.660743	0.121096
705.861405	0.121161
706.062048	0.121235
706.262674	0.120856
706.463281	0.120559
706.663870	0.120577
706.864441	0.120739
707.064993	0.120749
707.265527	0.120841
707.466043	0.121051
707.666541	0.121163
707.867021	0.121070
708.067482	0.121413
708.267925	0.121836
708.468350	0.121904
708.668757	0.122019
708.869145	0.122203
709.069516	0.122348
709.269868	0.122603
709.470201	0.122596
709.670517	0.122714
709.870814	0.122927
710.071093	0.122892
710.271354	0.122894
710.471597	0.122858
710.671821	0.122943
710.872028	0.122880
711.072216	0.122607
711.272385	0.122587
711.472537	0.122733
711.672670	0.122729
711.872785	0.122689
712.072882	0.122610
712.272961	0.122365
712.473021	0.122171
712.673063	0.122060
712.873087	0.121919
713.073093	0.121953
713.273081	0.121657
713.473050	0.121410
713.673001	0.121307
713.872934	0.121206
714.072849	0.121164
714.272745	0.121273
714.472623	0.121331
714.672483	0.121267
714.872325	0.121037
715.072148	0.121049
715.271954	0.121232
715.471741	0.121262
715.671509	0.121359
715.871260	0.121425
716.070992	0.121237
716.270707	0.121064
716.470403	0.121212
716.670080	0.121270
716.869740	0.121166
717.069381	0.121145
717.269004	0.121164
717.468609	0.121111
717.668195	0.121141
717.867764	0.121082
718.067314	0.121082
718.266846	0.120877
718.466360	0.120678
718.665855	0.120584
718.865332	0.120641
719.064791	0.120260
719.264232	0.120181
719.463655	0.120221
719.663059	0.120288
719.862445	0.120269
720.061813	0.120304
720.261163	0.120274
720.460494	0.120319
720.659807	0.119961
720.859102	0.120124
721.058379	0.120151
721.257638	0.119999
721.456878	0.119963
721.656100	0.119929
721.855304	0.119969
722.054490	0.120179
722.253657	0.120327
722.452806	0.120297
722.651937	0.120238
722.851050	0.120239
723.050145	0.120257
723.249221	0.120136
723.448279	0.120132
723.647319	0.119992
723.846340	0.119802
724.045344	0.119673
724.244329	0.119702
724.443296	0.119600
724.642245	0.119504
724.841175	0.119325
725.040088	0.119164
725.238982	0.119064
725.437857	0.118818
725.636715	0.118910
725.835554	0.118666
726.034376	0.118652
726.233179	0.118553
726.431963	0.118626
726.630730	0.118530
726.829478	0.118594
727.028208	0.118474
727.226920	0.118666
727.425614	0.118547
727.624289	0.118686
727.822946	0.118664
728.021585	0.118705
728.220206	0.118495
728.418808	0.118506
728.617392	0.118609
728.815958	0.118773
729.014506	0.118647
729.213036	0.118569
729.411547	0.118497
729.610040	0.118346
729.808515	0.118365
730.006972	0.118228
730.205410	0.118106
730.403831	0.117920
730.602233	0.117648
730.800616	0.117652
730.998982	0.117540
731.197329	0.117232
731.395658	0.117410
731.593969	0.117176
731.792262	0.117186
731.990536	0.117095
732.188793	0.117006
732.387031	0.116921
732.585250	0.116665
732.783452	0.116344
732.981635	0.116372
733.179800	0.116030
733.377947	0.116209
733.576076	0.116205
733.774186	0.116160
733.972278	0.116084
734.170352	0.116024
734.368408	0.116071
734.566446	0.116276
734.764465	0.116169
734.962466	0.116083
735.160449	0.115774
735.358413	0.115658
735.556360	0.115650
735.754288	0.115431
735.952198	0.115112
736.150090	0.115048
736.347963	0.115066
736.545818	0.115049
736.743655	0.114815
736.941474	0.114606
737.139275	0.114385
737.337057	0.114205
737.534821	0.114071
737.732567	0.114391
737.930295	0.114099
738.128005	0.113870
738.325696	0.113768
738.523369	0.113981
738.721024	0.113959
738.918660	0.113872
739.116279	0.113785
739.313879	0.113865
739.511461	0.113601
739.709024	0.113673
739.906570	0.113497
740.104097	0.113273
740.301606	0.113088
740.499097	0.113087
740.696569	0.113009
740.894024	0.112920
741.091460	0.112747
741.288878	0.112645
741.486277	0.112488
741.683659	0.112480
741.881022	0.112685
742.078367	0.112537
742.275694	0.112542
742.473002	0.112503
742.670293	0.112280
742.867565	0.112192
743.064819	0.112264
743.262054	0.112152
743.459272	0.112124
743.656471	0.111903
743.853652	0.111773
744.050815	0.111671
744.247959	0.111698
744.445085	0.111749
744.642194	0.111794
744.839283	0.111585
745.036355	0.111446
745.233408	0.111328
745.430444	0.111336
745.627461	0.111262
745.824459	0.110967
746.021440	0.110643
746.218402	0.110445
746.415346	0.110366
746.612272	0.110145
746.809180	0.110112
747.006069	0.109973
747.202940	0.109576
747.399793	0.109292
747.596628	0.109292
747.793444	0.109285
747.990243	0.109371
748.187023	0.108868
748.383784	0.108822
748.580528	0.108605
748.777253	0.108450
748.973960	0.108500
749.170649	0.108585
749.367320	0.108141
749.563973	0.108141
749.760607	0.108011
749.957223	0.108180
750.153821	0.107984
750.350400	0.107943
750.546962	0.107806
750.743505	0.107677
750.940030	0.107647
751.136536	0.108074
751.333025	0.108119
751.529495	0.108043
751.725947	0.108030
751.922381	0.107953
752.118796	0.108046
752.315194	0.108102
752.511573	0.108258
752.707934	0.108120
752.904276	0.107833
753.100601	0.107598
753.296907	0.107657
753.493195	0.107652
753.689465	0.107782
753.885716	0.107625
754.081949	0.107401
754.278164	0.106953
754.474361	0.106952
754.670540	0.107014
754.866700	0.106966
755.062843	0.106634
755.258967	0.106484
755.455072	0.106135
755.651160	0.106183
755.847229	0.106181
756.043280	0.106035
756.239313	0.105905
756.435328	0.105845
756.631324	0.105668
756.827302	0.105873
757.023262	0.105866
757.219204	0.106033
757.415127	0.106077
757.611033	0.105897
757.806920	0.106050
758.002788	0.105900
758.198639	0.105833
758.394471	0.105814
758.590286	0.105715
758.786081	0.105540
758.981859	0.105497
759.177619	0.105113
759.373360	0.105367
759.569083	0.105314
759.764788	0.105297
759.960474	0.105260
760.156143	0.105064
760.351793	0.104740
760.547425	0.104656
760.743038	0.104328
760.938634	0.104357
761.134211	0.104115
761.329770	0.104064
761.525311	0.104032
761.720833	0.103659
761.916338	0.103768
762.111824	0.103662
762.307292	0.103655
762.502741	0.103737
762.698173	0.103643
762.893586	0.103371
763.088981	0.103146
763.284358	0.103024
763.479716	0.103103
763.675057	0.103059
763.870379	0.103155
764.065683	0.103136
764.260968	0.103297
764.456236	0.103396
764.651485	0.103458
764.846716	0.103356
765.041929	0.103229
765.237123	0.103241
765.432299	0.102894
765.627457	0.102870
765.822597	0.102741
766.017719	0.102432
766.212822	0.102128
766.407907	0.102036
766.602974	0.102231
766.798023	0.102304
766.993054	0.102306
767.188066	0.102351
767.383060	0.102346
767.578036	0.102275
767.772993	0.102149
767.967933	0.102265
768.162854	0.102284
768.357757	0.102307
768.552642	0.102303
768.747508	0.102224
768.942356	0.102084
769.137186	0.101908
769.331998	0.101872
769.526792	0.101990
769.721567	0.101887
769.916324	0.101866
770.111063	0.101763
770.305784	0.101718
770.500486	0.101531
770.695171	0.101404
770.889837	0.101425
771.084484	0.101387
771.279114	0.101316
771.473725	0.101220
771.668318	0.101256
771.862893	0.101143
772.057450	0.100965
772.251988	0.100995
772.446509	0.101301
772.641011	0.101194
772.835494	0.101023
773.029960	0.100845
773.224407	0.101009
773.418836	0.100821
773.613247	0.100754
773.807640	0.100806
774.002014	0.100813
774.196370	0.100896
774.390708	0.100869
774.585028	0.100835
774.779330	0.100841
774.973613	0.100508
775.167878	0.100530
775.362125	0.100431
775.556354	0.100398
775.750564	0.100155
775.944756	0.099882
776.138930	0.099962
776.333086	0.099945
776.527223	0.099853
776.721343	0.099709
776.915444	0.099504
777.109526	0.099502
777.303591	0.099376
777.497637	0.099469
777.691666	0.099132
777.885676	0.098694
778.079667	0.098746
778.273641	0.098628
778.467596	0.098801
778.661533	0.098765
778.855452	0.098694
779.049352	0.098430
779.243235	0.098342
779.437099	0.098440
779.630945	0.098832
779.824773	0.098679
780.018582	0.098837
780.212373	0.098900
780.406146	0.099070
780.599901	0.098829
780.793638	0.099013
780.987356	0.099157
781.181056	0.099241
781.374738	0.099090
781.568402	0.099284
781.762047	0.099337
781.955674	0.099340
782.149283	0.099213
782.342874	0.099332
782.536447	0.099272
782.730001	0.099107
782.923537	0.099185
783.117055	0.099319
783.310555	0.099074
783.504036	0.098808
783.697499	0.098674
783.890944	0.098752
784.084371	0.098927
784.277780	0.099076
784.471170	0.099114
784.664542	0.099090
784.857896	0.098988
785.051231	0.099173
785.244549	0.099301
785.437848	0.099371
785.631129	0.099517
785.824392	0.099616
786.017636	0.099596
786.210863	0.099720
786.404071	0.099816
786.597260	0.099970
786.790432	0.100055
786.983585	0.100049
787.176721	0.100031
787.369838	0.099953
787.562936	0.099932
787.756017	0.099948
787.949079	0.100039
788.142123	0.099912
788.335149	0.099705
788.528156	0.099750
788.721146	0.099907
788.914117	0.100054
789.107070	0.100166
789.300005	0.100138
789.492921	0.100191
789.685819	0.100317
789.878699	0.100614
790.071561	0.100671
790.264405	0.100722
790.457230	0.100772
790.650037	0.101018
790.842826	0.101082
791.035597	0.101368
791.228349	0.101715
791.421084	0.101673
791.613800	0.101959
791.806497	0.102357
791.999177	0.102673
792.191838	0.102895
792.384481	0.102899
792.577106	0.102907
792.769713	0.102778
792.962301	0.102580
793.154871	0.102812
793.347423	0.102768
793.539957	0.102495
793.732473	0.102200
793.924970	0.102168
794.117449	0.102084
794.309910	0.102196
794.502353	0.102292
794.694777	0.102512
794.887183	0.102459
795.079571	0.102541
795.271941	0.102753
795.464293	0.102892
795.656626	0.103198
795.848941	0.103484
796.041238	0.103622
796.233516	0.103698
796.425777	0.103752
796.618019	0.103817
796.810243	0.103761
797.002449	0.103837
797.194636	0.104060
797.386805	0.104111
797.578956	0.104117
797.771089	0.104355
797.963204	0.104504
798.155300	0.104747
798.347378	0.104979
798.539438	0.104908
798.731480	0.105181
798.923503	0.105448
799.115509	0.105312
799.307496	0.105253
799.499465	0.105204
799.691415	0.105345
799.883348	0.105251
800.075262	0.105179
800.267158	0.105404
800.459035	0.105542
800.650895	0.105572
800.842736	0.106038
801.034559	0.106384
801.226364	0.106508
801.418150	0.106714
801.609919	0.106750
801.801669	0.107066
801.993401	0.107346
802.185114	0.107272
802.376810	0.107387
802.568487	0.107518
802.760146	0.107742
802.951787	0.108029
803.143409	0.108320
803.335014	0.108681
803.526600	0.108699
803.718168	0.108987
803.909717	0.109332
804.101249	0.109495
804.292762	0.109293
804.484257	0.109414
804.675734	0.109480
804.867192	0.109456
805.058632	0.109524
805.250054	0.109576
805.441458	0.109675
805.632844	0.109517
805.824211	0.109588
806.015561	0.109911
806.206891	0.109828
806.398204	0.110032
806.589499	0.110179
806.780775	0.110489
806.972033	0.110862
807.163273	0.110856
807.354495	0.111371
807.545698	0.111643
807.736883	0.111674
807.928050	0.112076
808.119199	0.112070
808.310329	0.112186
808.501441	0.112378
808.692535	0.112565
808.883611	0.112887
809.074669	0.113114
809.265708	0.113297
809.456729	0.113642
809.647732	0.113634
809.838717	0.113953
810.029683	0.114219
810.220632	0.114407
810.411562	0.114670
810.602474	0.114774
810.793367	0.114535
810.984242	0.114525
811.175100	0.114615
811.365938	0.115007
811.556759	0.115163
811.747562	0.115278
811.938346	0.115179
812.129112	0.115216
812.319860	0.115236
812.510589	0.115517
812.701300	0.115948
812.891994	0.116134
813.082668	0.115998
813.273325	0.115943
813.463964	0.115937
813.654584	0.116191
813.845186	0.116366
814.035769	0.116799
814.226335	0.116938
814.416882	0.116934
814.607411	0.117013
814.797922	0.117043
814.988415	0.117200
815.178889	0.117490
815.369345	0.117709
815.559783	0.117752
815.750203	0.117441
815.940605	0.117496
816.130988	0.117534
816.321353	0.117639
816.511700	0.118059
816.702028	0.118444
816.892339	0.118582
817.082631	0.118660
817.272905	0.118595
817.463161	0.118793
817.653398	0.119202
817.843617	0.119385
818.033819	0.119506
818.224001	0.119606
818.414166	0.119656
818.604312	0.119881
818.794440	0.119840
818.984550	0.120272
819.174642	0.120629
819.364716	0.120564
819.554771	0.120560
819.744808	0.120613
819.934827	0.120888
820.124827	0.121086
820.314810	0.120984
820.504774	0.121224
820.694720	0.121191
820.884647	0.121309
821.074557	0.121765
821.264448	0.122032
821.454321	0.122437
821.644176	0.122634
821.834012	0.122808
822.023831	0.123445
822.213631	0.124058
822.403413	0.124316
822.593176	0.124511
822.782922	0.124723
822.972649	0.124890
823.162358	0.125170
823.352049	0.125433
823.541721	0.125662
823.731376	0.125614
823.921012	0.125420
824.110629	0.125684
824.300229	0.125889
824.489811	0.125985
824.679374	0.126518
824.868919	0.126740
825.058445	0.126717
825.247954	0.127233
825.437444	0.127488
825.626916	0.127764
825.816370	0.128029
826.005806	0.128330
826.195223	0.128482
826.384622	0.128680
826.574003	0.128800
826.763366	0.129345
826.952711	0.129110
827.142037	0.129509
827.331345	0.129936
827.520635	0.130259
827.709906	0.130412
827.899160	0.130705
828.088395	0.130753
828.277612	0.130943
828.466810	0.130729
828.655991	0.131125
828.845153	0.131119
829.034297	0.131021
829.223423	0.131111
829.412531	0.131571
829.601620	0.131748
829.790691	0.131785
829.979744	0.132135
830.168779	0.132654
830.357795	0.132840
830.546793	0.133173
830.735773	0.133752
830.924735	0.133918
831.113679	0.133828
831.302604	0.134287
831.491511	0.134967
831.680400	0.135377
831.869271	0.135550
832.058123	0.135856
832.246957	0.136106
832.435773	0.136219
832.624571	0.136603
832.813351	0.136992
833.002112	0.137223
833.190855	0.137443
833.379580	0.137559
833.568287	0.137893
833.756975	0.138259
833.945645	0.138676
834.134297	0.139271
834.322931	0.139646
834.511547	0.140177
834.700144	0.140488
834.888723	0.140480
835.077284	0.140803
835.265826	0.141022
835.454351	0.141328
835.642857	0.141650
835.831345	0.141492
836.019815	0.141868
836.208266	0.141957
836.396699	0.142256
836.585114	0.142569
836.773511	0.142775
836.961890	0.143032
837.150250	0.143237
837.338592	0.143423
837.526916	0.144002
837.715222	0.144080
837.903510	0.144289
838.091779	0.144425
838.280030	0.144885
838.468263	0.145140
838.656477	0.145479
838.844674	0.145632
839.032852	0.145853
839.221012	0.145890
839.409153	0.146325
839.597277	0.146404
839.785382	0.146906
839.973469	0.147241
840.161538	0.147500
840.349589	0.148037
840.537621	0.148381
840.725635	0.148539
840.913631	0.148997
841.101609	0.149383
841.289568	0.150152
841.477509	0.150084
841.665432	0.150572
841.853337	0.151339
842.041224	0.151503
842.229092	0.152162
842.416942	0.152782
842.604774	0.153090
842.792588	0.153041
842.980383	0.153197
843.168160	0.153872
843.355919	0.153958
843.543660	0.153957
843.731382	0.154120
843.919087	0.154252
844.106773	0.154732
844.294441	0.155340
844.482090	0.156035
844.669722	0.156353
844.857335	0.156388
845.044930	0.156563
845.232507	0.156839
845.420065	0.157412
845.607605	0.157582
845.795127	0.157427
845.982631	0.157196
846.170117	0.157250
846.357584	0.157277
846.545033	0.157467
846.732464	0.157805
846.919877	0.157832
847.107272	0.157962
847.294648	0.158389
847.482006	0.158630
847.669346	0.158921
847.856667	0.159263
848.043971	0.159779
848.231256	0.160201
848.418523	0.160486
848.605771	0.161000
848.793002	0.161282
848.980214	0.161417
849.167408	0.161475
849.354584	0.161828
849.541742	0.161937
849.728881	0.162507
849.916002	0.162752
850.103105	0.162998
850.290190	0.163231
850.477256	0.163425
850.664304	0.163764
850.851334	0.164535
851.038346	0.165005
851.225340	0.165562
851.412315	0.165247
851.599272	0.165660
851.786211	0.166206
851.973132	0.166459
852.160034	0.166967
852.346918	0.167220
852.533784	0.167402
852.720632	0.167740
852.907462	0.168070
853.094273	0.168721
853.281066	0.169121
853.467841	0.169261
853.654598	0.169590
853.841336	0.169731
854.028056	0.170014
854.214758	0.170111
854.401442	0.170373
854.588107	0.170663
854.774755	0.171259
854.961384	0.171221
855.147995	0.171382
855.334587	0.171931
855.521162	0.172226
855.707718	0.172527
855.894256	0.172823
856.080775	0.172920
856.267277	0.173147
856.453760	0.173087
856.640225	0.173936
856.826672	0.174181
857.013101	0.174130
857.199511	0.174618
857.385903	0.174899
857.572277	0.175290
857.758633	0.175597
857.944970	0.175917
858.131290	0.176195
858.317591	0.176210
858.503873	0.176569
858.690138	0.177141
858.876384	0.177086
859.062612	0.177291
859.248822	0.177681
859.435014	0.177735
859.621188	0.177737
859.807343	0.177730
859.993480	0.177827
860.179599	0.178032
860.365699	0.178067
860.551781	0.178439
860.737846	0.178707
860.923891	0.178838
861.109919	0.179325
861.295929	0.179598
861.481920	0.180169
861.667893	0.180731
861.853848	0.180786
862.039784	0.180860
862.225702	0.181040
862.411603	0.181086
862.597484	0.181218
862.783348	0.181220
862.969193	0.181375
863.155021	0.181467
863.340830	0.181390
863.526620	0.181582
863.712393	0.182066
863.898147	0.182282
864.083883	0.182437
864.269601	0.183111
864.455301	0.183512
864.640982	0.183790
864.826645	0.184083
865.012290	0.184208
865.197917	0.184733
865.383526	0.184794
865.569116	0.184819
865.754688	0.185161
865.940242	0.184887
866.125777	0.185172
866.311295	0.185592
866.496794	0.185893
866.682275	0.186137
866.867737	0.186117
867.053182	0.186419
867.238608	0.186879
867.424016	0.187674
867.609406	0.187969
867.794778	0.188217
867.980131	0.188335
868.165466	0.188547
868.350783	0.188915
868.536082	0.189113
868.721362	0.189166
868.906625	0.189051
869.091869	0.189049
869.277094	0.189393
869.462302	0.189236
869.647491	0.189728
869.832662	0.189801
870.017815	0.189972
870.202950	0.190658
870.388066	0.191028
870.573165	0.191596
870.758245	0.191331
870.943306	0.191430
871.128350	0.192090
871.313375	0.191903
871.498382	0.192074
871.683371	0.192235
871.868342	0.192153
872.053294	0.192628
872.238229	0.192812
872.423144	0.192958
872.608042	0.193228
872.792922	0.193144
872.977783	0.193509
873.162626	0.193932
873.347451	0.194428
873.532258	0.194723
873.717046	0.194995
873.901816	0.194845
874.086568	0.195522
874.271302	0.195633
874.456017	0.195924
874.640715	0.195690
874.825394	0.195680
875.010055	0.195280
875.194697	0.195437
875.379322	0.195039
875.563928	0.195391
875.748516	0.195351
875.933085	0.195626
876.117637	0.195829
876.302170	0.196557
876.486685	0.196711
876.671182	0.196822
876.855661	0.196947
877.040121	0.196796
877.224563	0.197011
877.408987	0.196976
877.593393	0.196765
877.777780	0.196644
877.962150	0.196675
878.146501	0.196285
878.330833	0.196590
878.515148	0.196304
878.699444	0.196955
878.883722	0.197045
879.067982	0.197466
879.252224	0.197601
879.436447	0.197970
879.620653	0.197946
879.804840	0.198127
879.989008	0.198076
880.173159	0.198559
880.357291	0.198721
880.541405	0.198926
880.725501	0.198482
880.909579	0.198760
881.093638	0.198754
881.277680	0.198676
881.461703	0.199261
881.645707	0.199912
881.829694	0.200070
882.013662	0.199959
882.197612	0.199761
882.381544	0.200071
882.565458	0.200072
882.749353	0.199888
882.933230	0.200080
883.117089	0.199687
883.300930	0.199510
883.484753	0.199194
883.668557	0.199428
883.852343	0.199611
884.036111	0.199538
884.219861	0.199898
884.403592	0.200111
884.587305	0.200173
884.771000	0.200490
884.954677	0.200167
885.138335	0.199947
885.321976	0.199737
885.505598	0.199811
885.689201	0.200018
885.872787	0.199674
886.056354	0.199695
886.239904	0.199600
886.423434	0.199261
886.606947	0.199315
886.790442	0.199843
886.973918	0.200099
887.157376	0.200025
887.340816	0.199991
887.524237	0.200076
887.707641	0.199909
887.891026	0.199905
888.074393	0.200181
888.257741	0.200062
888.441072	0.200315
888.624384	0.200199
888.807678	0.200194
888.990954	0.200164
889.174211	0.200244
889.357451	0.200607
889.540672	0.200333
889.723875	0.200520
889.907059	0.200791
890.090226	0.200159
890.273374	0.200478
890.456504	0.200434
890.639616	0.200660
890.822709	0.200355
891.005785	0.200047
891.188842	0.199877
891.371881	0.199737
891.554901	0.199684
891.737904	0.199669
891.920888	0.198873
892.103854	0.198858
892.286802	0.198705
892.469731	0.198837
892.652643	0.199117
892.835536	0.199577
893.018410	0.199443
893.201267	0.199307
893.384106	0.199649
893.566926	0.199701
893.749728	0.199696
893.932511	0.199734
894.115277	0.199835
894.298024	0.199716
894.480753	0.199821
894.663464	0.199903
894.846157	0.199724
895.028831	0.199320
895.211487	0.199503
895.394125	0.199305
895.576745	0.198853
895.759346	0.198593
895.941930	0.198535
896.124495	0.197760
896.307041	0.197477
896.489570	0.197666
896.672080	0.198069
896.854573	0.197994
897.037046	0.197945
897.219502	0.198088
897.401940	0.197773
897.584359	0.197367
897.766760	0.197355
897.949143	0.197216
898.131507	0.197102
898.313854	0.196788
898.496182	0.196599
898.678492	0.196550
898.860783	0.196637
899.043057	0.196532
899.225312	0.196453
899.407549	0.196695
899.589768	0.196566
899.771968	0.196059
899.954151	0.195809
900.136315	0.195541
900.318461	0.195395
900.500588	0.195470
900.682698	0.195610
900.864789	0.195490
901.046862	0.195143
901.228917	0.195362
901.410953	0.194986
901.592971	0.194754
901.774972	0.194915
901.956953	0.194435
902.138917	0.193999
902.320862	0.193991
902.502790	0.193644
902.684699	0.193600
902.866589	0.193107
903.048462	0.193157
903.230316	0.193064
903.412152	0.192729
903.593970	0.192823
903.775770	0.192372
903.957551	0.191773
904.139314	0.191733
904.321059	0.191551
904.502786	0.191218
904.684494	0.191299
904.866185	0.191215
905.047857	0.190875
905.229510	0.190658
905.411146	0.190576
905.592763	0.190747
905.774363	0.190819
905.955943	0.190779
906.137506	0.190497
906.319051	0.190372
906.500577	0.190010
906.682085	0.189669
906.863575	0.189646
907.045046	0.189440
907.226500	0.188960
907.407935	0.188650
907.589352	0.188241
907.770750	0.188523
907.952131	0.188436
908.133493	0.188451
908.314837	0.188831
908.496163	0.188376
908.677470	0.188421
908.858760	0.188114
909.040031	0.187673
909.221284	0.187589
909.402518	0.187339
909.583735	0.187061
909.764933	0.187006
909.946113	0.186239
910.127275	0.186264
910.308418	0.186124
910.489544	0.186141
910.670651	0.186024
910.851740	0.185787
911.032810	0.185433
911.213863	0.184937
911.394897	0.184261
911.575913	0.183955
911.756911	0.183304
911.937890	0.182641
912.118851	0.182270
912.299794	0.182220
912.480719	0.181703
912.661626	0.181159
912.842514	0.180897
913.023384	0.180649
913.204236	0.180400
913.385070	0.180215
913.565886	0.180218
913.746683	0.179489
913.927462	0.179000
914.108223	0.178360
914.288965	0.177889
914.469690	0.176877
914.650396	0.176242
914.831084	0.175547
915.011754	0.174926
915.192405	0.173778
915.373038	0.173809
915.553653	0.173140
915.734250	0.173060
915.914829	0.173013
916.095389	0.172849
916.275931	0.172091
916.456455	0.172120
916.636961	0.171493
916.817448	0.171343
916.997917	0.170818
917.178368	0.170183
917.358801	0.169938
917.539216	0.169338
917.719612	0.168967
917.899990	0.169239
918.080350	0.168930
918.260692	0.168832
918.441015	0.168254
918.621320	0.167728
918.801607	0.167563
918.981876	0.166853
919.162127	0.166157
919.342359	0.166015
919.522573	0.165348
919.702769	0.164633
919.882947	0.164447
920.063106	0.163622
920.243247	0.163947
920.423370	0.163811
920.603475	0.163126
920.783562	0.163110
920.963630	0.162549
921.143680	0.162308
921.323712	0.161421
921.503725	0.160501
921.683721	0.160951
921.863698	0.159999
922.043657	0.158820
922.223598	0.158869
922.403520	0.158123
922.583424	0.158068
922.763311	0.157567
922.943178	0.157209
923.123028	0.156970
923.302859	0.155726
923.482673	0.155112
923.662467	0.154675
923.842244	0.154048
924.022003	0.153552
924.201743	0.152423
924.381465	0.151765
924.561169	0.151582
924.740854	0.151199
924.920522	0.151179
925.100171	0.150617
925.279802	0.150475
925.459414	0.149590
925.639009	0.149087
925.818585	0.148796
925.998143	0.147948
926.177683	0.147369
926.357205	0.146785
926.536708	0.145704
926.716193	0.144820
926.895660	0.144281
927.075109	0.143605
927.254539	0.142935
927.433951	0.142362
927.613345	0.142314
927.792721	0.141297
927.972079	0.140448
928.151418	0.140703
928.330739	0.140674
928.510042	0.140358
928.689327	0.140265
928.868593	0.139533
929.047841	0.139441
929.227071	0.138430
929.406283	0.138184
929.585476	0.137556
929.764652	0.136459
929.943809	0.135497
930.122948	0.134803
930.302068	0.134075
930.481171	0.133874
930.660255	0.133135
930.839321	0.133006
931.018369	0.132048
931.197398	0.131236
931.376409	0.130556
931.555402	0.129991
931.734377	0.128868
931.913334	0.128457
932.092272	0.127147
932.271192	0.125707
932.450094	0.124285
932.628978	0.124708
932.807844	0.124411
932.986691	0.124128
933.165520	0.123160
933.344331	0.122936
933.523123	0.121780
933.701898	0.121924
933.880654	0.122039
934.059392	0.121856
934.238111	0.120121
934.416813	0.120358
934.595496	0.119050
934.774161	0.118948
934.952808	0.118063
935.131437	0.117925
935.310047	0.118061
935.488639	0.117553
935.667213	0.116757
935.845769	0.116556
936.024306	0.114754
936.202825	0.113998
936.381326	0.112815
936.559809	0.112478
936.738274	0.111538
936.916720	0.109647
937.095148	0.108739
937.273558	0.108117
937.451950	0.107346
937.630323	0.106996
937.808678	0.107991
937.987015	0.107255
938.165334	0.106952
938.343635	0.105762
938.521917	0.106371
938.700181	0.105476
938.878427	0.105162
939.056655	0.104996
939.234864	0.104367
939.413055	0.102023
939.591228	0.102254
939.769383	0.101503
939.947519	0.100749
940.125638	0.098537
940.303738	0.097880
940.481820	0.097061
940.659883	0.096982
940.837929	0.095925
941.015956	0.095654
941.193965	0.094574
941.371955	0.093663
941.549928	0.094189
941.727882	0.094532
941.905818	0.093937
942.083736	0.092520
942.261636	0.090999
942.439517	0.090575
942.617380	0.089908
942.795225	0.089694
942.973052	0.089057
943.150860	0.088243
943.328651	0.086930
943.506423	0.086537
943.684176	0.086503
943.861912	0.085734
944.039629	0.085269
944.217328	0.085255
944.395009	0.082538
944.572672	0.081929
944.750317	0.081293
944.927943	0.080143
945.105551	0.079463
945.283141	0.079444
945.460712	0.079234
945.638265	0.078423
945.815801	0.076228
945.993317	0.077050
946.170816	0.075267
946.348297	0.074824
946.525759	0.074474
946.703203	0.072974
946.880629	0.070132
947.058036	0.068563
947.235425	0.066637
947.412797	0.066670
947.590149	0.065936
947.767484	0.065755
947.944800	0.065140
948.122099	0.064983
948.299379	0.064168
948.476640	0.064640
948.653884	0.064251
948.831109	0.064948
949.008316	0.065035
949.185505	0.063397
949.362676	0.062299
949.539828	0.061238
949.716962	0.059824
949.894078	0.059355
950.071176	0.060202
950.248256	0.060210
950.425317	0.059278
950.602360	0.059779
950.779385	0.058950
950.956391	0.058154
951.133380	0.056274
951.310350	0.056458
951.487302	0.056218
951.664235	0.055575
951.841151	0.054203
952.018048	0.053950
952.194927	0.052136
952.371788	0.051164
952.548631	0.051127
952.725455	0.050624
952.902261	0.048619
953.079049	0.047614
953.255819	0.045779
953.432570	0.045271
953.609303	0.046409
953.786018	0.044370
953.962715	0.045607
954.139394	0.044763
954.316054	0.045080
954.492696	0.046255
954.669320	0.046536
954.845926	0.046064
955.022513	0.047104
955.199083	0.045259
955.375634	0.045424
955.552166	0.044816
955.728681	0.044568
955.905177	0.043134
956.081655	0.043034
956.258115	0.040887
956.434557	0.040324
956.610980	0.038829
956.787385	0.038222
956.963772	0.037861
957.140141	0.038646
957.316492	0.038166
957.492824	0.038986
957.669138	0.037796
957.845434	0.039449
958.021712	0.040047
958.197971	0.039510
958.374212	0.037740
958.550435	0.037482
958.726640	0.036958
958.902826	0.036132
959.078995	0.034937
959.255145	0.033652
959.431277	0.032257
959.607390	0.030651
959.783486	0.029994
959.959563	0.029566
960.135622	0.029870
960.311662	0.028853
960.487685	0.028050
960.663689	0.027328
960.839675	0.028057
961.015643	0.027539
961.191593	0.028408
961.367524	0.027379
961.543437	0.027356
961.719332	0.026586
961.895209	0.025122
962.071067	0.026867
962.246907	0.027320
962.422730	0.026634
962.598533	0.028231
962.774319	0.025903
962.950086	0.026858
963.125835	0.027210
963.301566	0.028536
963.477279	0.030144
963.652973	0.029377
963.828650	0.030175
964.004308	0.030525
964.179947	0.028905
964.355569	0.031361
964.531172	0.031205
964.706757	0.030237
964.882324	0.029958
965.057873	0.030097
965.233403	0.029124
965.408916	0.027814
965.584410	0.028241
965.759885	0.029502
965.935343	0.028832
966.110782	0.029122
966.286203	0.030910
966.461606	0.030138
966.636991	0.031035
966.812357	0.032433
966.987705	0.032733
967.163035	0.034114
967.338347	0.035290
967.513641	0.035983
967.688916	0.035613
967.864173	0.034998
968.039412	0.034255
968.214632	0.034053
968.389835	0.033606
968.565019	0.035124
968.740185	0.035372
968.915333	0.033055
969.090462	0.034305
969.265573	0.033106
969.440667	0.035439
969.615741	0.036582
969.790798	0.034574
969.965836	0.035793
970.140856	0.034082
970.315858	0.033034
970.490842	0.032793
970.665808	0.032152
970.840755	0.034208
971.015684	0.033812
971.190595	0.032311
971.365487	0.033086
971.540362	0.033233
971.715218	0.035256
971.890056	0.035037
972.064875	0.036445
972.239677	0.033941
972.414460	0.034214
972.589225	0.032856
972.763972	0.033966
972.938700	0.033913
973.113411	0.032581
973.288103	0.032204
973.462777	0.033602
973.637432	0.033655
973.812070	0.035342
973.986689	0.034457
974.161290	0.034204
974.335873	0.033926
974.510437	0.033987
974.684984	0.035600
974.859512	0.034554
975.034022	0.033706
975.208513	0.032545
975.382987	0.033641
975.557442	0.034306
975.731879	0.035884
975.906298	0.036028
976.080698	0.036019
976.255080	0.035272
976.429445	0.034937
976.603790	0.034732
976.778118	0.035970
976.952427	0.036256
977.126719	0.035173
977.300992	0.035386
977.475246	0.033384
977.649483	0.033441
977.823701	0.031631
977.997901	0.033761
978.172083	0.033408
978.346247	0.032415
978.520392	0.031345
978.694519	0.033965
978.868628	0.032235
979.042719	0.032381
979.216791	0.033398
979.390845	0.034718
979.564882	0.034329
979.738899	0.035451
979.912899	0.035937
980.086880	0.033657
980.260843	0.030072
980.434788	0.030418
980.608715	0.033768
980.782623	0.033081
980.956514	0.032784
981.130386	0.031657
981.304240	0.029217
981.478075	0.028528
981.651892	0.030461
981.825692	0.032208
981.999472	0.031722
982.173235	0.031133
982.346980	0.032523
982.520706	0.031207
982.694414	0.030687
982.868104	0.032969
983.041775	0.034289
983.215428	0.035625
983.389064	0.035114
983.562680	0.035020
983.736279	0.033850
983.909860	0.032742
984.083422	0.035096
984.256966	0.036471
984.430491	0.035173
984.603999	0.034954
984.777488	0.034181
984.950959	0.033095
985.124412	0.032822
985.297847	0.033274
985.471263	0.031580
985.644661	0.030085
985.818041	0.030119
985.991403	0.031310
986.164747	0.031055
986.338072	0.029912
986.511379	0.031155
986.684668	0.032143
986.857938	0.031620
987.031191	0.031500
987.204425	0.032093
987.377641	0.032997
987.550839	0.031311
987.724018	0.030576
987.897179	0.032802
988.070322	0.031969
988.243447	0.031096
988.416554	0.031079
988.589642	0.034144
988.762712	0.033422
988.935764	0.032486
989.108798	0.033174
989.281813	0.032184
989.454811	0.030679
989.627790	0.030430
989.800751	0.031607
989.973693	0.031843
990.146617	0.029109
990.319524	0.029921
990.492412	0.027778
990.665281	0.028831
990.838133	0.031567
991.010966	0.031283
991.183781	0.033123
991.356578	0.033310
991.529356	0.033972
991.702117	0.035465
991.874859	0.034280
992.047583	0.034249
992.220288	0.032772
992.392976	0.030123
992.565645	0.030883
992.738296	0.031336
992.910929	0.030266
993.083543	0.028996
993.256139	0.027557
993.428718	0.027594
993.601277	0.028278
993.773819	0.027858
993.946342	0.029924
994.118848	0.029983
994.291335	0.028879
994.463803	0.029627
994.636254	0.029650
994.808686	0.029197
994.981100	0.029982
995.153496	0.029362
995.325874	0.029462
995.498233	0.028905
995.670574	0.029025
995.842897	0.028154
996.015202	0.027599
996.187488	0.027937
996.359757	0.028238
996.532007	0.029380
996.704239	0.030897
996.876452	0.032317
997.048648	0.033141
997.220825	0.033028
997.392984	0.032917
997.565124	0.033078
997.737247	0.033167
997.909351	0.035712
998.081437	0.033499
998.253505	0.031953
998.425554	0.030825
998.597586	0.029669
998.769599	0.029290
998.941594	0.029898
999.113571	0.029533
999.285529	0.031738
999.457469	0.030795
999.629391	0.033146
999.801295	0.034501
999.973181	0.035098
1000.145048	0.035629
1000.316897	0.034884
1000.488728	0.035115
1000.660541	0.035219
1000.832335	0.032704
1001.004111	0.031550
1001.175869	0.030211
1001.347609	0.031245
1001.519331	0.030660
1001.691034	0.029085
1001.862719	0.028504
1002.034386	0.028025
1002.206035	0.028518
1002.377665	0.028905
1002.549277	0.027739
1002.720871	0.028030
1002.892447	0.027984
1003.064004	0.029430
1003.235544	0.029272
1003.407065	0.029799
1003.578568	0.031633
1003.750052	0.030510
1003.921519	0.032559
1004.092967	0.034006
1004.264397	0.033169
1004.435809	0.032124
1004.607202	0.029833
1004.778577	0.031144
1004.949934	0.031547
1005.121273	0.031256
1005.292594	0.032041
1005.463896	0.029596
1005.635180	0.029251
1005.806446	0.029177
1005.977694	0.028629
1006.148923	0.029466
1006.320135	0.028612
1006.491328	0.028234
1006.662503	0.026152
1006.833659	0.027399
1007.004798	0.027309
1007.175918	0.027809
1007.347020	0.027456
1007.518103	0.025795
1007.689169	0.025281
1007.860216	0.026292
1008.031245	0.027793
1008.202256	0.027953
1008.373248	0.026664
1008.544223	0.026967
1008.715179	0.027390
1008.886117	0.027300
1009.057036	0.029724
1009.227938	0.029191
1009.398821	0.028768
1009.569686	0.027781
1009.740533	0.029968
1009.911361	0.029792
1010.082172	0.030680
1010.252964	0.029000
1010.423738	0.029252
1010.594493	0.027916
1010.765231	0.028047
1010.935950	0.027517
1011.106651	0.028611
1011.277334	0.026487
1011.447998	0.025615
1011.618645	0.024871
1011.789273	0.026240
1011.959882	0.026765
1012.130474	0.028579
1012.301048	0.029217
1012.471603	0.031634
1012.642140	0.028755
1012.812658	0.028402
1012.983159	0.028023
1013.153641	0.027943
1013.324105	0.026766
1013.494551	0.026860
1013.664979	0.026608
1013.835388	0.027751
1014.005779	0.026209
1014.176152	0.027071
1014.346507	0.028383
1014.516843	0.029624
1014.687162	0.028123
1014.857462	0.029063
1015.027744	0.028798
1015.198007	0.026624
1015.368252	0.027285
1015.538480	0.026461
1015.708689	0.027831
1015.878879	0.027871
1016.049052	0.026633
1016.219206	0.028388
1016.389342	0.027678
1016.559460	0.029014
1016.729559	0.031894
1016.899641	0.030499
1017.069704	0.029294
1017.239749	0.026314
1017.409775	0.025726
1017.579784	0.027433
1017.749774	0.026429
1017.919746	0.027607
1018.089700	0.026516
1018.259635	0.025125
1018.429553	0.024599
1018.599452	0.026495
1018.769333	0.028112
1018.939195	0.027131
1019.109040	0.026811
1019.278866	0.026757
1019.448674	0.025792
1019.618464	0.025916
1019.788235	0.026814
1019.957989	0.027935
1020.127724	0.028428
1020.297441	0.029581
1020.467139	0.032594
1020.636820	0.032576
1020.806482	0.032684
1020.976126	0.032743
1021.145752	0.033357
1021.315359	0.032490
1021.484948	0.031104
1021.654519	0.030307
1021.824072	0.029600
1021.993607	0.028460
1022.163123	0.028965
1022.332621	0.029931
1022.502101	0.030594
1022.671563	0.028628
1022.841007	0.029353
1023.010432	0.028190
1023.179839	0.028660
1023.349228	0.028848
1023.518598	0.027214
1023.687951	0.026071
1023.857285	0.025141
1024.026601	0.024453
1024.195899	0.026544
1024.365178	0.025599
1024.534439	0.028766
1024.703682	0.028374
1024.872907	0.027785
1025.042114	0.029440
1025.211302	0.028912
1025.380472	0.028872
1025.549624	0.029224
1025.718758	0.027540
1025.887873	0.026497
1026.056970	0.025936
1026.226049	0.026218
1026.395110	0.026115
1026.564153	0.024936
1026.733177	0.025981
1026.902183	0.025905
1027.071171	0.026669
1027.240141	0.027454
1027.409092	0.027296
1027.578026	0.027010
1027.746940	0.026399
1027.915837	0.025686
1028.084716	0.026694
1028.253576	0.026872
1028.422418	0.026298
1028.591242	0.025773
1028.760048	0.025590
1028.928835	0.026607
1029.097604	0.026854
1029.266355	0.027792
1029.435088	0.027142
1029.603803	0.026928
1029.772499	0.025594
1029.941177	0.026975
1030.109837	0.028397
1030.278478	0.028934
1030.447102	0.029582
1030.615707	0.027823
1030.784294	0.027490
1030.952863	0.029367
1031.121413	0.028810
1031.289945	0.029190
1031.458460	0.028186
1031.626955	0.027409
1031.795433	0.027281
1031.963892	0.025042
1032.132334	0.025963
1032.300756	0.026248
1032.469161	0.026124
1032.637548	0.024825
1032.805916	0.024970
1032.974266	0.026195
1033.142598	0.023227
1033.310911	0.022204
1033.479207	0.024243
1033.647484	0.023918
1033.815743	0.024098
1033.983983	0.023259
1034.152206	0.024240
1034.320410	0.024084
1034.488596	0.025012
1034.656764	0.027216
1034.824914	0.027350
1034.993045	0.026633
1035.161158	0.026827
1035.329253	0.024687
1035.497330	0.025520
1035.665388	0.025128
1035.833428	0.024691
1036.001450	0.022693
1036.169454	0.020785
1036.337440	0.020945
1036.505407	0.020861
1036.673356	0.019310
1036.841287	0.021087
1037.009200	0.022656
1037.177094	0.023639
1037.344970	0.024213
1037.512828	0.025789
1037.680668	0.026760
1037.848489	0.027537
1038.016293	0.028556
1038.184078	0.030055
1038.351845	0.026693
1038.519593	0.024852
1038.687324	0.024376
1038.855036	0.023398
1039.022730	0.024581
1039.190406	0.024178
1039.358063	0.024473
1039.525702	0.023591
1039.693323	0.022572
1039.860926	0.026051
1040.028511	0.026578
1040.196077	0.025801
1040.363625	0.028616
1040.531155	0.025460
1040.698667	0.027296
1040.866161	0.025384
1041.033636	0.025515
1041.201093	0.025857
1041.368532	0.025551
1041.535952	0.023393
1041.703355	0.025248
1041.870739	0.023151
1042.038105	0.024221
1042.205452	0.023908
1042.372782	0.025485
1042.540093	0.026673
1042.707386	0.026533
1042.874661	0.025573
1043.041918	0.027305
1043.209156	0.026977
1043.376376	0.027650
1043.543578	0.027370
1043.710762	0.026809
1043.877927	0.026667
1044.045074	0.025932
1044.212203	0.025620
1044.379314	0.026223
1044.546407	0.025307
1044.713481	0.025190
1044.880537	0.025613
1045.047575	0.025706
1045.214595	0.024411
1045.381596	0.025350
1045.548579	0.023864
1045.715544	0.025148
1045.882491	0.023011
1046.049420	0.022363
1046.216330	0.021956
1046.383222	0.022362
1046.550096	0.023099
1046.716951	0.024425
1046.883789	0.023717
1047.050608	0.025563
1047.217409	0.023926
1047.384192	0.025421
1047.550956	0.027442
1047.717703	0.026893
1047.884431	0.026631
1048.051140	0.026219
1048.217832	0.027601
1048.384505	0.027007
1048.551161	0.025737
1048.717798	0.025129
1048.884416	0.025549
1049.051017	0.024431
1049.217599	0.024451
1049.384163	0.023242
1049.550709	0.024198
1049.717237	0.022456
1049.883746	0.022433
1050.050237	0.023439
1050.216710	0.025578
1050.383165	0.026500
1050.549601	0.026837
1050.716019	0.029098
1050.882420	0.029073
1051.048801	0.027986
1051.215165	0.029128
1051.381510	0.029165
1051.547837	0.028401
1051.714146	0.029468
1051.880437	0.028435
1052.046709	0.027279
1052.212964	0.023333
1052.379200	0.023040
1052.545417	0.022371
1052.711617	0.019942
1052.877798	0.020777
1053.043961	0.021483
1053.210106	0.018829
1053.376233	0.018069
1053.542341	0.020442
1053.708432	0.024718
1053.874504	0.024363
1054.040557	0.024435
1054.206593	0.024952
1054.372610	0.025090
1054.538609	0.025032
1054.704590	0.026012
1054.870553	0.027737
1055.036497	0.028867
1055.202424	0.026910
1055.368331	0.029058
1055.534221	0.030518
1055.700093	0.031326
1055.865946	0.031167
1056.031781	0.031034
1056.197598	0.029739
1056.363397	0.030697
1056.529177	0.027429
1056.694939	0.027329
1056.860683	0.026750
1057.026409	0.025642
1057.192116	0.026280
1057.357806	0.025477
1057.523477	0.026814
1057.689130	0.027966
1057.854764	0.024177
1058.020381	0.024628
1058.185979	0.023978
1058.351559	0.024018
1058.517120	0.023920
1058.682664	0.025077
1058.848189	0.023767
1059.013696	0.020768
1059.179185	0.022208
1059.344656	0.022381
1059.510108	0.023787
1059.675542	0.025441
1059.840958	0.023910
1060.006356	0.023132
1060.171735	0.022668
1060.337096	0.023075
1060.502439	0.025342
1060.667764	0.024202
1060.833071	0.026160
1060.998359	0.025678
1061.163629	0.026253
1061.328881	0.027032
1061.494115	0.027158
1061.659330	0.027138
1061.824527	0.029477
1061.989706	0.027529
1062.154867	0.028219
1062.320010	0.027861
1062.485134	0.028803
1062.650240	0.028007
1062.815328	0.027960
1062.980398	0.028383
1063.145449	0.026670
1063.310482	0.025380
1063.475497	0.026544
1063.640494	0.026479
1063.805473	0.026061
1063.970433	0.023443
1064.135375	0.022749
1064.300299	0.021365
1064.465204	0.021835
1064.630092	0.023871
1064.794961	0.023796
1064.959812	0.024975
1065.124645	0.025414
1065.289459	0.027795
1065.454256	0.028932
1065.619034	0.030068
1065.783793	0.031781
1065.948535	0.031094
1066.113258	0.029352
1066.277964	0.030522
1066.442651	0.030296
1066.607319	0.029283
1066.771970	0.027998
1066.936602	0.027408
1067.101216	0.026871
1067.265812	0.026027
1067.430389	0.027063
1067.594949	0.025757
1067.759490	0.025172
1067.924013	0.023835
1068.088518	0.023964
1068.253004	0.024117
1068.417472	0.025838
1068.581922	0.025820
1068.746354	0.026864
1068.910768	0.027097
1069.075163	0.029565
1069.239540	0.030299
1069.403899	0.031851
1069.568240	0.030726
1069.732562	0.030774
1069.896866	0.029726
1070.061152	0.028734
1070.225420	0.029389
1070.389670	0.029336
1070.553901	0.029229
1070.718114	0.027078
1070.882309	0.025801
1071.046486	0.027172
1071.210644	0.025802
1071.374784	0.026275
1071.538906	0.028130
1071.703010	0.029047
1071.867096	0.028514
1072.031163	0.028845
1072.195212	0.029307
1072.359243	0.030339
1072.523256	0.030274
1072.687250	0.031858
1072.851226	0.033934
1073.015184	0.029554
1073.179124	0.027524
1073.343045	0.026784
1073.506949	0.025520
1073.670834	0.027194
1073.834701	0.026056
1073.998549	0.027531
1074.162380	0.028304
1074.326192	0.027290
1074.489986	0.031738
1074.653761	0.031700
1074.817519	0.032702
1074.981258	0.034222
1075.144979	0.033050
1075.308682	0.037056
1075.472367	0.037297
1075.636033	0.036701
1075.799681	0.036760
1075.963311	0.032661
1076.126923	0.034957
1076.290516	0.036186
1076.454092	0.036177
1076.617649	0.036477
1076.781187	0.035103
1076.944708	0.035430
1077.108210	0.035297
1077.271695	0.033771
1077.435160	0.036145
1077.598608	0.035507
1077.762038	0.034016
1077.925449	0.035375
1078.088842	0.037757
1078.252217	0.036928
1078.415573	0.038045
1078.578912	0.038309
1078.742232	0.040065
1078.905534	0.040640
1079.068817	0.041767
1079.232083	0.043952
1079.395330	0.041209
1079.558559	0.039104
1079.721770	0.039752
1079.884962	0.037795
1080.048136	0.038522
1080.211293	0.039844
1080.374430	0.040989
1080.537550	0.038292
1080.700651	0.036912
1080.863735	0.039846
1081.026800	0.040594
1081.189846	0.040270
1081.352875	0.041204
1081.515885	0.040069
1081.678877	0.036470
1081.841851	0.035111
1082.004807	0.036431
1082.167744	0.036865
1082.330663	0.036665
1082.493564	0.037571
1082.656447	0.036211
1082.819312	0.034602
1082.982158	0.035014
1083.144986	0.035072
1083.307796	0.037984
1083.470587	0.038155
1083.633361	0.039007
1083.796116	0.038329
1083.958853	0.036086
1084.121571	0.036158
1084.284272	0.036222
1084.446954	0.038102
1084.609618	0.038855
1084.772264	0.036814
1084.934892	0.037314
1085.097501	0.035738
1085.260092	0.034971
1085.422665	0.037058
1085.585220	0.037081
1085.747756	0.038830
1085.910274	0.036392
1086.072774	0.038771
1086.235256	0.039057
1086.397720	0.038369
1086.560165	0.038568
1086.722592	0.038757
1086.885001	0.039010
1087.047392	0.040948
1087.209764	0.039543
1087.372119	0.039693
1087.534455	0.037668
1087.696772	0.039053
1087.859072	0.038666
1088.021353	0.037584
1088.183616	0.035495
1088.345861	0.035276
1088.508088	0.033980
1088.670296	0.037369
1088.832486	0.035917
1088.994658	0.036597
1089.156812	0.034263
1089.318948	0.035202
1089.481065	0.035220
1089.643164	0.039395
1089.805245	0.038438
1089.967308	0.040078
1090.129352	0.036396
1090.291378	0.036633
1090.453386	0.038644
1090.615376	0.039059
1090.777347	0.037751
1090.939301	0.039781
1091.101236	0.038033
1091.263153	0.038344
1091.425051	0.036429
1091.586932	0.035342
1091.748794	0.039266
1091.910638	0.037364
1092.072463	0.037166
1092.234271	0.035486
1092.396060	0.034016
1092.557831	0.034731
1092.719584	0.033236
1092.881319	0.032703
1093.043035	0.035710
1093.204733	0.029411
1093.366413	0.029536
1093.528075	0.031496
1093.689718	0.036921
1093.851343	0.039202
1094.012950	0.037651
1094.174539	0.039644
1094.336110	0.040279
1094.497662	0.039052
1094.659196	0.044010
1094.820712	0.045716
1094.982210	0.044624
1095.143689	0.045046
1095.305151	0.042960
1095.466594	0.046400
1095.628018	0.044254
1095.789425	0.043268
1095.950813	0.045363
1096.112183	0.046475
1096.273535	0.044651
1096.434869	0.043949
1096.596184	0.041065
1096.757482	0.040381
1096.918761	0.038169
1097.080021	0.037912
1097.241264	0.040615
1097.402488	0.039625
1097.563694	0.037000
1097.724882	0.039821
1097.886052	0.038803
1098.047203	0.040508
1098.208336	0.044849
1098.369451	0.044952
1098.530548	0.050937
1098.691627	0.050936
1098.852687	0.051394
1099.013729	0.054095
1099.174753	0.053162
1099.335758	0.053795
1099.496746	0.053448
1099.657715	0.050912
1099.818666	0.051886
1099.979599	0.047844
1100.140513	0.048489
1100.301409	0.044899
1100.462287	0.041662
1100.623147	0.040135
1100.783989	0.037303
1100.944812	0.037233
1101.105617	0.040959
1101.266404	0.037126
1101.427173	0.037461
1101.587923	0.034666
1101.748656	0.035818
1101.909370	0.039036
1102.070066	0.039967
1102.230743	0.043613
1102.391403	0.042033
1102.552044	0.039148
1102.712667	0.042849
1102.873271	0.044914
1103.033858	0.048100
1103.194426	0.047254
1103.354976	0.048545
1103.515508	0.048740
1103.676021	0.050467
1103.836517	0.050379
1103.996994	0.047629
1104.157453	0.046833
1104.317893	0.045932
1104.478316	0.043135
1104.638720	0.041599
1104.799106	0.040820
1104.959474	0.040666
1105.119823	0.042579
1105.280155	0.042226
1105.440468	0.046404
1105.600763	0.043964
1105.761039	0.042014
1105.921298	0.039628
1106.081538	0.046916
1106.241760	0.046262
1106.401964	0.048900
1106.562149	0.047180
1106.722316	0.051225
1106.882465	0.047306
1107.042596	0.049692
1107.202709	0.048840
1107.362803	0.051953
1107.522879	0.045862
1107.682937	0.045243
1107.842977	0.041144
1108.002999	0.038795
1108.163002	0.035500
1108.322987	0.034870
1108.482954	0.031316
1108.642902	0.033539
1108.802833	0.036034
1108.962745	0.041018
1109.122639	0.041430
1109.282515	0.040509
1109.442372	0.044164
1109.602211	0.045152
1109.762032	0.046071
1109.921835	0.050854
1110.081620	0.052160
1110.241386	0.049489
1110.401134	0.045090
1110.560864	0.042081
1110.720576	0.043947
1110.880269	0.042159
1111.039945	0.041462
1111.199602	0.040979
1111.359240	0.043626
1111.518861	0.039490
1111.678463	0.038817
1111.838047	0.043584
1111.997613	0.051103
1112.157161	0.050613
1112.316690	0.049503
1112.476202	0.049101
1112.635695	0.050430
1112.795169	0.047009
1112.954626	0.051696
1113.114064	0.052204
1113.273484	0.050934
1113.432886	0.043652
1113.592270	0.043741
1113.751635	0.046324
1113.910983	0.050499
1114.070312	0.056024
1114.229622	0.057379
1114.388915	0.056317
1114.548189	0.063469
1114.707445	0.063783
1114.866683	0.072049
1115.025903	0.074653
1115.185104	0.070528
1115.344287	0.065386
1115.503452	0.063740
1115.662599	0.061951
1115.821727	0.062731
1115.980838	0.060541
1116.139930	0.059977
1116.299004	0.057139
1116.458059	0.058858
1116.617097	0.067494
1116.776116	0.072001
1116.935117	0.066766
1117.094099	0.068075
1117.253064	0.064456
1117.412010	0.060049
1117.570938	0.053411
1117.729848	0.053378
1117.888740	0.047449
1118.047613	0.040928
1118.206468	0.040224
1118.365305	0.047376
1118.524124	0.047359
1118.682924	0.052888
1118.841707	0.056238
1119.000471	0.057972
1119.159216	0.055200
1119.317944	0.056754
1119.476653	0.056945
1119.635344	0.054968
1119.794017	0.049779
1119.952672	0.056901
1120.111308	0.054114
1120.269927	0.053673
1120.428527	0.056630
1120.587108	0.054972
1120.745672	0.060690
1120.904217	0.062784
1121.062744	0.061030
1121.221253	0.063668
1121.379744	0.050517
1121.538216	0.055180
1121.696671	0.052832
1121.855107	0.055328
1122.013524	0.060328
1122.171924	0.055243
1122.330305	0.048919
1122.488668	0.050032
1122.647013	0.048764
1122.805340	0.051539
1122.963648	0.048593
1123.121938	0.046725
1123.280210	0.045347
1123.438464	0.045017
1123.596700	0.049186
1123.754917	0.051558
1123.913116	0.059978
1124.071297	0.062463
1124.229459	0.070989
1124.387604	0.070138
1124.545730	0.075499
1124.703838	0.077426
1124.861928	0.071448
1125.019999	0.068306
1125.178052	0.075173
1125.336088	0.069432
1125.494104	0.068206
1125.652103	0.060141
1125.810083	0.061941
1125.968045	0.058133
1126.125989	0.060100
1126.283915	0.065157
1126.441823	0.069498
1126.599712	0.063836
1126.757583	0.061960
1126.915436	0.064527
1127.073270	0.067759
1127.231087	0.064287
1127.388885	0.066558
1127.546665	0.053495
1127.704426	0.054960
1127.862170	0.053099
1128.019895	0.054866
1128.177602	0.053808
1128.335291	0.052738
1128.492961	0.052604
1128.650614	0.052598
1128.808248	0.054456
1128.965864	0.062965
1129.123461	0.060687
1129.281041	0.055504
1129.438602	0.055591
1129.596145	0.058744
1129.753670	0.056799
1129.911176	0.059612
1130.068665	0.065127
1130.226135	0.062748
1130.383587	0.066899
1130.541020	0.066505
1130.698436	0.074582
1130.855833	0.073657
1131.013212	0.072085
1131.170573	0.074267
1131.327915	0.076518
1131.485239	0.072550
1131.642545	0.076651
1131.799833	0.071059
1131.957103	0.076481
1132.114354	0.073397
1132.271588	0.078146
1132.428803	0.081111
1132.585999	0.081855
1132.743178	0.071788
1132.900338	0.072706
1133.057480	0.067499
1133.214604	0.069042
1133.371710	0.066261
1133.528797	0.069187
1133.685866	0.067055
1133.842917	0.063408
1133.999950	0.064779
1134.156964	0.060941
1134.313960	0.057216
1134.470938	0.058614
1134.627898	0.054929
1134.784840	0.045672
1134.941763	0.046025
1135.098668	0.043258
1135.255555	0.041447
1135.412424	0.034728
1135.569274	0.041621
1135.726107	0.044422
1135.882921	0.041428
1136.039716	0.049365
1136.196494	0.057588
1136.353253	0.049329
1136.509995	0.044355
1136.666717	0.051532
1136.823422	0.055802
1136.980109	0.054327
1137.136777	0.046737
1137.293427	0.052692
1137.450059	0.044145
1137.606672	0.043624
1137.763267	0.045407
1137.919844	0.046606
1138.076403	0.040397
1138.232944	0.036179
1138.389466	0.033984
1138.545971	0.036721
1138.702457	0.034014
1138.858924	0.039579
1139.015374	0.036644
1139.171805	0.043819
1139.328218	0.045269
1139.484613	0.047133
1139.640990	0.042960
1139.797348	0.044632
1139.953688	0.046900
1140.110010	0.043720
1140.266314	0.044680
1140.422600	0.043949
1140.578867	0.040557
1140.735116	0.051725
1140.891347	0.048723
1141.047559	0.054809
1141.203754	0.051046
1141.359930	0.050050
1141.516088	0.057842
1141.672228	0.055390
1141.828349	0.055606
1141.984452	0.050633
1142.140537	0.037628
1142.296604	0.039957
1142.452653	0.037010
1142.608683	0.043995
1142.764695	0.047144
1142.920689	0.039645
1143.076665	0.043606
1143.232622	0.039847
1143.388562	0.042842
1143.544483	0.053602
1143.700385	0.056787
1143.856270	0.062804
1144.012136	0.058618
1144.167985	0.052631
1144.323814	0.057598
1144.479626	0.054726
1144.635420	0.058229
1144.791195	0.059371
1144.946952	0.065218
1145.102691	0.069211
1145.258411	0.065380
1145.414113	0.067487
1145.569798	0.070021
1145.725463	0.069742
1145.881111	0.072128
1146.036741	0.080314
1146.192352	0.078470
1146.347945	0.061626
1146.503519	0.056831
1146.659076	0.061190
1146.814614	0.062574
1146.970134	0.056272
1147.125636	0.055418
1147.281120	0.057278
1147.436585	0.044699
1147.592032	0.040501
1147.747461	0.042477
1147.902872	0.036154
1148.058265	0.033408
1148.213639	0.036574
1148.368995	0.043822
1148.524333	0.045333
1148.679653	0.051248
1148.834954	0.058564
1148.990237	0.056462
1149.145502	0.063870
1149.300749	0.078664
1149.455977	0.075408
1149.611188	0.077265
1149.766380	0.077784
1149.921553	0.079256
1150.076709	0.073970
1150.231846	0.080342
1150.386966	0.084639
1150.542066	0.074593
1150.697149	0.062802
1150.852214	0.064772
1151.007260	0.051665
1151.162288	0.054101
1151.317298	0.049332
1151.472289	0.037221
1151.627263	0.034609
1151.782218	0.031259
1151.937155	0.031850
1152.092073	0.035216
1152.246974	0.028538
1152.401856	0.037080
1152.556720	0.033218
1152.711566	0.035748
1152.866393	0.047302
1153.021203	0.046789
1153.175994	0.058101
1153.330767	0.067596
1153.485521	0.071031
1153.640258	0.077243
1153.794976	0.076622
1153.949676	0.083893
1154.104358	0.074289
1154.259021	0.063623
1154.413667	0.066171
1154.568294	0.067061
1154.722903	0.067309
1154.877493	0.063791
1155.032066	0.067101
1155.186620	0.076766
1155.341156	0.069217
1155.495674	0.074757
1155.650173	0.078967
1155.804654	0.075128
1155.959118	0.064709
1156.113562	0.059132
1156.267989	0.062504
1156.422397	0.067901
1156.576788	0.064266
1156.731160	0.064153
1156.885513	0.070305
1157.039849	0.079233
1157.194166	0.083703
1157.348465	0.080861
1157.502746	0.081134
1157.657009	0.079616
1157.811253	0.071816
1157.965479	0.073229
1158.119687	0.079967
1158.273877	0.088439
1158.428048	0.081020
1158.582201	0.088409
1158.736337	0.087923
1158.890453	0.084384
1159.044552	0.078684
1159.198632	0.083470
1159.352694	0.081066
1159.506738	0.085090
1159.660764	0.070187
1159.814771	0.074877
1159.968761	0.061191
1160.122732	0.079913
1160.276685	0.088651
1160.430619	0.089436
1160.584535	0.091355
1160.738434	0.082576
1160.892313	0.069906
1161.046175	0.073154
1161.200019	0.067898
1161.353844	0.059808
1161.507651	0.048670
1161.661440	0.035578
1161.815210	0.043678
1161.968962	0.041555
1162.122697	0.039184
1162.276412	0.048564
1162.430110	0.045870
1162.583789	0.039424
1162.737451	0.049558
1162.891094	0.056925
1163.044718	0.079043
1163.198325	0.064950
1163.351913	0.062422
1163.505483	0.072247
1163.659035	0.069919
1163.812569	0.060064
1163.966084	0.067696
1164.119581	0.063536
1164.273060	0.055258
1164.426521	0.035805
1164.579964	0.054062
1164.733388	0.056831
1164.886794	0.058475
1165.040182	0.063012
1165.193551	0.078554
1165.346903	0.078699
1165.500236	0.091890
1165.653551	0.098161
1165.806848	0.103975
1165.960126	0.084722
1166.113386	0.082891
1166.266628	0.089565
1166.419852	0.073878
1166.573058	0.048841
1166.726245	0.045858
1166.879414	0.040887
1167.032565	0.019950
1167.185698	0.030489
1167.338812	0.029739
1167.491909	0.025899
1167.644987	0.014411
1167.798046	0.016008
1167.951088	0.029347
1168.104111	0.030979
1168.257117	0.033546
1168.410103	0.041712
1168.563072	0.035671
1168.716023	0.032847
1168.868955	0.053552
1169.021869	0.053166
1169.174765	0.063416
1169.327642	0.066364
1169.480501	0.065148
1169.633343	0.063774
1169.786165	0.087101
1169.938970	0.082072
1170.091757	0.107500
1170.244525	0.075942
1170.397275	0.085693
1170.550007	0.080658
1170.702720	0.100137
1170.855415	0.113320
1171.008092	0.114262
1171.160751	0.110177
1171.313392	0.122804
1171.466014	0.121211
1171.618619	0.149521
1171.771205	0.149521
1171.923772	0.149521
