sample name	sample
index	226
start time	 02-22-2021  10:49:33 AM
880	-0.027370
Peak Time (s)	92.037
Peak Height 	-0.02737
calc peak height	90,93
Baseline Time (s)	10.037
Baseline Value 	-0.005525
subtract baseline	10,4
Abs	-0.004114
Peak Time (s)	91.537
Peak Height 	-0.004114
calc peak height	90,93
Baseline Time (s)	9.036
Baseline Value 	0.004805
subtract baseline	10,3
PK_550	-0.005980
Peak Time (s)	90.537
Peak Height 	-0.00598
calc peak height	90,93
Baseline Time (s)	10.037
Baseline Value 	7.5427E-4
subtract baseline	10,2
PK_880	-0.008551
Peak Time (s)	90.537
Peak Height 	-0.008551
calc peak height	90,93
Baseline Time (s)	9.036
Baseline Value 	0.003319
subtract baseline	10,1


Time (s)	A880-A510	A880-A775	A880-A975	A880	I510	I775	I975	I880	
0.039500	-0.000647	-0.000679	-0.000227	0.001809	6898.665045	46976.608242	3978.442987	24708.755102
0.536500	-0.001950	-0.000545	-0.006099	0.006179	6846.570898	46548.771880	3952.209185	24490.089599
1.037000	-0.003313	0.000023	-0.007305	0.004209	6852.109091	46804.645099	3954.144219	24588.399618
1.537000	-0.002177	-0.001471	-0.002575	0.000432	6897.251963	47036.043075	3975.927935	24778.119703
2.035000	0.001270	-0.000104	-0.000927	0.001181	6922.261040	47098.829348	3978.255615	24740.341592
2.534500	-0.002672	-0.000359	-0.009062	0.004533	6855.004081	46733.250885	3948.878252	24572.187575
3.035000	0.001122	0.000224	-0.003185	-0.000839	6939.711067	47338.529641	3977.639224	24842.355740
3.536000	0.000115	-0.000254	-0.002790	0.000518	6917.692833	47151.168115	3975.150458	24773.787401
4.036000	0.000188	-0.000373	-0.007081	0.000772	6916.011957	47113.138850	3963.465234	24760.960839
4.536000	-0.004868	0.000438	-0.006145	0.005964	6821.978335	46669.323564	3952.634881	24500.772676
5.036500	-0.003336	-0.000871	-0.001094	0.000370	6887.124614	47103.275839	3979.924232	24781.217770
5.537000	-0.001866	-0.000943	-0.000327	0.000036	6903.791024	47130.023035	3982.785057	24798.087436
6.037000	0.001951	0.000429	0.000144	0.001199	6928.431513	47151.345472	3980.986683	24739.447203
6.537500	0.000280	0.000052	-0.002633	0.000233	6921.871305	47211.357402	3976.292178	24788.155681
7.034500	0.001319	0.000305	-0.003871	0.000341	6930.543279	47226.205037	3972.816994	24782.712112
7.535000	-0.000472	0.000202	-0.004969	0.000227	6914.942857	47227.330173	3970.281181	24788.446262
8.038000	-0.000362	0.000191	-0.004549	0.000468	6913.731214	47201.667922	3970.742890	24776.317963
8.536000	0.001609	0.000217	0.001133	0.000468	6932.057303	47204.263827	3985.465258	24776.307736
9.035500	0.000000	0.000179	0.000000	0.000473	6917.043062	47199.845259	3982.500755	24776.054640
9.536500	0.000085	-0.000466	-0.004186	-0.000221	6924.288663	47204.894099	3973.455693	24811.103053
10.036500	-0.000626	0.000000	-0.002257	0.000000	6915.621976	47229.858749	3977.870182	24799.919284
10.537000	-0.001505	-0.000506	0.001569	-0.000890	6915.718669	47269.045194	3990.152550	24844.898880
11.037000	-0.000497	0.000211	0.001278	0.000094	6915.946491	47241.846458	3986.819603	24795.181134
11.535000	0.000115	-0.000499	-0.006348	-0.000453	6926.722870	47225.118957	3968.485888	24822.810283
12.035000	-0.003583	-0.000616	-0.003281	0.003683	6854.451991	46793.218302	3965.743184	24614.722846
12.538000	0.000854	-0.000593	-0.002188	-0.000208	6931.327095	47190.549587	3978.587703	24810.433668
13.035500	-0.000379	0.000044	-0.002271	-0.001425	6931.176301	47380.051027	3981.532067	24872.013046
13.539000	-0.001794	-0.001333	-0.006059	-0.001092	6914.918746	47205.304642	3970.870082	24855.142113
14.041500	-0.003515	-0.000522	-0.005760	0.004713	6845.655804	46698.662727	3956.786257	24563.173795
14.536500	-0.004922	-0.000514	-0.000915	0.002900	6849.361487	46882.661992	3973.838940	24653.925154
15.037000	0.000497	0.000124	-0.003884	0.000898	6917.709829	47150.960673	3971.349124	24754.623574
15.541000	0.000495	0.000293	0.003287	0.000367	6922.628490	47222.351353	3991.361284	24781.401861
16.037500	-0.001899	-0.000311	0.001553	0.003820	6868.622730	46810.198728	3977.843207	24607.857181
16.535000	-0.000149	-0.000173	-0.000698	-0.000274	6922.592718	47240.123056	3982.627052	24813.739648
17.035500	-0.003070	-0.001057	-0.000368	-0.000985	6902.092015	47222.442430	3985.337532	24849.699353
17.538500	0.002765	-0.000207	-0.000095	-0.003221	6977.472316	47538.558770	3991.899008	24963.177021
18.036000	-0.001893	-0.000305	-0.002165	0.001369	6891.226850	47059.316222	3974.566153	24730.884485
18.535500	-0.000296	0.000295	-0.003110	0.001732	6902.626318	47083.335602	3971.191497	24712.601117
19.036000	0.000461	0.000374	-0.004939	0.001959	6907.538754	47068.425583	3965.911862	24701.223749
19.536000	-0.001280	-0.000540	-0.004452	0.001099	6899.376675	47062.835260	3969.369230	24744.495639
20.036500	-0.001476	0.000279	-0.004733	0.002543	6884.241631	46999.349043	3964.943777	24671.866654
20.537000	-0.001391	-0.000041	-0.007030	0.001544	6894.238641	47068.350326	3961.624566	24722.073988
21.037500	-0.002003	-0.000355	-0.005126	0.001038	6893.256598	47087.846291	3967.791743	24747.537242
21.537000	-0.000327	-0.000285	-0.001929	0.001669	6902.921385	47030.806953	3974.399507	24715.779105
22.035500	-0.001013	-0.000623	-0.002740	0.001862	6894.793794	46976.909527	3971.811262	24706.067848
22.535500	-0.002877	0.000067	0.001048	0.001471	6881.216796	47086.760523	3982.631631	24725.765996
23.035500	-0.001904	-0.000478	0.001752	0.001127	6893.354921	47066.325256	3985.359927	24743.059016
23.536000	-0.001034	0.000707	0.002058	0.001901	6894.242247	47108.089991	3984.138868	24704.117510
24.036500	-0.002876	-0.000116	-0.000462	0.001523	6880.753345	47062.942853	3978.576652	24723.162877
24.536500	-0.001408	0.000185	-0.005371	0.001671	6892.913506	47078.378425	3965.541904	24715.678517
25.036500	-0.000041	0.000241	-0.002861	0.001917	6903.276632	47059.138004	3971.358212	24703.341038
25.537500	-0.001874	-0.000196	-0.001146	0.001225	6892.730892	47085.018390	3977.574759	24738.143061
26.037000	0.000239	-0.000198	-0.001857	0.001585	6908.936914	47048.145682	3974.803187	24719.997942
26.538000	-0.000494	-0.000351	-0.002658	0.001175	6905.954076	47074.316036	3973.793341	24740.658493
27.035500	-0.002233	-0.000681	-0.003812	0.000842	6892.953082	47074.725774	3971.679180	24757.453470
27.536000	0.000064	0.000342	0.002176	0.000055	6921.519863	47259.148437	3989.266369	24797.134390
28.036000	-0.000141	0.001328	0.003191	-0.000974	6929.195269	47465.484222	3994.630454	24849.183500
28.536000	-0.003295	0.000497	-0.003362	0.005998	6835.964534	46671.889385	3959.619351	24499.095827
29.036500	0.000275	-0.000437	-0.005841	-0.000577	6929.358909	47244.113045	3970.106737	24829.061608
29.537000	-0.000464	0.000272	-0.004867	0.000060	6916.563553	47251.448889	3970.974363	24796.870494
30.037000	-0.001207	0.000532	0.002290	0.000265	6907.771122	47257.114249	3989.015650	24786.525131
30.534500	-0.003082	-0.000457	-0.001787	0.004933	6847.609019	46682.986352	3966.368285	24552.200022
31.062000	-0.001599	-0.000341	-0.003199	-0.000319	6909.559806	47227.667016	3976.258284	24816.053331
31.535500	-0.002059	-0.000548	-0.007757	0.002773	6876.766824	46892.147565	3956.642075	24660.319662
32.035500	-0.000161	0.000492	-0.001538	0.001630	6904.814618	47113.837182	3975.511999	24717.749775
32.564000	-0.001693	-0.000441	-0.002521	0.002309	6884.402851	46949.977375	3971.223050	24683.610881
33.042000	-0.001406	0.000381	-0.005537	-0.000085	6909.171653	47277.429489	3969.623030	24804.196510
33.536500	0.001051	0.000216	-0.001683	0.000137	6929.937334	47237.885840	3979.001901	24792.998001
34.037000	-0.004082	-0.000026	-0.007664	0.004640	6841.162204	46756.078387	3952.142378	24566.836681
34.534000	-0.002465	0.000459	-0.002758	0.004073	6861.113781	46862.441455	3966.084585	24595.202624
35.037500	-0.004637	-0.000658	-0.001924	0.001265	6866.938643	47033.985248	3975.457224	24736.117011
35.540000	-0.003313	-0.000230	-0.003420	0.002021	6872.145454	47000.613524	3969.651433	24698.087004
36.035000	-0.001638	-0.000249	-0.000583	0.002356	6884.471232	46964.712912	3976.103963	24681.233881
36.534500	-0.001236	0.000167	-0.000949	0.002834	6883.775067	46958.364490	3973.923236	24657.238534
37.036000	-0.001074	0.000807	-0.001236	0.002632	6887.135138	47043.929887	3973.704828	24667.413304
37.536000	-0.000865	0.000732	-0.003254	0.002612	6889.244830	47038.346192	3968.559976	24668.411863
38.036000	-0.001660	0.000377	0.001267	0.003008	6878.274424	46962.081393	3979.206710	24648.547398
38.536500	-0.001600	0.000090	-0.004899	0.002673	6881.903821	46966.943518	3964.184253	24665.342406
39.037000	-0.000854	-0.000597	-0.002145	0.001882	6896.074609	46977.475949	3973.293178	24705.066042
39.537000	-0.002352	0.000158	-0.003336	0.002639	6875.301369	46977.259791	3968.277929	24667.028726
40.034500	-0.004870	-0.000314	-0.000350	0.002935	6849.516729	46899.402054	3975.209655	24652.174097
40.535000	-0.003399	-0.000521	-0.003113	0.002048	6871.115337	46968.415606	3970.372552	24696.751213
41.034500	-0.000854	0.000460	-0.001032	0.002781	6887.784513	46993.551370	3973.846308	24659.921574
41.535500	-0.004497	-0.000157	-0.004237	0.002092	6860.641634	47000.866321	3967.370780	24694.539927
42.035500	0.000156	-0.000509	-0.002549	0.002254	6901.985194	46948.716886	3971.293902	24686.396348
42.536000	-0.000719	-0.000021	-0.005392	0.002231	6894.104151	47000.550260	3964.054048	24687.542000
43.036500	-0.001420	0.000574	-0.002717	0.003074	6879.872343	46975.371246	3968.751945	24645.243855
43.536500	-0.000730	0.000370	-0.001605	0.003135	6885.659258	46948.464125	3971.454988	24642.144466
44.037000	-0.000402	-0.000206	-0.002519	0.002443	6895.074780	46960.265431	3970.884886	24676.894813
44.537000	-0.001486	-0.000404	-0.003114	0.002035	6888.837259	46981.609438	3970.403055	24697.410249
45.037500	0.001450	0.000182	0.001773	-0.002487	6958.201044	47503.163075	3994.877868	24925.875025
45.535000	0.000491	0.000188	-0.000151	-0.000066	6926.624942	47255.820929	3983.510463	24803.267737
46.045500	-0.004268	-0.000977	-0.004490	0.003403	6850.739983	46784.968609	3963.361935	24628.711269
46.535500	-0.000381	-0.000071	-0.001526	0.000006	6917.837797	47221.996309	3979.747670	24799.595525
47.036000	-0.002254	0.000126	-0.001658	-0.000257	6902.913233	47268.989493	3980.088779	24812.887433
47.536000	-0.001476	-0.000182	0.000431	-0.000349	6910.970368	47246.950101	3985.763160	24817.555920
48.036500	-0.003056	0.000373	-0.002059	0.003367	6862.163612	46925.316553	3969.690353	24630.543452
48.536500	-0.000744	0.000738	-0.000583	0.001036	6904.919760	47199.409062	3979.521894	24747.652478
49.037000	-0.001747	0.000570	0.000862	0.003733	6870.806040	46908.152398	3976.279698	24612.200105
49.536500	-0.000504	0.000324	-0.001573	0.000460	6912.487356	47215.944703	3978.449528	24776.708322
50.038000	-0.004353	0.000161	-0.006126	0.005014	6835.285513	46737.185740	3955.093369	24548.159111
50.535500	-0.001362	0.000252	0.001482	0.002157	6888.850204	47035.784455	3981.975269	24691.254608
51.041000	-0.002203	-0.000535	-0.003075	-0.000817	6908.569315	47258.681460	3977.867858	24841.230334
51.535500	0.001683	0.000279	0.000830	-0.002430	6959.854498	47507.275489	3992.250702	24922.963071
52.036000	-0.003572	-0.000651	-0.004141	0.004799	6844.362735	46676.936449	3960.691270	24558.899248
52.538500	0.000331	-0.000253	0.000919	0.002362	6902.604381	46963.742171	3979.981709	24680.980243
53.036000	-0.015750	-0.017613	0.008716	0.187521	5412.300750	30539.490250	3602.075292	17109.122865
53.536500	-0.022213	-0.017460	0.001251	0.065103	6186.077130	39554.132642	3829.109559	21746.631690
54.040000	-0.034639	-0.028188	-0.009896	-0.072907	7293.353693	52038.408266	4160.309287	28809.026463
54.534500	-0.022715	-0.037924	0.002343	-0.153806	8344.082233	60788.332483	4473.040292	34120.787901
55.035000	-0.019751	-0.022787	0.003589	-0.110948	7864.863333	57208.440366	4325.005230	31183.824529
55.540500	-0.021165	-0.019323	-0.008533	-0.114858	7893.567618	58138.485206	4297.428943	31439.918576
56.036000	-0.011584	-0.015023	-0.004372	-0.106571	7908.523803	57633.683423	4283.771796	30899.864756
56.541500	-0.006301	-0.010180	-0.006279	-0.093533	7819.595853	56610.457170	4235.369206	30070.835347
57.036500	-0.004870	-0.008078	-0.004568	-0.078148	7663.522557	54992.293756	4192.516818	29123.954068
57.536500	-0.006206	-0.008477	-0.005372	-0.069960	7559.846233	53972.318143	4165.064281	28633.546673
58.036500	-0.007548	-0.006016	-0.008507	-0.047732	7312.845723	51699.689426	4090.622989	27347.939233
58.537500	-0.004418	-0.006024	-0.005964	-0.039709	7263.228569	50805.459302	4075.104587	26899.860367
59.037000	-0.004968	-0.005126	-0.005573	-0.037468	7235.178205	50657.635089	4069.910745	26776.188286
59.535000	-0.004172	-0.005220	-0.007918	-0.026704	7136.438033	49478.207983	4033.723063	26190.876929
60.035500	-0.008762	-0.007017	-0.012945	-0.016452	6993.572802	48203.592063	3992.902330	25646.748668
60.535500	-0.007130	-0.005645	-0.007751	-0.016855	7012.871891	48389.189228	4007.689474	25667.890413
61.035500	-0.007741	-0.006286	-0.010588	-0.018242	7020.252081	48467.441340	4003.839684	25740.830073
61.536000	-0.008513	-0.004903	-0.006545	-0.018448	7014.865621	48634.425957	4015.153967	25751.669928
62.036000	-0.009192	-0.005876	-0.008045	-0.026074	7081.471031	49340.511736	4031.666758	26157.058304
62.536500	-0.010879	-0.005877	-0.013499	-0.032736	7129.834494	50058.352311	4034.950508	26517.083262
63.037000	-0.009895	-0.007552	-0.011360	-0.039211	7203.387868	50582.471128	4058.629959	26872.311864
63.537000	-0.012733	-0.005416	-0.017126	-0.048535	7268.378857	51857.629904	4068.547913	27393.251395
64.058000	-0.011561	-0.004927	-0.011218	-0.047706	7271.850789	51819.314736	4082.850077	27346.526012
64.535500	-0.010723	-0.005067	-0.021253	-0.046075	7263.844643	51620.183545	4050.249160	27254.727877
65.035000	-0.011256	-0.005155	-0.012077	-0.046255	7260.289606	51630.560279	4076.324509	27264.856928
65.543500	-0.010040	-0.006041	-0.011310	-0.045300	7262.912652	51424.289663	4075.794445	27211.237818
66.035500	-0.008887	-0.005448	-0.011579	-0.041891	7240.223648	51110.670058	4065.481452	27020.887636
66.539000	-0.012097	-0.006151	-0.010081	-0.039855	7187.922035	50807.620768	4063.980222	26907.943273
67.037000	-0.012172	-0.005581	-0.009469	-0.038035	7169.179630	50669.863291	4060.615946	26807.400607
67.536000	-0.011041	-0.005424	-0.014776	-0.037833	7178.358535	50664.970530	4045.392880	26796.301248
68.039500	-0.011397	-0.005924	-0.013064	-0.037960	7176.097406	50623.889095	4050.452609	26803.278722
68.537500	-0.012472	-0.005497	-0.009288	-0.038257	7168.419778	50703.541883	4061.739403	26819.662886
69.035000	-0.011657	-0.004536	-0.012210	-0.037698	7170.936051	50747.837483	4052.085542	26788.813696
69.534500	-0.011793	-0.005574	-0.008834	-0.039854	7190.921325	50871.127328	4067.458643	26907.885754
70.035500	-0.014142	-0.005327	-0.014489	-0.035129	7121.333474	50378.980787	4038.772946	26647.739370
70.536000	-0.011770	-0.005476	-0.010227	-0.040531	7197.873589	50956.909084	4065.459367	26945.394737
71.036000	-0.011222	-0.005904	-0.004324	-0.041897	7216.931318	51060.862394	4085.926230	27021.276849
71.536500	-0.010411	-0.006390	-0.008252	-0.042738	7233.437941	51100.202685	4077.192066	27068.077554
72.036000	-0.012404	-0.005976	-0.012021	-0.039194	7178.338030	50753.935433	4056.748941	26871.374070
72.539500	-0.010077	-0.006585	-0.007837	-0.043238	7241.805707	51134.066326	4079.776249	27095.958929
73.037000	-0.010644	-0.006261	-0.008054	-0.044351	7247.283078	51293.910400	4082.306259	27158.092570
73.534000	-0.011313	-0.006523	-0.006530	-0.044758	7244.646347	51309.995233	4087.785007	27180.870219
74.035000	-0.012498	-0.006303	-0.010768	-0.040511	7190.449771	50863.291419	4063.894274	26944.300372
74.535500	-0.007040	-0.005514	-0.009005	-0.044079	7280.887051	51346.865724	4078.852041	27142.918123
75.035500	-0.009064	-0.006829	-0.013287	-0.045290	7272.658815	51335.301890	4070.210901	27210.687435
75.535000	-0.008594	-0.006169	-0.008020	-0.044985	7274.329660	51374.862660	4084.201633	27193.589694
76.036000	-0.012753	-0.006446	-0.012878	-0.040142	7184.266106	50806.641933	4057.001623	26923.831953
76.536000	-0.010427	-0.006913	-0.005620	-0.044470	7250.661035	51234.534272	4089.557612	27164.784036
77.039500	-0.010618	-0.006360	-0.008907	-0.044875	7252.809414	51341.337548	4081.377473	27187.447893
77.537000	-0.009854	-0.006308	-0.005940	-0.044528	7257.009280	51308.510163	4088.813203	27168.045558
78.034500	-0.010937	-0.006109	-0.012329	-0.039766	7198.549842	50802.372470	4057.479528	26903.015343
78.543000	-0.010010	-0.006219	-0.007743	-0.044020	7250.326688	51261.709223	4082.253001	27139.605200
79.034500	-0.008696	-0.006208	-0.003634	-0.043662	7259.949380	51222.999863	4092.915141	27119.585516
79.538000	-0.009364	-0.006367	-0.006583	-0.043527	7251.864181	51190.384370	4084.140628	27112.067283
80.036000	-0.009478	-0.006069	-0.005071	-0.043018	7245.608577	51166.909348	4086.990265	27083.688950
80.535500	-0.009475	-0.006224	-0.002574	-0.042519	7240.624795	51094.310383	4092.677418	27055.852876
81.036000	-0.007989	-0.005733	-0.003816	-0.042631	7256.691485	51161.356799	4089.459183	27062.126884
81.536500	-0.008865	-0.006177	-0.007077	-0.042768	7249.260701	51127.194640	4080.594367	27069.764715
82.037000	-0.007771	-0.006816	-0.005502	-0.043119	7263.801263	51095.136707	4086.051701	27089.309003
82.537000	-0.009181	-0.006377	-0.008628	-0.041838	7236.752754	51001.826131	4073.599673	27017.977545
83.034500	-0.009422	-0.006134	-0.007103	-0.041995	7235.911624	51046.162563	4078.338968	27026.722046
83.537500	-0.009688	-0.006431	-0.008271	-0.041791	7231.195983	50990.608386	4074.471740	27015.340439
84.035000	-0.008354	-0.006763	-0.006989	-0.041801	7244.670211	50955.035957	4078.112366	27015.908358
84.537500	-0.007626	-0.006279	-0.005367	-0.040866	7242.593129	50905.030281	4080.050481	26963.954993
85.041000	-0.007298	-0.006203	-0.006458	-0.040527	7242.477612	50876.005878	4076.017071	26945.165822
85.536000	-0.008758	-0.006230	-0.002693	-0.040251	7225.099078	50842.610241	4085.884073	26929.873489
86.035500	-0.006997	-0.007061	-0.000788	-0.039715	7237.358649	50691.957504	4089.777828	26900.215288
86.536000	-0.008689	-0.007092	-0.006961	-0.039390	7217.188390	50652.799313	4071.409118	26882.240220
87.037500	-0.008641	-0.006187	-0.006873	-0.038313	7206.935988	50633.899579	4068.635824	26822.754813
87.540000	-0.009235	-0.006458	-0.007536	-0.037840	7196.327401	50552.108819	4065.460417	26796.675088
88.035000	-0.010158	-0.006549	-0.009685	-0.036842	7177.292597	50432.788656	4056.705753	26741.751562
88.535500	-0.007709	-0.006569	-0.005589	-0.036072	7193.916318	50346.280186	4065.957189	26699.415457
89.035000	-0.006797	-0.006678	-0.010697	-0.035788	7200.157692	50303.469142	4050.990333	26683.852881
89.536000	-0.009704	-0.006754	-0.001879	-0.035018	7163.774000	50211.187461	4073.402455	26641.690098
90.036000	-0.012966	-0.007308	-0.011216	-0.029947	7082.428468	49602.290954	4033.573252	26365.679581
90.536500	-0.008551	-0.005980	-0.010179	-0.032335	7148.716132	50003.635189	4042.919365	26495.237090
91.039000	-0.009664	-0.006361	-0.004444	-0.032591	7140.305183	49990.104531	4059.452433	26509.182528
91.537000	-0.008628	-0.006888	-0.004114	-0.031821	7142.920570	49849.694276	4058.230703	26467.320370
92.036500	-0.010807	-0.006687	-0.010342	-0.027370	7078.389030	49392.386035	4028.951096	26226.636452
92.540000	-0.010243	-0.007178	-0.006526	-0.031171	7120.768735	49748.133512	4049.763267	26432.030110
93.035500	-0.008569	-0.005832	-0.002837	-0.029074	7116.639176	49667.151479	4054.155670	26318.481390
93.535000	-0.007909	-0.006777	-0.007273	-0.029426	7126.511726	49603.273981	4042.913133	26337.489042
94.035500	-0.008221	-0.006105	-0.002875	-0.028580	7115.224514	49584.698549	4052.687732	26291.856910
94.535500	-0.008119	-0.005593	-0.006977	-0.027583	7106.504663	49532.539226	4038.682867	26238.120663
95.036000	-0.008710	-0.006088	-0.006977	-0.027240	7097.434407	49442.560076	4037.742960	26219.649653
95.627000	-0.008456	-0.006451	-0.005222	-0.027237	7099.871677	49403.441875	4042.534981	26219.513633
96.036500	-0.010978	-0.006509	-0.010942	-0.022845	7033.275754	48929.296617	4015.153967	25984.510953
96.561500	-0.009866	-0.006349	-0.006652	-0.026391	7078.020740	49323.795753	4036.314992	26174.056388
97.037000	-0.005371	-0.005967	-0.008572	-0.025478	7112.761058	49267.079964	4028.620282	26125.098785
97.534500	-0.010278	-0.005856	-0.005323	-0.024567	7056.477815	49181.655047	4034.966052	26076.351439
98.035000	-0.011456	-0.007075	-0.009603	-0.021522	7016.106267	48729.494908	4015.196124	25914.213218
98.562500	-0.009123	-0.006315	-0.005930	-0.024341	7065.420399	49108.817622	4032.703285	26064.308000
99.035500	-0.009644	-0.006201	-0.009083	-0.023979	7056.932422	49082.350726	4023.192557	26044.971120
