sample name	sample
index	1317
start time	 05-03-2021  10:45:00 AM


Wavelength (nm)	Absorbance
494.344910	NaN
494.563924	NaN
494.782919	NaN
495.001897	NaN
495.220856	NaN
495.439797	0.466206
495.658719	0.189457
495.877624	0.116537
496.096510	-0.090719
496.315378	0.005724
496.534227	-0.010637
496.753059	-0.165739
496.971872	-0.085510
497.190667	0.004481
497.409444	0.013995
497.628203	0.019144
497.846943	0.020109
498.065665	0.021384
498.284369	0.019296
498.503055	0.020550
498.721723	0.022212
498.940372	0.020963
499.159003	0.020851
499.377616	0.020391
499.596210	0.019109
499.814787	0.019198
500.033345	0.019113
500.251885	0.019408
500.470406	0.018826
500.688910	0.018347
500.907395	0.018969
501.125862	0.019373
501.344311	0.020473
501.562742	0.020813
501.781154	0.019749
501.999548	0.019876
502.217924	0.020982
502.436282	0.021035
502.654621	0.020623
502.872942	0.020650
503.091245	0.020071
503.309530	0.019299
503.527797	0.019570
503.746045	0.019473
503.964275	0.018761
504.182487	0.017461
504.400681	0.018486
504.618856	0.017739
504.837013	0.017632
505.055152	0.017850
505.273273	0.017640
505.491376	0.017075
505.709460	0.017122
505.927526	0.018090
506.145574	0.018147
506.363604	0.016960
506.581615	0.017909
506.799608	0.017205
507.017583	0.016848
507.235540	0.017808
507.453478	0.018619
507.671399	0.019439
507.889301	0.018421
508.107185	0.019012
508.325050	0.018962
508.542898	0.018936
508.760727	0.019601
508.978538	0.020496
509.196330	0.020297
509.414105	0.019630
509.631861	0.020001
509.849599	0.020164
510.067319	0.019870
510.285021	0.019998
510.502704	0.020195
510.720369	0.020011
510.938016	0.018984
511.155645	0.018756
511.373255	0.019548
511.590848	0.019274
511.808422	0.019494
512.025977	0.019574
512.243515	0.019442
512.461034	0.019837
512.678536	0.020221
512.896018	0.020485
513.113483	0.020748
513.330930	0.020319
513.548358	0.020314
513.765768	0.020407
513.983160	0.020521
514.200533	0.019607
514.417889	0.017932
514.635226	0.017821
514.852545	0.017144
515.069845	0.016673
515.287128	0.015888
515.504392	0.015786
515.721638	0.015909
515.938866	0.015301
516.156075	0.016265
516.373267	0.017295
516.590440	0.017190
516.807594	0.018254
517.024731	0.017920
517.241850	0.018437
517.458950	0.018362
517.676032	0.018280
517.893095	0.019248
518.110141	0.019168
518.327168	0.019188
518.544177	0.019426
518.761168	0.018966
518.978141	0.019260
519.195095	0.019721
519.412031	0.018849
519.628949	0.018460
519.845849	0.018332
520.062731	0.017761
520.279594	0.017476
520.496439	0.016748
520.713266	0.017261
520.930074	0.016241
521.146865	0.015940
521.363637	0.016476
521.580391	0.016550
521.797127	0.015783
522.013844	0.016270
522.230543	0.016596
522.447224	0.016835
522.663887	0.016886
522.880532	0.018067
523.097158	0.017849
523.313766	0.017288
523.530356	0.017295
523.746928	0.016941
523.963481	0.016441
524.180017	0.016304
524.396534	0.016430
524.613032	0.015635
524.829513	0.015708
525.045975	0.016649
525.262420	0.016685
525.478845	0.016397
525.695253	0.016293
525.911643	0.016713
526.128014	0.016715
526.344367	0.016230
526.560702	0.016715
526.777018	0.016208
526.993316	0.015006
527.209597	0.015713
527.425858	0.016424
527.642102	0.016488
527.858328	0.016119
528.074535	0.016108
528.290724	0.016518
528.506894	0.016030
528.723047	0.016223
528.939181	0.016731
529.155297	0.016202
529.371395	0.016658
529.587475	0.016926
529.803536	0.017159
530.019579	0.016671
530.235604	0.016899
530.451611	0.016791
530.667600	0.016428
530.883570	0.015761
531.099522	0.016063
531.315456	0.015315
531.531372	0.015440
531.747269	0.015549
531.963148	0.016358
532.179009	0.016409
532.394852	0.016626
532.610676	0.016763
532.826482	0.017591
533.042271	0.017517
533.258040	0.017868
533.473792	0.017585
533.689525	0.017621
533.905240	0.016974
534.120937	0.016456
534.336616	0.017050
534.552277	0.017104
534.767919	0.016835
534.983543	0.016610
535.199149	0.016470
535.414736	0.016550
535.630306	0.016447
535.845857	0.016345
536.061390	0.016464
536.276904	0.015916
536.492401	0.015836
536.707879	0.016211
536.923339	0.016430
537.138781	0.015858
537.354204	0.016034
537.569610	0.016109
537.784997	0.016131
538.000366	0.016051
538.215716	0.016180
538.431049	0.016342
538.646363	0.016467
538.861659	0.016260
539.076937	0.016491
539.292196	0.016273
539.507438	0.016427
539.722661	0.016432
539.937866	0.016441
540.153052	0.016071
540.368221	0.015898
540.583371	0.015291
540.798503	0.015332
541.013617	0.015290
541.228712	0.015157
541.443789	0.014553
541.658848	0.014900
541.873889	0.014563
542.088912	0.014872
542.303916	0.014898
542.518902	0.014646
542.733870	0.014828
542.948820	0.014618
543.163752	0.015103
543.378665	0.015500
543.593560	0.015029
543.808437	0.015224
544.023295	0.014854
544.238136	0.014916
544.452958	0.015096
544.667762	0.014882
544.882548	0.015050
545.097315	0.014419
545.312064	0.014377
545.526795	0.014742
545.741508	0.015061
545.956203	0.014681
546.170879	0.014511
546.385537	0.014370
546.600177	0.014354
546.814799	0.014089
547.029402	0.014180
547.243988	0.013982
547.458555	0.013329
547.673103	0.013347
547.887634	0.013401
548.102146	0.013185
548.316640	0.013336
548.531116	0.013341
548.745574	0.013620
548.960013	0.013384
549.174435	0.013203
549.388838	0.013282
549.603222	0.012943
549.817589	0.013104
550.031937	0.013251
550.246267	0.013285
550.460579	0.013033
550.674873	0.012912
550.889148	0.013091
551.103405	0.012711
551.317644	0.012728
551.531865	0.012730
551.746068	0.012872
551.960252	0.012836
552.174418	0.012775
552.388566	0.012805
552.602696	0.012509
552.816807	0.012380
553.030900	0.013068
553.244975	0.013036
553.459032	0.012886
553.673070	0.012715
553.887091	0.012605
554.101093	0.012284
554.315077	0.012271
554.529042	0.012033
554.742990	0.012368
554.956919	0.012121
555.170830	0.012586
555.384722	0.012450
555.598597	0.012409
555.812453	0.012504
556.026291	0.012785
556.240111	0.012914
556.453913	0.013123
556.667696	0.013132
556.881461	0.013076
557.095208	0.012637
557.308937	0.013223
557.522647	0.013330
557.736339	0.013206
557.950013	0.013220
558.163669	0.012940
558.377307	0.012932
558.590926	0.012790
558.804527	0.012741
559.018110	0.012713
559.231675	0.012147
559.445221	0.012242
559.658749	0.012229
559.872259	0.012217
560.085751	0.012397
560.299225	0.012549
560.512680	0.012470
560.726117	0.012274
560.939536	0.012110
561.152937	0.011926
561.366319	0.011730
561.579683	0.011772
561.793029	0.011724
562.006357	0.011627
562.219667	0.011654
562.432958	0.011769
562.646231	0.011541
562.859486	0.011742
563.072723	0.011880
563.285941	0.011976
563.499141	0.011669
563.712323	0.011331
563.925487	0.011271
564.138632	0.011292
564.351760	0.011031
564.564869	0.011414
564.777960	0.011331
564.991032	0.011328
565.204087	0.010794
565.417123	0.010995
565.630141	0.011161
565.843140	0.011293
566.056122	0.011082
566.269085	0.011366
566.482030	0.011280
566.694957	0.011240
566.907866	0.011220
567.120756	0.011404
567.333628	0.011250
567.546482	0.011210
567.759318	0.011243
567.972135	0.011240
568.184935	0.010882
568.397716	0.010674
568.610478	0.010621
568.823223	0.010286
569.035949	0.010760
569.248657	0.010575
569.461347	0.010228
569.674019	0.009681
569.886672	0.009457
570.099308	0.009168
570.311925	0.009149
570.524523	0.009102
570.737104	0.009223
570.949666	0.008646
571.162210	0.008818
571.374736	0.008878
571.587244	0.009266
571.799733	0.009549
572.012205	0.009712
572.224658	0.009668
572.437092	0.009498
572.649509	0.009785
572.861907	0.009566
573.074287	0.009726
573.286649	0.009887
573.498993	0.009606
573.711318	0.009313
573.923625	0.009298
574.135914	0.009189
574.348185	0.009286
574.560438	0.008990
574.772672	0.009009
574.984888	0.008695
575.197086	0.008829
575.409266	0.008644
575.621427	0.008246
575.833570	0.008144
576.045695	0.008226
576.257802	0.008188
576.469890	0.007973
576.681961	0.008275
576.894013	0.008490
577.106046	0.008201
577.318062	0.008896
577.530059	0.009304
577.742039	0.009316
577.954000	0.009277
578.165942	0.009014
578.377867	0.009189
578.589773	0.009206
578.801661	0.009023
579.013531	0.008929
579.225382	0.008376
579.437216	0.008141
579.649031	0.008251
579.860828	0.008272
580.072606	0.008439
580.284367	0.008229
580.496109	0.007970
580.707833	0.008010
580.919539	0.007733
581.131227	0.007941
581.342896	0.008249
581.554547	0.008248
581.766180	0.008102
581.977795	0.008230
582.189391	0.008507
582.400969	0.008385
582.612529	0.008308
582.824071	0.008342
583.035595	0.008161
583.247100	0.007812
583.458587	0.007509
583.670056	0.007539
583.881506	0.007434
584.092939	0.007294
584.304353	0.007271
584.515749	0.007341
584.727127	0.007475
584.938486	0.007497
585.149828	0.007526
585.361151	0.007765
585.572456	0.007604
585.783742	0.007555
585.995011	0.007592
586.206261	0.007758
586.417493	0.007657
586.628706	0.007765
586.839902	0.007584
587.051079	0.007335
587.262238	0.006907
587.473379	0.007072
587.684502	0.006954
587.895606	0.006693
588.106692	0.006663
588.317760	0.006898
588.528810	0.006787
588.739841	0.006396
588.950855	0.006716
589.161850	0.007044
589.372827	0.007165
589.583785	0.007024
589.794726	0.007276
590.005648	0.007094
590.216552	0.006692
590.427437	0.006274
590.638305	0.006486
590.849154	0.006334
591.059985	0.006388
591.270798	0.006159
591.481592	0.006127
591.692369	0.006043
591.903127	0.006146
592.113867	0.006317
592.324588	0.006379
592.535292	0.006589
592.745977	0.006362
592.956644	0.005894
593.167293	0.005827
593.377923	0.005882
593.588536	0.005658
593.799130	0.005601
594.009706	0.005649
594.220263	0.005959
594.430803	0.005780
594.641324	0.006057
594.851827	0.006273
595.062312	0.006245
595.272778	0.006236
595.483227	0.006119
595.693657	0.005978
595.904069	0.005509
596.114462	0.005477
596.324838	0.005665
596.535195	0.005617
596.745534	0.005500
596.955855	0.005726
597.166157	0.005928
597.376441	0.006200
597.586707	0.006082
597.796955	0.006384
598.007185	0.006225
598.217396	0.006030
598.427589	0.005960
598.637764	0.006014
598.847921	0.005833
599.058060	0.005553
599.268180	0.005599
599.478282	0.005849
599.688366	0.005984
599.898431	0.006084
600.108479	0.006264
600.318508	0.006327
600.528519	0.006278
600.738511	0.006347
600.948486	0.006360
601.158442	0.006487
601.368380	0.006412
601.578300	0.006348
601.788202	0.006236
601.998085	0.006271
602.207950	0.006602
602.417797	0.006813
602.627626	0.007255
602.837436	0.007340
603.047228	0.007327
603.257002	0.007489
603.466758	0.007396
603.676496	0.007644
603.886215	0.007594
604.095916	0.007434
604.305599	0.007195
604.515264	0.006589
604.724910	0.006749
604.934538	0.006601
605.144148	0.006383
605.353740	0.006393
605.563314	0.006422
605.772869	0.006471
605.982406	0.006360
606.191925	0.006429
606.401425	0.006711
606.610908	0.006508
606.820372	0.006401
607.029818	0.006594
607.239246	0.006783
607.448655	0.006488
607.658047	0.006667
607.867420	0.006281
608.076775	0.006388
608.286111	0.006330
608.495430	0.006663
608.704730	0.006522
608.914012	0.006523
609.123275	0.006238
609.332521	0.006354
609.541748	0.005879
609.750957	0.006137
609.960148	0.005992
610.169321	0.005839
610.378475	0.005367
610.587611	0.005541
610.796729	0.005259
611.005829	0.005207
611.214910	0.004963
611.423974	0.005014
611.633019	0.005012
611.842045	0.005039
612.051054	0.005117
612.260044	0.005289
612.469017	0.005007
612.677970	0.005024
612.886906	0.004919
613.095824	0.005277
613.304723	0.005340
613.513604	0.005370
613.722467	0.005436
613.931311	0.005124
614.140138	0.005074
614.348946	0.005415
614.557736	0.005591
614.766507	0.005695
614.975261	0.005416
615.183996	0.005451
615.392713	0.005142
615.601412	0.005135
615.810092	0.005382
616.018754	0.005143
616.227399	0.004874
616.436024	0.004802
616.644632	0.004733
616.853222	0.004690
617.061793	0.004618
617.270346	0.004497
617.478880	0.004372
617.687397	0.004263
617.895895	0.004322
618.104375	0.004529
618.312837	0.004444
618.521281	0.004102
618.729706	0.004103
618.938113	0.004130
619.146502	0.004285
619.354873	0.004302
619.563226	0.003858
619.771560	0.004076
619.979876	0.003898
620.188174	0.003855
620.396453	0.004325
620.604715	0.004346
620.812958	0.004319
621.021183	0.004669
621.229390	0.004720
621.437578	0.005337
621.645748	0.005182
621.853900	0.005332
622.062034	0.005475
622.270150	0.005207
622.478247	0.005266
622.686326	0.005179
622.894387	0.004958
623.102430	0.004957
623.310454	0.004844
623.518461	0.004920
623.726449	0.004882
623.934418	0.004756
624.142370	0.004885
624.350303	0.005224
624.558218	0.005264
624.766115	0.005306
624.973994	0.005060
625.181855	0.004967
625.389697	0.004915
625.597521	0.004857
625.805327	0.004935
626.013114	0.005050
626.220883	0.004683
626.428634	0.004773
626.636367	0.004911
626.844082	0.005027
627.051778	0.005199
627.259457	0.005271
627.467117	0.005184
627.674758	0.005229
627.882382	0.005242
628.089987	0.005327
628.297574	0.005130
628.505143	0.004827
628.712694	0.005104
628.920226	0.004914
629.127740	0.005035
629.335236	0.005105
629.542714	0.005131
629.750174	0.005065
629.957615	0.005052
630.165038	0.005391
630.372443	0.005552
630.579829	0.005346
630.787198	0.005372
630.994548	0.005177
631.201880	0.005240
631.409194	0.005175
631.616489	0.005250
631.823766	0.005110
632.031025	0.004901
632.238266	0.004801
632.445489	0.004758
632.652693	0.004670
632.859879	0.004814
633.067047	0.004675
633.274197	0.004683
633.481329	0.004363
633.688442	0.004465
633.895537	0.004551
634.102614	0.004642
634.309672	0.004666
634.516713	0.004823
634.723735	0.004820
634.930739	0.004973
635.137724	0.004926
635.344692	0.005351
635.551641	0.005381
635.758572	0.005304
635.965485	0.005135
636.172379	0.005198
636.379256	0.005313
636.586114	0.005130
636.792954	0.005124
636.999775	0.005138
637.206579	0.004819
637.413364	0.004803
637.620131	0.004675
637.826880	0.004798
638.033610	0.004782
638.240323	0.004716
638.447017	0.004707
638.653692	0.004636
638.860350	0.004610
639.066990	0.004709
639.273611	0.004719
639.480214	0.004721
639.686798	0.004610
639.893365	0.004362
640.099913	0.004358
640.306443	0.004441
640.512955	0.004419
640.719449	0.004543
640.925924	0.004512
641.132381	0.004455
641.338820	0.004470
641.545241	0.004604
641.751644	0.004733
641.958028	0.004787
642.164394	0.004636
642.370742	0.004499
642.577071	0.004324
642.783383	0.004504
642.989676	0.004400
643.195951	0.004382
643.402207	0.004420
643.608446	0.004433
643.814666	0.004202
644.020868	0.004333
644.227052	0.004414
644.433218	0.004438
644.639365	0.004270
644.845494	0.004443
645.051605	0.004580
645.257698	0.004511
645.463772	0.004554
645.669828	0.004616
645.875866	0.004594
646.081886	0.004579
646.287888	0.004669
646.493871	0.004639
646.699836	0.004436
646.905783	0.004616
647.111712	0.004750
647.317622	0.004772
647.523514	0.004694
647.729388	0.004888
647.935244	0.004963
648.141082	0.005048
648.346901	0.005104
648.552702	0.005344
648.758485	0.005217
648.964250	0.005194
649.169996	0.005167
649.375724	0.005338
649.581434	0.005191
649.787126	0.005209
649.992800	0.005097
650.198455	0.004926
650.404092	0.004865
650.609711	0.004653
650.815311	0.004634
651.020894	0.004604
651.226458	0.004554
651.432004	0.004514
651.637532	0.004627
651.843041	0.004572
652.048532	0.004812
652.254006	0.004836
652.459460	0.005027
652.664897	0.005027
652.870315	0.005058
653.075716	0.004936
653.281097	0.005138
653.486461	0.005135
653.691807	0.005213
653.897134	0.005262
654.102443	0.005269
654.307734	0.005343
654.513006	0.005296
654.718261	0.005415
654.923497	0.005709
655.128715	0.005675
655.333915	0.005649
655.539096	0.005759
655.744259	0.005671
655.949404	0.005723
656.154531	0.005653
656.359640	0.005762
656.564730	0.005769
656.769802	0.005718
656.974856	0.005807
657.179892	0.005732
657.384909	0.005742
657.589908	0.005664
657.794889	0.005809
657.999852	0.005871
658.204797	0.005704
658.409723	0.005612
658.614631	0.005509
658.819521	0.005353
659.024393	0.005498
659.229246	0.005388
659.434081	0.005367
659.638898	0.005077
659.843697	0.005087
660.048478	0.005143
660.253240	0.005020
660.457984	0.005073
660.662710	0.004915
660.867417	0.004706
661.072107	0.004375
661.276778	0.004337
661.481431	0.004372
661.686066	0.004126
661.890682	0.004161
662.095281	0.004044
662.299861	0.003700
662.504422	0.003642
662.708966	0.003480
662.913491	0.003652
663.117999	0.003637
663.322488	0.003546
663.526958	0.003456
663.731411	0.003416
663.935845	0.003505
664.140261	0.003617
664.344659	0.003747
664.549038	0.003928
664.753400	0.004004
664.957743	0.004139
665.162068	0.004142
665.366375	0.004305
665.570663	0.004284
665.774933	0.004265
665.979185	0.004205
666.183419	0.004278
666.387635	0.004176
666.591832	0.004204
666.796011	0.004200
667.000172	0.004206
667.204315	0.004113
667.408439	0.004024
667.612545	0.004235
667.816634	0.004229
668.020703	0.004106
668.224755	0.004284
668.428788	0.004249
668.632803	0.004141
668.836800	0.004200
669.040779	0.004198
669.244739	0.004338
669.448681	0.004317
669.652605	0.004262
669.856511	0.004095
670.060399	0.003926
670.264268	0.003964
670.468119	0.004142
670.671952	0.004211
670.875767	0.004240
671.079563	0.004331
671.283341	0.004326
671.487101	0.004789
671.690843	0.005043
671.894567	0.005044
672.098272	0.005036
672.301959	0.005042
672.505628	0.004908
672.709278	0.004956
672.912911	0.004874
673.116525	0.004908
673.320121	0.004743
673.523699	0.004885
673.727258	0.004876
673.930799	0.005073
674.134322	0.005175
674.337827	0.005465
674.541314	0.005616
674.744782	0.005681
674.948232	0.005646
675.151664	0.005677
675.355078	0.005453
675.558474	0.005683
675.761851	0.005474
675.965210	0.005294
676.168551	0.005084
676.371873	0.004923
676.575178	0.004774
676.778464	0.004765
676.981732	0.004702
677.184981	0.004780
677.388213	0.004785
677.591426	0.004872
677.794621	0.004833
677.997798	0.004777
678.200956	0.004884
678.404097	0.004849
678.607219	0.004915
678.810323	0.004925
679.013408	0.004896
679.216476	0.004806
679.419525	0.004623
679.622556	0.004639
679.825569	0.004712
680.028563	0.004647
680.231540	0.004686
680.434498	0.004587
680.637438	0.004555
680.840359	0.004590
681.043263	0.004607
681.246148	0.004666
681.449015	0.004572
681.651864	0.004525
681.854694	0.004530
682.057506	0.004574
682.260301	0.004807
682.463076	0.004908
682.665834	0.004860
682.868573	0.004930
683.071295	0.004995
683.273998	0.005134
683.476682	0.005209
683.679349	0.005172
683.881997	0.005291
684.084627	0.005101
684.287239	0.005010
684.489833	0.004967
684.692408	0.004840
684.894965	0.004682
685.097504	0.004654
685.300025	0.004659
685.502527	0.004743
685.705012	0.004621
685.907478	0.004523
686.109925	0.004471
686.312355	0.004564
686.514766	0.004539
686.717159	0.004713
686.919534	0.004583
687.121891	0.004571
687.324230	0.004607
687.526550	0.004670
687.728852	0.004613
687.931136	0.004869
688.133401	0.004859
688.335649	0.004995
688.537878	0.005004
688.740089	0.005151
688.942281	0.004983
689.144456	0.004966
689.346612	0.004875
689.548750	0.005107
689.750870	0.005023
689.952971	0.005009
690.155055	0.005095
690.357120	0.005210
690.559167	0.005048
690.761195	0.005414
690.963206	0.005574
691.165198	0.005835
691.367172	0.005842
691.569128	0.005811
691.771065	0.005937
691.972984	0.005899
692.174885	0.005976
692.376768	0.006177
692.578633	0.006061
692.780479	0.005845
692.982308	0.005746
693.184118	0.005746
693.385909	0.005667
693.587683	0.005714
693.789438	0.005697
693.991175	0.005457
694.192894	0.005442
694.394595	0.005647
694.596277	0.005779
694.797941	0.005850
694.999587	0.005969
695.201215	0.006018
695.402824	0.005945
695.604416	0.005980
695.805989	0.006181
696.007543	0.006295
696.209080	0.006063
696.410598	0.005962
696.612099	0.005807
696.813580	0.005722
697.015044	0.005744
697.216490	0.005685
697.417917	0.005602
697.619326	0.005561
697.820717	0.005392
698.022089	0.005474
698.223444	0.005501
698.424780	0.005456
698.626098	0.005437
698.827397	0.005348
699.028679	0.005484
699.229942	0.005427
699.431187	0.005445
699.632414	0.005445
699.833622	0.005407
700.034813	0.005472
700.235985	0.005609
700.437139	0.005714
700.638274	0.005870
700.839392	0.005705
701.040491	0.005830
701.241572	0.005682
701.442635	0.005823
701.643679	0.005809
701.844706	0.005699
702.045714	0.005513
702.246704	0.005287
702.447675	0.005165
702.648629	0.005276
702.849564	0.005033
703.050481	0.005046
703.251380	0.004833
703.452260	0.004728
703.653122	0.004621
703.853966	0.004754
704.054792	0.004694
704.255600	0.004527
704.456389	0.004327
704.657160	0.004375
704.857913	0.004238
705.058648	0.004330
705.259365	0.004310
705.460063	0.004309
705.660743	0.004051
705.861405	0.004231
706.062048	0.004393
706.262674	0.004432
706.463281	0.004604
706.663870	0.004696
706.864441	0.004610
707.064993	0.004614
707.265527	0.004705
707.466043	0.004906
707.666541	0.004897
707.867021	0.004935
708.067482	0.004976
708.267925	0.004873
708.468350	0.005006
708.668757	0.004919
708.869145	0.004866
709.069516	0.004917
709.269868	0.004729
709.470201	0.004599
709.670517	0.004516
709.870814	0.004486
710.071093	0.004304
710.271354	0.003992
710.471597	0.003946
710.671821	0.003740
710.872028	0.003605
711.072216	0.003623
711.272385	0.003484
711.472537	0.003430
711.672670	0.003447
711.872785	0.003504
712.072882	0.003464
712.272961	0.003420
712.473021	0.003586
712.673063	0.003611
712.873087	0.003740
713.073093	0.003932
713.273081	0.003968
713.473050	0.004002
713.673001	0.004204
713.872934	0.004575
714.072849	0.004869
714.272745	0.004821
714.472623	0.004958
714.672483	0.004956
714.872325	0.004893
715.072148	0.004889
715.271954	0.004787
715.471741	0.004583
715.671509	0.004503
715.871260	0.004411
716.070992	0.004666
716.270707	0.004466
716.470403	0.004495
716.670080	0.004506
716.869740	0.004607
717.069381	0.004634
717.269004	0.004632
717.468609	0.004648
717.668195	0.004600
717.867764	0.004308
718.067314	0.004266
718.266846	0.004207
718.466360	0.004066
718.665855	0.003865
718.865332	0.003593
719.064791	0.003763
719.264232	0.003556
719.463655	0.003269
719.663059	0.003244
719.862445	0.003167
720.061813	0.002946
720.261163	0.003003
720.460494	0.002909
720.659807	0.003033
720.859102	0.002686
721.058379	0.002706
721.257638	0.002682
721.456878	0.002694
721.656100	0.002704
721.855304	0.002779
722.054490	0.002603
722.253657	0.002692
722.452806	0.002751
722.651937	0.002742
722.851050	0.002606
723.050145	0.002823
723.249221	0.002810
723.448279	0.002712
723.647319	0.002583
723.846340	0.002441
724.045344	0.002242
724.244329	0.002211
724.443296	0.002242
724.642245	0.002239
724.841175	0.002066
725.040088	0.002082
725.238982	0.002134
725.437857	0.002105
725.636715	0.002215
725.835554	0.002154
726.034376	0.002060
726.233179	0.002151
726.431963	0.002287
726.630730	0.002449
726.829478	0.002257
727.028208	0.002389
727.226920	0.002428
727.425614	0.002537
727.624289	0.002894
727.822946	0.002958
728.021585	0.002811
728.220206	0.002669
728.418808	0.002639
728.617392	0.002640
728.815958	0.002432
729.014506	0.002392
729.213036	0.002381
729.411547	0.002147
729.610040	0.002092
729.808515	0.002201
730.006972	0.002088
730.205410	0.001998
730.403831	0.002112
730.602233	0.002171
730.800616	0.002213
730.998982	0.001986
731.197329	0.001958
731.395658	0.001852
731.593969	0.001695
731.792262	0.001592
731.990536	0.001554
732.188793	0.001485
732.387031	0.001398
732.585250	0.001227
732.783452	0.001149
732.981635	0.001047
733.179800	0.000961
733.377947	0.000707
733.576076	0.000835
733.774186	0.000790
733.972278	0.000724
734.170352	0.000728
734.368408	0.000819
734.566446	0.000974
734.764465	0.001060
734.962466	0.001145
735.160449	0.001270
735.358413	0.001276
735.556360	0.001229
735.754288	0.001141
735.952198	0.001079
736.150090	0.000941
736.347963	0.000846
736.545818	0.000653
736.743655	0.000688
736.941474	0.000789
737.139275	0.000794
737.337057	0.000911
737.534821	0.001076
737.732567	0.001383
737.930295	0.001605
738.128005	0.001737
738.325696	0.002103
738.523369	0.002142
738.721024	0.002201
738.918660	0.002266
739.116279	0.002444
739.313879	0.002559
739.511461	0.002451
739.709024	0.002565
739.906570	0.002653
740.104097	0.002666
740.301606	0.002645
740.499097	0.002633
740.696569	0.002578
740.894024	0.002378
741.091460	0.002326
741.288878	0.002281
741.486277	0.002117
741.683659	0.002064
741.881022	0.002051
742.078367	0.001981
742.275694	0.002198
742.473002	0.002225
742.670293	0.002251
742.867565	0.002228
743.064819	0.002297
743.262054	0.002376
743.459272	0.002417
743.656471	0.002198
743.853652	0.002364
744.050815	0.002172
744.247959	0.002323
744.445085	0.002606
744.642194	0.002688
744.839283	0.002676
745.036355	0.002747
745.233408	0.002763
745.430444	0.002819
745.627461	0.002886
745.824459	0.003212
746.021440	0.003259
746.218402	0.003042
746.415346	0.003176
746.612272	0.003315
746.809180	0.003174
747.006069	0.003109
747.202940	0.003305
747.399793	0.003342
747.596628	0.003252
747.793444	0.003203
747.990243	0.003401
748.187023	0.003231
748.383784	0.003272
748.580528	0.003430
748.777253	0.003597
748.973960	0.003487
749.170649	0.003485
749.367320	0.003637
749.563973	0.003658
749.760607	0.003591
749.957223	0.003652
750.153821	0.003554
750.350400	0.003706
750.546962	0.003648
750.743505	0.003849
750.940030	0.003832
751.136536	0.003606
751.333025	0.003752
751.529495	0.003967
751.725947	0.004035
751.922381	0.004170
752.118796	0.004025
752.315194	0.004119
752.511573	0.004274
752.707934	0.004255
752.904276	0.004541
753.100601	0.004652
753.296907	0.004465
753.493195	0.004490
753.689465	0.004596
753.885716	0.004881
754.081949	0.005085
754.278164	0.005096
754.474361	0.005413
754.670540	0.005452
754.866700	0.005226
755.062843	0.005546
755.258967	0.005596
755.455072	0.005593
755.651160	0.005650
755.847229	0.005585
756.043280	0.005637
756.239313	0.005655
756.435328	0.005637
756.631324	0.005744
756.827302	0.005636
757.023262	0.005795
757.219204	0.005714
757.415127	0.005573
757.611033	0.005687
757.806920	0.005461
758.002788	0.005291
758.198639	0.005254
758.394471	0.005285
758.590286	0.005396
758.786081	0.005313
758.981859	0.005256
759.177619	0.005168
759.373360	0.005205
759.569083	0.005376
759.764788	0.005561
759.960474	0.005517
760.156143	0.005624
760.351793	0.005609
760.547425	0.005543
760.743038	0.005570
760.938634	0.005796
761.134211	0.005693
761.329770	0.005828
761.525311	0.005614
761.720833	0.005708
761.916338	0.005808
762.111824	0.005696
762.307292	0.005910
762.502741	0.005968
762.698173	0.006106
762.893586	0.005944
763.088981	0.005798
763.284358	0.005823
763.479716	0.005840
763.675057	0.005548
763.870379	0.005617
764.065683	0.005421
764.260968	0.005544
764.456236	0.005559
764.651485	0.005704
764.846716	0.005737
765.041929	0.006000
765.237123	0.005961
765.432299	0.006137
765.627457	0.006000
765.822597	0.006123
766.017719	0.005959
766.212822	0.005591
766.407907	0.005536
766.602974	0.005587
766.798023	0.005518
766.993054	0.005423
767.188066	0.005346
767.383060	0.005324
767.578036	0.005445
767.772993	0.005528
767.967933	0.005555
768.162854	0.005590
768.357757	0.005576
768.552642	0.005487
768.747508	0.005447
768.942356	0.005424
769.137186	0.005384
769.331998	0.005249
769.526792	0.005316
769.721567	0.005324
769.916324	0.005259
770.111063	0.005265
770.305784	0.005190
770.500486	0.005218
770.695171	0.005176
770.889837	0.005327
771.084484	0.005429
771.279114	0.005346
771.473725	0.005522
771.668318	0.005741
771.862893	0.005739
772.057450	0.005924
772.251988	0.006015
772.446509	0.005982
772.641011	0.005910
772.835494	0.005700
773.029960	0.005564
773.224407	0.005446
773.418836	0.005223
773.613247	0.004996
773.807640	0.004808
774.002014	0.004607
774.196370	0.004888
774.390708	0.004792
774.585028	0.004731
774.779330	0.004937
774.973613	0.004976
775.167878	0.005064
775.362125	0.005138
775.556354	0.005101
775.750564	0.005353
775.944756	0.005029
776.138930	0.005105
776.333086	0.005428
776.527223	0.005355
776.721343	0.005388
776.915444	0.005188
777.109526	0.005406
777.303591	0.005421
777.497637	0.005590
777.691666	0.005977
777.885676	0.006101
778.079667	0.006045
778.273641	0.006169
778.467596	0.005987
778.661533	0.006296
778.855452	0.006034
779.049352	0.006246
779.243235	0.006060
779.437099	0.006012
779.630945	0.006070
779.824773	0.006020
780.018582	0.005875
780.212373	0.005981
780.406146	0.006026
780.599901	0.006325
780.793638	0.006339
780.987356	0.006443
781.181056	0.006318
781.374738	0.006331
781.568402	0.006465
781.762047	0.006608
781.955674	0.006496
782.149283	0.006448
782.342874	0.006279
782.536447	0.006188
782.730001	0.006217
782.923537	0.006257
783.117055	0.006332
783.310555	0.006155
783.504036	0.006111
783.697499	0.006285
783.890944	0.006329
784.084371	0.006315
784.277780	0.006365
784.471170	0.006209
784.664542	0.006149
784.857896	0.006088
785.051231	0.006225
785.244549	0.006161
785.437848	0.006157
785.631129	0.006048
785.824392	0.006049
786.017636	0.006031
786.210863	0.006104
786.404071	0.006093
786.597260	0.006030
786.790432	0.006094
786.983585	0.006408
787.176721	0.006616
787.369838	0.006631
787.562936	0.006769
787.756017	0.006879
787.949079	0.006993
788.142123	0.007185
788.335149	0.007222
788.528156	0.007182
788.721146	0.006969
788.914117	0.006888
789.107070	0.006950
789.300005	0.006973
789.492921	0.006966
789.685819	0.006939
789.878699	0.006784
790.071561	0.006909
790.264405	0.006891
790.457230	0.007120
790.650037	0.007075
790.842826	0.007086
791.035597	0.007039
791.228349	0.006972
791.421084	0.006878
791.613800	0.006805
791.806497	0.006680
791.999177	0.006803
792.191838	0.006858
792.384481	0.007092
792.577106	0.006971
792.769713	0.007109
792.962301	0.007091
793.154871	0.007009
793.347423	0.007161
793.539957	0.007173
793.732473	0.006942
793.924970	0.006588
794.117449	0.006247
794.309910	0.006321
794.502353	0.006267
794.694777	0.006238
794.887183	0.006346
795.079571	0.006266
795.271941	0.006265
795.464293	0.006401
795.656626	0.006555
795.848941	0.006838
796.041238	0.006875
796.233516	0.006864
796.425777	0.007054
796.618019	0.006992
796.810243	0.007026
797.002449	0.007071
797.194636	0.006907
797.386805	0.006756
797.578956	0.006699
797.771089	0.006797
797.963204	0.006788
798.155300	0.006741
798.347378	0.006852
798.539438	0.006986
798.731480	0.007059
798.923503	0.007373
799.115509	0.007475
799.307496	0.007602
799.499465	0.007462
799.691415	0.007276
799.883348	0.007057
800.075262	0.006984
800.267158	0.006877
800.459035	0.006810
800.650895	0.006478
800.842736	0.006485
801.034559	0.006362
801.226364	0.006316
801.418150	0.006449
801.609919	0.006603
801.801669	0.006945
801.993401	0.007120
802.185114	0.007226
802.376810	0.007350
802.568487	0.007634
802.760146	0.007782
802.951787	0.008140
803.143409	0.008160
803.335014	0.008149
803.526600	0.007680
803.718168	0.007408
803.909717	0.007208
804.101249	0.007270
804.292762	0.006954
804.484257	0.006635
804.675734	0.006312
804.867192	0.006342
805.058632	0.006426
805.250054	0.006706
805.441458	0.006909
805.632844	0.007119
805.824211	0.007149
806.015561	0.007020
806.206891	0.007128
806.398204	0.007172
806.589499	0.007124
806.780775	0.006987
806.972033	0.006928
807.163273	0.006801
807.354495	0.006782
807.545698	0.007009
807.736883	0.007165
807.928050	0.007255
808.119199	0.007285
808.310329	0.007406
808.501441	0.007639
808.692535	0.007592
808.883611	0.007689
809.074669	0.007613
809.265708	0.007288
809.456729	0.007344
809.647732	0.007249
809.838717	0.007288
810.029683	0.007243
810.220632	0.007127
810.411562	0.007373
810.602474	0.007559
810.793367	0.007730
810.984242	0.007805
811.175100	0.007845
811.365938	0.007936
811.556759	0.008045
811.747562	0.008173
811.938346	0.008208
812.129112	0.007952
812.319860	0.007810
812.510589	0.007733
812.701300	0.008021
812.891994	0.008134
813.082668	0.008250
813.273325	0.008344
813.463964	0.008275
813.654584	0.008334
813.845186	0.008465
814.035769	0.008668
814.226335	0.008828
814.416882	0.008548
814.607411	0.008521
814.797922	0.008413
814.988415	0.008380
815.178889	0.008316
815.369345	0.008336
815.559783	0.008324
815.750203	0.008309
815.940605	0.008092
816.130988	0.008154
816.321353	0.007934
816.511700	0.007996
816.702028	0.007966
816.892339	0.007812
817.082631	0.007612
817.272905	0.007440
817.463161	0.007218
817.653398	0.007050
817.843617	0.006958
818.033819	0.006840
818.224001	0.006782
818.414166	0.006678
818.604312	0.006980
818.794440	0.006948
818.984550	0.007016
819.174642	0.007094
819.364716	0.007003
819.554771	0.007044
819.744808	0.007264
819.934827	0.007082
820.124827	0.006972
820.314810	0.006650
820.504774	0.006869
820.694720	0.006932
820.884647	0.006651
821.074557	0.006683
821.264448	0.006562
821.454321	0.006304
821.644176	0.006262
821.834012	0.006053
822.023831	0.006033
822.213631	0.005738
822.403413	0.005668
822.593176	0.005604
822.782922	0.005620
822.972649	0.005720
823.162358	0.005843
823.352049	0.005763
823.541721	0.006098
823.731376	0.006105
823.921012	0.006071
824.110629	0.006002
824.300229	0.006026
824.489811	0.005945
824.679374	0.005818
824.868919	0.005698
825.058445	0.005843
825.247954	0.005497
825.437444	0.005463
825.626916	0.005678
825.816370	0.005685
826.005806	0.005856
826.195223	0.005910
826.384622	0.005910
826.574003	0.005930
826.763366	0.005913
826.952711	0.006081
827.142037	0.006248
827.331345	0.005978
827.520635	0.005826
827.709906	0.005672
827.899160	0.005666
828.088395	0.005392
828.277612	0.005333
828.466810	0.005210
828.655991	0.005096
828.845153	0.004918
829.034297	0.004986
829.223423	0.004973
829.412531	0.004887
829.601620	0.004910
829.790691	0.004891
829.979744	0.004969
830.168779	0.004757
830.357795	0.004625
830.546793	0.004655
830.735773	0.004503
830.924735	0.004486
831.113679	0.004566
831.302604	0.004359
831.491511	0.004665
831.680400	0.004480
831.869271	0.004733
832.058123	0.004772
832.246957	0.004712
832.435773	0.004677
832.624571	0.004695
832.813351	0.004461
833.002112	0.004578
833.190855	0.004491
833.379580	0.004512
833.568287	0.004380
833.756975	0.004566
833.945645	0.004518
834.134297	0.004516
834.322931	0.004585
834.511547	0.004605
834.700144	0.004449
834.888723	0.004228
835.077284	0.004415
835.265826	0.004733
835.454351	0.004514
835.642857	0.004591
835.831345	0.004650
836.019815	0.004639
836.208266	0.004876
836.396699	0.004924
836.585114	0.004895
836.773511	0.004753
836.961890	0.004387
837.150250	0.004424
837.338592	0.004468
837.526916	0.004722
837.715222	0.004608
837.903510	0.004482
838.091779	0.004615
838.280030	0.004825
838.468263	0.005092
838.656477	0.005480
838.844674	0.005659
839.032852	0.005582
839.221012	0.005812
839.409153	0.006104
839.597277	0.006259
839.785382	0.006478
839.973469	0.006546
840.161538	0.006483
840.349589	0.006580
840.537621	0.006814
840.725635	0.006849
840.913631	0.006456
841.101609	0.006334
841.289568	0.006412
841.477509	0.006324
841.665432	0.006407
841.853337	0.006368
842.041224	0.006139
842.229092	0.005831
842.416942	0.005907
842.604774	0.006135
842.792588	0.006108
842.980383	0.006194
843.168160	0.006266
843.355919	0.006385
843.543660	0.006396
843.731382	0.006474
843.919087	0.006527
844.106773	0.006456
844.294441	0.006515
844.482090	0.006531
844.669722	0.006365
844.857335	0.006108
845.044930	0.005813
845.232507	0.005761
845.420065	0.005677
845.607605	0.005704
845.795127	0.005754
845.982631	0.005568
846.170117	0.005635
846.357584	0.005530
846.545033	0.005547
846.732464	0.005920
846.919877	0.005942
847.107272	0.005689
847.294648	0.005674
847.482006	0.005730
847.669346	0.005733
847.856667	0.005494
848.043971	0.005557
848.231256	0.005710
848.418523	0.005544
848.605771	0.005230
848.793002	0.005414
848.980214	0.005474
849.167408	0.005509
849.354584	0.005456
849.541742	0.005452
849.728881	0.005610
849.916002	0.005297
850.103105	0.005074
850.290190	0.005562
850.477256	0.005377
850.664304	0.005120
850.851334	0.004699
851.038346	0.004541
851.225340	0.004460
851.412315	0.004011
851.599272	0.004072
851.786211	0.003987
851.973132	0.003497
852.160034	0.003645
852.346918	0.003608
852.533784	0.003675
852.720632	0.003610
852.907462	0.003626
853.094273	0.003942
853.281066	0.004001
853.467841	0.004019
853.654598	0.004291
853.841336	0.004265
854.028056	0.004576
854.214758	0.004694
854.401442	0.004651
854.588107	0.004775
854.774755	0.004809
854.961384	0.004873
855.147995	0.005101
855.334587	0.004895
855.521162	0.004723
855.707718	0.004765
855.894256	0.004783
856.080775	0.005081
856.267277	0.005100
856.453760	0.005178
856.640225	0.005137
856.826672	0.004940
857.013101	0.005020
857.199511	0.005087
857.385903	0.004973
857.572277	0.004946
857.758633	0.004778
857.944970	0.004711
858.131290	0.004405
858.317591	0.004273
858.503873	0.004153
858.690138	0.004195
858.876384	0.004291
859.062612	0.004242
859.248822	0.004312
859.435014	0.004477
859.621188	0.004711
859.807343	0.004893
859.993480	0.005228
860.179599	0.005564
860.365699	0.005655
860.551781	0.005730
860.737846	0.005741
860.923891	0.005876
861.109919	0.005981
861.295929	0.006065
861.481920	0.006173
861.667893	0.006188
861.853848	0.006188
862.039784	0.006316
862.225702	0.006414
862.411603	0.006695
862.597484	0.006703
862.783348	0.006409
862.969193	0.006356
863.155021	0.006212
863.340830	0.006204
863.526620	0.006184
863.712393	0.006020
863.898147	0.005980
864.083883	0.005587
864.269601	0.005932
864.455301	0.005791
864.640982	0.005482
864.826645	0.005521
865.012290	0.005156
865.197917	0.004818
865.383526	0.004618
865.569116	0.004127
865.754688	0.003960
865.940242	0.003314
866.125777	0.003558
866.311295	0.003538
866.496794	0.003474
866.682275	0.003429
866.867737	0.003645
867.053182	0.003984
867.238608	0.004392
867.424016	0.004355
867.609406	0.004839
867.794778	0.004682
867.980131	0.004935
868.165466	0.005063
868.350783	0.005411
868.536082	0.005335
868.721362	0.005196
868.906625	0.005501
869.091869	0.005811
869.277094	0.005438
869.462302	0.005635
869.647491	0.005412
869.832662	0.005483
870.017815	0.005432
870.202950	0.005465
870.388066	0.005651
870.573165	0.005559
870.758245	0.005463
870.943306	0.005424
871.128350	0.005437
871.313375	0.005569
871.498382	0.005509
871.683371	0.005322
871.868342	0.005285
872.053294	0.005227
872.238229	0.004932
872.423144	0.005010
872.608042	0.005020
872.792922	0.005068
872.977783	0.004871
873.162626	0.004578
873.347451	0.004789
873.532258	0.004988
873.717046	0.004534
873.901816	0.004643
874.086568	0.004865
874.271302	0.004940
874.456017	0.004850
874.640715	0.005052
874.825394	0.005170
875.010055	0.005088
875.194697	0.005146
875.379322	0.005473
875.563928	0.005514
875.748516	0.005390
875.933085	0.005318
876.117637	0.005334
876.302170	0.005258
876.486685	0.005207
876.671182	0.005329
876.855661	0.005472
877.040121	0.005842
877.224563	0.005807
877.408987	0.005815
877.593393	0.005926
877.777780	0.005863
877.962150	0.005977
878.146501	0.006160
878.330833	0.006133
878.515148	0.005750
878.699444	0.005458
878.883722	0.005413
879.067982	0.005414
879.252224	0.005534
879.436447	0.005599
879.620653	0.005358
879.804840	0.005205
879.989008	0.005062
880.173159	0.005186
880.357291	0.005110
880.541405	0.005031
880.725501	0.005060
880.909579	0.004973
881.093638	0.004757
881.277680	0.004845
881.461703	0.004999
881.645707	0.004981
881.829694	0.005007
882.013662	0.005059
882.197612	0.005160
882.381544	0.005358
882.565458	0.005015
882.749353	0.005619
882.933230	0.005457
883.117089	0.005454
883.300930	0.005453
883.484753	0.005390
883.668557	0.005422
883.852343	0.005253
884.036111	0.004840
884.219861	0.004735
884.403592	0.004309
884.587305	0.004544
884.771000	0.004564
884.954677	0.004595
885.138335	0.004548
885.321976	0.004486
885.505598	0.004448
885.689201	0.004413
885.872787	0.004898
886.056354	0.004812
886.239904	0.004760
886.423434	0.004544
886.606947	0.004438
886.790442	0.004344
886.973918	0.004306
887.157376	0.004268
887.340816	0.004291
887.524237	0.004284
887.707641	0.004105
887.891026	0.004113
888.074393	0.004209
888.257741	0.004374
888.441072	0.004318
888.624384	0.004073
888.807678	0.004078
888.990954	0.003728
889.174211	0.003610
889.357451	0.003674
889.540672	0.003802
889.723875	0.003959
889.907059	0.003972
890.090226	0.003911
890.273374	0.004017
890.456504	0.004076
890.639616	0.004429
890.822709	0.004222
891.005785	0.004412
891.188842	0.004257
891.371881	0.003830
891.554901	0.003801
891.737904	0.003867
891.920888	0.004176
892.103854	0.004424
892.286802	0.004382
892.469731	0.004676
892.652643	0.004862
892.835536	0.005246
893.018410	0.005835
893.201267	0.005973
893.384106	0.006125
893.566926	0.006094
893.749728	0.006315
893.932511	0.006444
894.115277	0.006506
894.298024	0.006370
894.480753	0.005943
894.663464	0.005707
894.846157	0.005583
895.028831	0.005618
895.211487	0.005422
895.394125	0.004748
895.576745	0.005090
895.759346	0.004796
895.941930	0.004726
896.124495	0.004802
896.307041	0.004657
896.489570	0.004767
896.672080	0.004540
896.854573	0.004505
897.037046	0.004684
897.219502	0.004220
897.401940	0.004422
897.584359	0.004360
897.766760	0.004203
897.949143	0.004112
898.131507	0.003787
898.313854	0.003973
898.496182	0.003911
898.678492	0.003931
898.860783	0.003811
899.043057	0.003695
899.225312	0.003835
899.407549	0.003955
899.589768	0.003924
899.771968	0.004242
899.954151	0.004197
900.136315	0.004341
900.318461	0.004728
900.500588	0.005238
900.682698	0.005318
900.864789	0.005459
901.046862	0.005612
901.228917	0.005956
901.410953	0.005545
901.592971	0.005413
901.774972	0.005462
901.956953	0.005236
902.138917	0.004955
902.320862	0.004573
902.502790	0.004455
902.684699	0.004584
902.866589	0.004477
903.048462	0.005004
903.230316	0.004966
903.412152	0.004695
903.593970	0.004335
903.775770	0.004216
903.957551	0.004554
904.139314	0.004498
904.321059	0.004263
904.502786	0.004135
904.684494	0.003844
904.866185	0.004087
905.047857	0.004473
905.229510	0.004699
905.411146	0.004754
905.592763	0.004577
905.774363	0.004645
905.955943	0.004286
906.137506	0.004687
906.319051	0.004575
906.500577	0.004377
906.682085	0.004417
906.863575	0.004482
907.045046	0.004566
907.226500	0.005048
907.407935	0.004768
907.589352	0.005581
907.770750	0.005642
907.952131	0.005669
908.133493	0.005791
908.314837	0.005736
908.496163	0.006004
908.677470	0.006318
908.858760	0.005907
909.040031	0.006009
909.221284	0.005826
909.402518	0.005305
909.583735	0.005602
909.764933	0.005614
909.946113	0.005659
910.127275	0.005052
910.308418	0.004488
910.489544	0.004398
910.670651	0.004552
910.851740	0.003801
911.032810	0.003870
911.213863	0.003564
911.394897	0.003290
911.575913	0.002939
911.756911	0.003156
911.937890	0.002943
912.118851	0.002903
912.299794	0.002258
912.480719	0.002749
912.661626	0.002527
912.842514	0.002534
913.023384	0.002388
913.204236	0.002446
913.385070	0.002440
913.565886	0.002846
913.746683	0.002593
913.927462	0.002825
914.108223	0.002806
914.288965	0.002802
914.469690	0.002786
914.650396	0.002931
914.831084	0.002660
915.011754	0.002668
915.192405	0.002520
915.373038	0.002740
915.553653	0.002591
915.734250	0.002249
915.914829	0.002222
916.095389	0.002062
916.275931	0.001789
916.456455	0.001685
916.636961	0.001383
916.817448	0.001210
916.997917	0.000842
917.178368	0.000777
917.358801	0.000620
917.539216	0.000944
917.719612	0.000476
917.899990	0.000533
918.080350	0.000584
918.260692	0.000785
918.441015	0.000561
918.621320	0.000982
918.801607	0.001153
918.981876	0.001362
919.162127	0.000765
919.342359	0.001035
919.522573	0.000950
919.702769	0.000612
919.882947	0.000241
920.063106	0.000420
920.243247	0.000404
920.423370	0.000613
920.603475	0.000717
920.783562	0.000921
920.963630	0.000646
921.143680	0.001045
921.323712	0.001219
921.503725	0.001183
921.683721	0.001060
921.863698	0.001179
922.043657	0.000839
922.223598	0.000980
922.403520	0.000413
922.583424	0.000424
922.763311	0.000130
922.943178	0.000230
923.123028	0.000305
923.302859	0.000239
923.482673	-0.000325
923.662467	-0.000234
923.842244	-0.000796
924.022003	-0.000625
924.201743	-0.000558
924.381465	-0.000947
924.561169	-0.001138
924.740854	-0.001401
924.920522	-0.001985
925.100171	-0.002131
925.279802	-0.002681
925.459414	-0.003057
925.639009	-0.003362
925.818585	-0.003462
925.998143	-0.003431
926.177683	-0.003168
926.357205	-0.003228
926.536708	-0.003632
926.716193	-0.004184
926.895660	-0.004193
927.075109	-0.003869
927.254539	-0.003639
927.433951	-0.003964
927.613345	-0.004406
927.792721	-0.005036
927.972079	-0.005421
928.151418	-0.004486
928.330739	-0.004130
928.510042	-0.004254
928.689327	-0.004860
928.868593	-0.005352
929.047841	-0.005566
929.227071	-0.005212
929.406283	-0.005580
929.585476	-0.005811
929.764652	-0.006372
929.943809	-0.006908
930.122948	-0.007495
930.302068	-0.007712
930.481171	-0.007580
930.660255	-0.007333
930.839321	-0.007721
931.018369	-0.007183
931.197398	-0.006884
931.376409	-0.006920
931.555402	-0.006543
931.734377	-0.006038
931.913334	-0.005793
932.092272	-0.005868
932.271192	-0.006321
932.450094	-0.006187
932.628978	-0.006760
932.807844	-0.006937
932.986691	-0.007284
933.165520	-0.007660
933.344331	-0.007794
933.523123	-0.007928
933.701898	-0.007883
933.880654	-0.008264
934.059392	-0.008264
934.238111	-0.007969
934.416813	-0.008137
934.595496	-0.007654
934.774161	-0.007682
934.952808	-0.007738
935.131437	-0.007899
935.310047	-0.007772
935.488639	-0.007697
935.667213	-0.007756
935.845769	-0.007975
936.024306	-0.008014
936.202825	-0.008574
936.381326	-0.008174
936.559809	-0.008462
936.738274	-0.009195
936.916720	-0.010270
937.095148	-0.010062
937.273558	-0.010500
937.451950	-0.011358
937.630323	-0.011264
937.808678	-0.011747
937.987015	-0.012507
938.165334	-0.013392
938.343635	-0.013112
938.521917	-0.013132
938.700181	-0.013450
938.878427	-0.013839
939.056655	-0.013779
939.234864	-0.014252
939.413055	-0.013721
939.591228	-0.014560
939.769383	-0.014397
939.947519	-0.014009
940.125638	-0.013812
940.303738	-0.013705
940.481820	-0.013603
940.659883	-0.013686
940.837929	-0.013577
941.015956	-0.014115
941.193965	-0.012983
941.371955	-0.011874
941.549928	-0.012094
941.727882	-0.012783
941.905818	-0.012964
942.083736	-0.013764
942.261636	-0.014487
942.439517	-0.015123
942.617380	-0.015805
942.795225	-0.016288
942.973052	-0.018216
943.150860	-0.019406
943.328651	-0.019077
943.506423	-0.019264
943.684176	-0.018926
943.861912	-0.019013
944.039629	-0.018146
944.217328	-0.018122
944.395009	-0.018043
944.572672	-0.017454
944.750317	-0.017801
944.927943	-0.017269
945.105551	-0.017797
945.283141	-0.017705
945.460712	-0.016361
945.638265	-0.017081
945.815801	-0.016441
945.993317	-0.016664
946.170816	-0.016353
946.348297	-0.016434
946.525759	-0.016777
946.703203	-0.015981
946.880629	-0.016771
947.058036	-0.016409
947.235425	-0.016842
947.412797	-0.016470
947.590149	-0.017197
947.767484	-0.017054
947.944800	-0.016914
948.122099	-0.018389
948.299379	-0.019449
948.476640	-0.019817
948.653884	-0.021473
948.831109	-0.020704
949.008316	-0.021915
949.185505	-0.020292
949.362676	-0.020135
949.539828	-0.018912
949.716962	-0.017182
949.894078	-0.016815
950.071176	-0.016092
950.248256	-0.014856
950.425317	-0.015371
950.602360	-0.015349
950.779385	-0.017218
950.956391	-0.017841
951.133380	-0.018875
951.310350	-0.018792
951.487302	-0.017658
951.664235	-0.016310
951.841151	-0.017243
952.018048	-0.017314
952.194927	-0.015770
952.371788	-0.014394
952.548631	-0.013458
952.725455	-0.011316
952.902261	-0.011526
953.079049	-0.011398
953.255819	-0.012099
953.432570	-0.012446
953.609303	-0.012363
953.786018	-0.012187
953.962715	-0.013096
954.139394	-0.014230
954.316054	-0.014118
954.492696	-0.013454
954.669320	-0.013617
954.845926	-0.013292
955.022513	-0.012344
955.199083	-0.010601
955.375634	-0.010771
955.552166	-0.009324
955.728681	-0.008573
955.905177	-0.008622
956.081655	-0.009555
956.258115	-0.009640
956.434557	-0.008690
956.610980	-0.008437
956.787385	-0.008410
956.963772	-0.009614
957.140141	-0.011273
957.316492	-0.009366
957.492824	-0.011105
957.669138	-0.008655
957.845434	-0.006884
958.021712	-0.007229
958.197971	-0.006003
958.374212	-0.005878
958.550435	-0.003589
958.726640	-0.001631
958.902826	-0.001535
959.078995	0.001985
959.255145	0.001335
959.431277	0.001147
959.607390	0.002030
959.783486	0.002173
959.959563	0.003283
960.135622	0.003446
960.311662	0.003598
960.487685	0.004896
960.663689	0.004638
960.839675	0.004785
961.015643	0.006423
961.191593	0.007062
961.367524	0.005711
961.543437	0.004490
961.719332	0.005420
961.895209	0.005843
962.071067	0.003601
962.246907	0.001734
962.422730	0.003081
962.598533	0.000816
962.774319	0.001717
962.950086	0.002699
963.125835	0.004090
963.301566	0.002917
963.477279	0.002453
963.652973	0.003898
963.828650	0.005639
964.004308	0.004521
964.179947	0.004806
964.355569	0.006321
964.531172	0.007037
964.706757	0.005340
964.882324	0.006822
965.057873	0.008806
965.233403	0.011180
965.408916	0.010360
965.584410	0.011832
965.759885	0.011612
965.935343	0.010758
966.110782	0.012078
966.286203	0.014938
966.461606	0.014101
966.636991	0.015078
966.812357	0.011204
966.987705	0.012079
967.163035	0.012407
967.338347	0.014405
967.513641	0.015581
967.688916	0.014729
967.864173	0.013307
968.039412	0.014955
968.214632	0.013479
968.389835	0.015530
968.565019	0.014331
968.740185	0.014144
968.915333	0.010989
969.090462	0.011204
969.265573	0.010885
969.440667	0.009867
969.615741	0.008393
969.790798	0.008493
969.965836	0.009473
970.140856	0.011390
970.315858	0.010683
970.490842	0.013049
970.665808	0.010384
970.840755	0.010912
971.015684	0.011319
971.190595	0.011909
971.365487	0.012736
971.540362	0.009607
971.715218	0.009261
971.890056	0.011088
972.064875	0.011275
972.239677	0.011857
972.414460	0.010329
972.589225	0.012134
972.763972	0.010013
972.938700	0.008915
973.113411	0.010619
973.288103	0.009767
973.462777	0.007530
973.637432	0.008495
973.812070	0.008909
973.986689	0.012408
974.161290	0.012341
974.335873	0.014078
974.510437	0.013417
974.684984	0.013425
974.859512	0.015285
975.034022	0.015209
975.208513	0.013508
975.382987	0.012869
975.557442	0.012421
975.731879	0.012924
975.906298	0.012678
976.080698	0.013550
976.255080	0.015426
976.429445	0.013389
976.603790	0.013910
976.778118	0.016675
976.952427	0.016822
977.126719	0.014834
977.300992	0.013813
977.475246	0.013438
977.649483	0.014800
977.823701	0.014625
977.997901	0.015388
978.172083	0.015335
978.346247	0.014850
978.520392	0.016922
978.694519	0.015981
978.868628	0.017851
979.042719	0.020357
979.216791	0.019491
979.390845	0.017742
979.564882	0.018239
979.738899	0.018838
979.912899	0.018999
980.086880	0.017805
980.260843	0.020444
980.434788	0.016458
980.608715	0.014024
980.782623	0.014394
980.956514	0.014648
981.130386	0.012706
981.304240	0.010661
981.478075	0.009911
981.651892	0.009769
981.825692	0.008927
981.999472	0.010364
982.173235	0.011711
982.346980	0.011718
982.520706	0.013173
982.694414	0.015121
982.868104	0.016068
983.041775	0.015899
983.215428	0.015053
983.389064	0.016457
983.562680	0.016600
983.736279	0.017751
983.909860	0.014944
984.083422	0.013491
984.256966	0.013395
984.430491	0.013912
984.603999	0.014559
984.777488	0.014276
984.950959	0.012826
985.124412	0.012267
985.297847	0.010656
985.471263	0.013937
985.644661	0.013908
985.818041	0.014122
985.991403	0.014499
986.164747	0.014475
986.338072	0.014893
986.511379	0.013964
986.684668	0.015217
986.857938	0.013867
987.031191	0.013418
987.204425	0.014364
987.377641	0.014881
987.550839	0.015939
987.724018	0.014951
987.897179	0.017224
988.070322	0.019652
988.243447	0.019053
988.416554	0.020672
988.589642	0.020588
988.762712	0.018720
988.935764	0.017753
989.108798	0.018099
989.281813	0.018385
989.454811	0.014857
989.627790	0.012461
989.800751	0.011585
989.973693	0.011332
990.146617	0.011676
990.319524	0.013250
990.492412	0.012933
990.665281	0.011715
990.838133	0.011430
991.010966	0.012801
991.183781	0.012620
991.356578	0.014253
991.529356	0.014329
991.702117	0.012201
991.874859	0.012682
992.047583	0.013769
992.220288	0.014147
992.392976	0.014810
992.565645	0.015646
992.738296	0.016664
992.910929	0.016707
993.083543	0.017017
993.256139	0.017386
993.428718	0.017844
993.601277	0.016144
993.773819	0.016751
993.946342	0.016371
994.118848	0.016295
994.291335	0.016856
994.463803	0.016276
994.636254	0.016013
994.808686	0.015269
994.981100	0.013214
995.153496	0.013994
995.325874	0.012345
995.498233	0.011961
995.670574	0.010831
995.842897	0.008066
996.015202	0.010068
996.187488	0.009934
996.359757	0.012268
996.532007	0.012258
996.704239	0.014238
996.876452	0.014161
997.048648	0.014712
997.220825	0.016432
997.392984	0.018765
997.565124	0.016901
997.737247	0.016011
997.909351	0.016650
998.081437	0.017129
998.253505	0.015416
998.425554	0.015416
998.597586	0.015678
998.769599	0.014825
998.941594	0.015670
999.113571	0.016903
999.285529	0.017095
999.457469	0.016428
999.629391	0.017347
999.801295	0.017507
999.973181	0.017798
1000.145048	0.017392
1000.316897	0.018429
1000.488728	0.018251
1000.660541	0.016071
1000.832335	0.018505
1001.004111	0.019326
1001.175869	0.017711
1001.347609	0.018328
1001.519331	0.017217
1001.691034	0.016389
1001.862719	0.015837
1002.034386	0.015585
1002.206035	0.017711
1002.377665	0.015588
1002.549277	0.013590
1002.720871	0.014459
1002.892447	0.012997
1003.064004	0.015163
1003.235544	0.015917
1003.407065	0.014494
1003.578568	0.014738
1003.750052	0.015119
1003.921519	0.015335
1004.092967	0.015483
1004.264397	0.017119
1004.435809	0.017573
1004.607202	0.018422
1004.778577	0.016804
1004.949934	0.018022
1005.121273	0.016556
1005.292594	0.014994
1005.463896	0.015300
1005.635180	0.016585
1005.806446	0.015283
1005.977694	0.015816
1006.148923	0.013956
1006.320135	0.014955
1006.491328	0.012801
1006.662503	0.013018
1006.833659	0.012579
1007.004798	0.013064
1007.175918	0.013030
1007.347020	0.013440
1007.518103	0.012875
1007.689169	0.013957
1007.860216	0.013543
1008.031245	0.015174
1008.202256	0.015032
1008.373248	0.016149
1008.544223	0.016136
1008.715179	0.014192
1008.886117	0.012492
1009.057036	0.012563
1009.227938	0.010526
1009.398821	0.010893
1009.569686	0.010312
1009.740533	0.010639
1009.911361	0.010527
1010.082172	0.009965
1010.252964	0.012153
1010.423738	0.011994
1010.594493	0.012994
1010.765231	0.014256
1010.935950	0.014921
1011.106651	0.016410
1011.277334	0.016759
1011.447998	0.016697
1011.618645	0.017389
1011.789273	0.017051
1011.959882	0.018690
1012.130474	0.019806
1012.301048	0.019188
1012.471603	0.020015
1012.642140	0.019830
1012.812658	0.019307
1012.983159	0.017983
1013.153641	0.016786
1013.324105	0.015765
1013.494551	0.016084
1013.664979	0.014640
1013.835388	0.014143
1014.005779	0.014218
1014.176152	0.013722
1014.346507	0.014111
1014.516843	0.014570
1014.687162	0.014959
1014.857462	0.015438
1015.027744	0.014477
1015.198007	0.013846
1015.368252	0.015372
1015.538480	0.014212
1015.708689	0.014199
1015.878879	0.015861
1016.049052	0.015841
1016.219206	0.015552
1016.389342	0.015824
1016.559460	0.017042
1016.729559	0.018566
1016.899641	0.018601
1017.069704	0.018424
1017.239749	0.018192
1017.409775	0.016608
1017.579784	0.017199
1017.749774	0.017226
1017.919746	0.017233
1018.089700	0.015955
1018.259635	0.015114
1018.429553	0.014800
1018.599452	0.014139
1018.769333	0.015286
1018.939195	0.014802
1019.109040	0.014271
1019.278866	0.015671
1019.448674	0.013657
1019.618464	0.013838
1019.788235	0.013043
1019.957989	0.012154
1020.127724	0.012619
1020.297441	0.012270
1020.467139	0.013382
1020.636820	0.015124
1020.806482	0.015160
1020.976126	0.015577
1021.145752	0.015684
1021.315359	0.016408
1021.484948	0.016069
1021.654519	0.015264
1021.824072	0.013837
1021.993607	0.011992
1022.163123	0.011855
1022.332621	0.010187
1022.502101	0.012440
1022.671563	0.013622
1022.841007	0.014052
1023.010432	0.015931
1023.179839	0.016547
1023.349228	0.016964
1023.518598	0.019742
1023.687951	0.017505
1023.857285	0.018974
1024.026601	0.018567
1024.195899	0.017964
1024.365178	0.016523
1024.534439	0.014725
1024.703682	0.015598
1024.872907	0.016145
1025.042114	0.016075
1025.211302	0.017229
1025.380472	0.016716
1025.549624	0.015235
1025.718758	0.013840
1025.887873	0.014120
1026.056970	0.016034
1026.226049	0.015554
1026.395110	0.014452
1026.564153	0.012310
1026.733177	0.011512
1026.902183	0.011357
1027.071171	0.012601
1027.240141	0.014283
1027.409092	0.013897
1027.578026	0.012459
1027.746940	0.011669
1027.915837	0.012547
1028.084716	0.014401
1028.253576	0.016200
1028.422418	0.015735
1028.591242	0.013162
1028.760048	0.012043
1028.928835	0.010788
1029.097604	0.011322
1029.266355	0.012871
1029.435088	0.013255
1029.603803	0.012556
1029.772499	0.011715
1029.941177	0.010911
1030.109837	0.012296
1030.278478	0.013930
1030.447102	0.017006
1030.615707	0.017286
1030.784294	0.018173
1030.952863	0.019715
1031.121413	0.018330
1031.289945	0.017707
1031.458460	0.019169
1031.626955	0.019982
1031.795433	0.017541
1031.963892	0.015265
1032.132334	0.014147
1032.300756	0.013853
1032.469161	0.011882
1032.637548	0.012360
1032.805916	0.011159
1032.974266	0.011851
1033.142598	0.012665
1033.310911	0.014196
1033.479207	0.014593
1033.647484	0.014380
1033.815743	0.012442
1033.983983	0.012906
1034.152206	0.014374
1034.320410	0.016218
1034.488596	0.015494
1034.656764	0.016244
1034.824914	0.016271
1034.993045	0.016026
1035.161158	0.017166
1035.329253	0.017889
1035.497330	0.019355
1035.665388	0.019300
1035.833428	0.020704
1036.001450	0.021865
1036.169454	0.021050
1036.337440	0.021868
1036.505407	0.023138
1036.673356	0.022932
1036.841287	0.023420
1037.009200	0.021693
1037.177094	0.020470
1037.344970	0.019437
1037.512828	0.017096
1037.680668	0.015800
1037.848489	0.015192
1038.016293	0.017030
1038.184078	0.017514
1038.351845	0.017664
1038.519593	0.018137
1038.687324	0.017386
1038.855036	0.016808
1039.022730	0.015383
1039.190406	0.014866
1039.358063	0.014469
1039.525702	0.013100
1039.693323	0.014061
1039.860926	0.013586
1040.028511	0.013587
1040.196077	0.015214
1040.363625	0.015976
1040.531155	0.017584
1040.698667	0.019306
1040.866161	0.019615
1041.033636	0.020331
1041.201093	0.019075
1041.368532	0.018343
1041.535952	0.017893
1041.703355	0.017371
1041.870739	0.016698
1042.038105	0.017159
1042.205452	0.017489
1042.372782	0.016063
1042.540093	0.014601
1042.707386	0.013835
1042.874661	0.015278
1043.041918	0.015345
1043.209156	0.015596
1043.376376	0.014870
1043.543578	0.014073
1043.710762	0.014259
1043.877927	0.014982
1044.045074	0.015362
1044.212203	0.015782
1044.379314	0.013455
1044.546407	0.012129
1044.713481	0.011350
1044.880537	0.013024
1045.047575	0.015679
1045.214595	0.014666
1045.381596	0.014969
1045.548579	0.015754
1045.715544	0.017258
1045.882491	0.018814
1046.049420	0.020237
1046.216330	0.020069
1046.383222	0.019954
1046.550096	0.019987
1046.716951	0.019485
1046.883789	0.018976
1047.050608	0.018054
1047.217409	0.016550
1047.384192	0.017374
1047.550956	0.017078
1047.717703	0.018363
1047.884431	0.017207
1048.051140	0.016463
1048.217832	0.017948
1048.384505	0.018520
1048.551161	0.017494
1048.717798	0.017199
1048.884416	0.015456
1049.051017	0.015124
1049.217599	0.012930
1049.384163	0.013866
1049.550709	0.012948
1049.717237	0.011705
1049.883746	0.010093
1050.050237	0.012889
1050.216710	0.013128
1050.383165	0.013162
1050.549601	0.013397
1050.716019	0.014331
1050.882420	0.012454
1051.048801	0.012814
1051.215165	0.012676
1051.381510	0.014572
1051.547837	0.013495
1051.714146	0.014422
1051.880437	0.015372
1052.046709	0.014526
1052.212964	0.015925
1052.379200	0.016906
1052.545417	0.018030
1052.711617	0.017992
1052.877798	0.015339
1053.043961	0.014976
1053.210106	0.013346
1053.376233	0.013316
1053.542341	0.012598
1053.708432	0.012079
1053.874504	0.010458
1054.040557	0.007467
1054.206593	0.008109
1054.372610	0.009057
1054.538609	0.007987
1054.704590	0.009503
1054.870553	0.011383
1055.036497	0.011989
1055.202424	0.010717
1055.368331	0.012556
1055.534221	0.013684
1055.700093	0.010930
1055.865946	0.012549
1056.031781	0.012943
1056.197598	0.011879
1056.363397	0.011093
1056.529177	0.011461
1056.694939	0.014563
1056.860683	0.012851
1057.026409	0.012530
1057.192116	0.014802
1057.357806	0.015321
1057.523477	0.014573
1057.689130	0.015060
1057.854764	0.013459
1058.020381	0.013678
1058.185979	0.011857
1058.351559	0.013344
1058.517120	0.012761
1058.682664	0.011412
1058.848189	0.010714
1059.013696	0.011979
1059.179185	0.011270
1059.344656	0.012465
1059.510108	0.011891
1059.675542	0.011332
1059.840958	0.009707
1060.006356	0.009846
1060.171735	0.010910
1060.337096	0.010380
1060.502439	0.009946
1060.667764	0.009704
1060.833071	0.009622
1060.998359	0.010263
1061.163629	0.009326
1061.328881	0.009907
1061.494115	0.010004
1061.659330	0.008965
1061.824527	0.007908
1061.989706	0.007486
1062.154867	0.008804
1062.320010	0.007084
1062.485134	0.008149
1062.650240	0.008381
1062.815328	0.008417
1062.980398	0.008959
1063.145449	0.009339
1063.310482	0.011313
1063.475497	0.011499
1063.640494	0.008585
1063.805473	0.007873
1063.970433	0.007091
1064.135375	0.008618
1064.300299	0.008187
1064.465204	0.008676
1064.630092	0.008578
1064.794961	0.010476
1064.959812	0.012809
1065.124645	0.014972
1065.289459	0.016623
1065.454256	0.015488
1065.619034	0.014321
1065.783793	0.015717
1065.948535	0.014695
1066.113258	0.017278
1066.277964	0.016627
1066.442651	0.013471
1066.607319	0.013439
1066.771970	0.014788
1066.936602	0.015026
1067.101216	0.014979
1067.265812	0.016509
1067.430389	0.017430
1067.594949	0.016635
1067.759490	0.013127
1067.924013	0.011501
1068.088518	0.011076
1068.253004	0.008134
1068.417472	0.006942
1068.581922	0.007805
1068.746354	0.003815
1068.910768	0.005783
1069.075163	0.004011
1069.239540	0.003433
1069.403899	0.006211
1069.568240	0.004949
1069.732562	0.004561
1069.896866	0.005830
1070.061152	0.003109
1070.225420	0.007797
1070.389670	0.004746
1070.553901	0.005762
1070.718114	0.006533
1070.882309	0.006221
1071.046486	0.006157
1071.210644	0.008878
1071.374784	0.009250
1071.538906	0.011813
1071.703010	0.008747
1071.867096	0.007986
1072.031163	0.005814
1072.195212	0.007299
1072.359243	0.008374
1072.523256	0.010493
1072.687250	0.007611
1072.851226	0.007083
1073.015184	0.005590
1073.179124	0.006236
1073.343045	0.004927
1073.506949	0.004190
1073.670834	0.001900
1073.834701	-0.001338
1073.998549	-0.001488
1074.162380	0.000530
1074.326192	0.001182
1074.489986	-0.000356
1074.653761	-0.000160
1074.817519	0.003182
1074.981258	0.004727
1075.144979	0.005667
1075.308682	0.006768
1075.472367	0.005338
1075.636033	0.005195
1075.799681	0.004641
1075.963311	0.005558
1076.126923	0.004354
1076.290516	0.003026
1076.454092	0.001695
1076.617649	0.001968
1076.781187	0.003028
1076.944708	0.001984
1077.108210	0.001893
1077.271695	0.001971
1077.435160	0.003148
1077.598608	0.003854
1077.762038	0.002395
1077.925449	0.004444
1078.088842	0.004283
1078.252217	0.000343
1078.415573	0.002006
1078.578912	0.001668
1078.742232	0.001526
1078.905534	0.004166
1079.068817	0.002964
1079.232083	0.005619
1079.395330	0.005007
1079.558559	0.003486
1079.721770	0.007183
1079.884962	0.007600
1080.048136	0.008259
1080.211293	0.007631
1080.374430	0.002613
1080.537550	0.002416
1080.700651	0.001786
1080.863735	0.002844
1081.026800	0.005742
1081.189846	0.006208
1081.352875	0.004599
1081.515885	0.002815
1081.678877	0.002605
1081.841851	0.004917
1082.004807	0.004652
1082.167744	0.006543
1082.330663	0.003644
1082.493564	0.001025
1082.656447	-0.000350
1082.819312	-0.000414
1082.982158	0.000552
1083.144986	0.000596
1083.307796	0.001006
1083.470587	0.001180
1083.633361	-0.000657
1083.796116	0.000507
1083.958853	0.001101
1084.121571	0.000391
1084.284272	0.001629
1084.446954	0.001422
1084.609618	0.000945
1084.772264	0.000662
1084.934892	-0.001103
1085.097501	-0.005418
1085.260092	-0.004269
1085.422665	-0.001939
1085.585220	-0.000481
1085.747756	-0.000958
1085.910274	-0.004751
1086.072774	-0.003604
1086.235256	-0.005043
1086.397720	-0.003210
1086.560165	0.002314
1086.722592	0.001641
1086.885001	-0.002819
1087.047392	-0.004185
1087.209764	-0.004237
1087.372119	0.001736
1087.534455	0.001213
1087.696772	-0.000409
1087.859072	0.000712
1088.021353	-0.000535
1088.183616	-0.001592
1088.345861	-0.000125
1088.508088	0.001811
1088.670296	0.001017
1088.832486	-0.000161
1088.994658	0.000839
1089.156812	0.001417
1089.318948	0.000588
1089.481065	-0.000132
1089.643164	0.001883
1089.805245	0.002689
1089.967308	0.000420
1090.129352	-0.000632
1090.291378	-0.004084
1090.453386	-0.006584
1090.615376	-0.005494
1090.777347	-0.007584
1090.939301	-0.008888
1091.101236	-0.012279
1091.263153	-0.014116
1091.425051	-0.013529
1091.586932	-0.012251
1091.748794	-0.010551
1091.910638	-0.009587
1092.072463	-0.009517
1092.234271	-0.006753
1092.396060	-0.007099
1092.557831	-0.004441
1092.719584	-0.000802
1092.881319	-0.001844
1093.043035	-0.004989
1093.204733	-0.003740
1093.366413	-0.005079
1093.528075	-0.006341
1093.689718	-0.009269
1093.851343	-0.009397
1094.012950	-0.010463
1094.174539	-0.014456
1094.336110	-0.012980
1094.497662	-0.012610
1094.659196	-0.014527
1094.820712	-0.014874
1094.982210	-0.015054
1095.143689	-0.016274
1095.305151	-0.014701
1095.466594	-0.014767
1095.628018	-0.016130
1095.789425	-0.016569
1095.950813	-0.012337
1096.112183	-0.014367
1096.273535	-0.013895
1096.434869	-0.011174
1096.596184	-0.008593
1096.757482	-0.009200
1096.918761	-0.011383
1097.080021	-0.008509
1097.241264	-0.010161
1097.402488	-0.014290
1097.563694	-0.008968
1097.724882	-0.008399
1097.886052	-0.009409
1098.047203	-0.009447
1098.208336	-0.009688
1098.369451	-0.008128
1098.530548	-0.008053
1098.691627	-0.006201
1098.852687	-0.003538
1099.013729	-0.006759
1099.174753	-0.004427
1099.335758	-0.004523
1099.496746	-0.005077
1099.657715	-0.005070
1099.818666	-0.006358
1099.979599	-0.006478
1100.140513	-0.010222
1100.301409	-0.011625
1100.462287	-0.012138
1100.623147	-0.013493
1100.783989	-0.015105
1100.944812	-0.013971
1101.105617	-0.015380
1101.266404	-0.016047
1101.427173	-0.016784
1101.587923	-0.015355
1101.748656	-0.014143
1101.909370	-0.014965
1102.070066	-0.018628
1102.230743	-0.016681
1102.391403	-0.015051
1102.552044	-0.015633
1102.712667	-0.013144
1102.873271	-0.013418
1103.033858	-0.013876
1103.194426	-0.012817
1103.354976	-0.008492
1103.515508	-0.006117
1103.676021	-0.009514
1103.836517	-0.014950
1103.996994	-0.017235
1104.157453	-0.016385
1104.317893	-0.018678
1104.478316	-0.020112
1104.638720	-0.024047
1104.799106	-0.025462
1104.959474	-0.023620
1105.119823	-0.019781
1105.280155	-0.016145
1105.440468	-0.012753
1105.600763	-0.012863
1105.761039	-0.008548
1105.921298	-0.004909
1106.081538	-0.005050
1106.241760	-0.006950
1106.401964	-0.009927
1106.562149	-0.012453
1106.722316	-0.014670
1106.882465	-0.013005
1107.042596	-0.015439
1107.202709	-0.016596
1107.362803	-0.017444
1107.522879	-0.013269
1107.682937	-0.012723
1107.842977	-0.012967
1108.002999	-0.012994
1108.163002	-0.012975
1108.322987	-0.012353
1108.482954	-0.011043
1108.642902	-0.011188
1108.802833	-0.012939
1108.962745	-0.014183
1109.122639	-0.013091
1109.282515	-0.011049
1109.442372	-0.008900
1109.602211	-0.004718
1109.762032	-0.009863
1109.921835	-0.009853
1110.081620	-0.009354
1110.241386	-0.008744
1110.401134	-0.009607
1110.560864	-0.011959
1110.720576	-0.014365
1110.880269	-0.015582
1111.039945	-0.020256
1111.199602	-0.016530
1111.359240	-0.012760
1111.518861	-0.015514
1111.678463	-0.016594
1111.838047	-0.018257
1111.997613	-0.018923
1112.157161	-0.014738
1112.316690	-0.015302
1112.476202	-0.015909
1112.635695	-0.019539
1112.795169	-0.023422
1112.954626	-0.023055
1113.114064	-0.020643
1113.273484	-0.021465
1113.432886	-0.021254
1113.592270	-0.023024
1113.751635	-0.020354
1113.910983	-0.021101
1114.070312	-0.015148
1114.229622	-0.017178
1114.388915	-0.016967
1114.548189	-0.013917
1114.707445	-0.010627
1114.866683	-0.010031
1115.025903	-0.009940
1115.185104	-0.014990
1115.344287	-0.012872
1115.503452	-0.017048
1115.662599	-0.016769
1115.821727	-0.016113
1115.980838	-0.016637
1116.139930	-0.017461
1116.299004	-0.014476
1116.458059	-0.013912
1116.617097	-0.013043
1116.776116	-0.010842
1116.935117	-0.011127
1117.094099	-0.008956
1117.253064	-0.006241
1117.412010	-0.008511
1117.570938	-0.003815
1117.729848	-0.006899
1117.888740	-0.010352
1118.047613	-0.011176
1118.206468	-0.010607
1118.365305	-0.009980
1118.524124	-0.011988
1118.682924	-0.013334
1118.841707	-0.014487
1119.000471	-0.015864
1119.159216	-0.018330
1119.317944	-0.017923
1119.476653	-0.014319
1119.635344	-0.014854
1119.794017	-0.015404
1119.952672	-0.017116
1120.111308	-0.018718
1120.269927	-0.018384
1120.428527	-0.022057
1120.587108	-0.018373
1120.745672	-0.019045
1120.904217	-0.021056
1121.062744	-0.023315
1121.221253	-0.024229
1121.379744	-0.021578
1121.538216	-0.020903
1121.696671	-0.022761
1121.855107	-0.022275
1122.013524	-0.027663
1122.171924	-0.027861
1122.330305	-0.028156
1122.488668	-0.028148
1122.647013	-0.023160
1122.805340	-0.019722
1122.963648	-0.017081
1123.121938	-0.015939
1123.280210	-0.017236
1123.438464	-0.014027
1123.596700	-0.011185
1123.754917	-0.011695
1123.913116	-0.014076
1124.071297	-0.018701
1124.229459	-0.023180
1124.387604	-0.028818
1124.545730	-0.029722
1124.703838	-0.024658
1124.861928	-0.027353
1125.019999	-0.031648
1125.178052	-0.032017
1125.336088	-0.024740
1125.494104	-0.022620
1125.652103	-0.019231
1125.810083	-0.015837
1125.968045	-0.016823
1126.125989	-0.022909
1126.283915	-0.020940
1126.441823	-0.015134
1126.599712	-0.013858
1126.757583	-0.017849
1126.915436	-0.016537
1127.073270	-0.019915
1127.231087	-0.017444
1127.388885	-0.013387
1127.546665	-0.010320
1127.704426	-0.008886
1127.862170	-0.013672
1128.019895	-0.014541
1128.177602	-0.018052
1128.335291	-0.017220
1128.492961	-0.018148
1128.650614	-0.020830
1128.808248	-0.024386
1128.965864	-0.028285
1129.123461	-0.030728
1129.281041	-0.031133
1129.438602	-0.031163
1129.596145	-0.024347
1129.753670	-0.028402
1129.911176	-0.028454
1130.068665	-0.033112
1130.226135	-0.029896
1130.383587	-0.033274
1130.541020	-0.032189
1130.698436	-0.032654
1130.855833	-0.036351
1131.013212	-0.043524
1131.170573	-0.043557
1131.327915	-0.043234
1131.485239	-0.035654
1131.642545	-0.033899
1131.799833	-0.030060
1131.957103	-0.027362
1132.114354	-0.025579
1132.271588	-0.022201
1132.428803	-0.015527
1132.585999	-0.010336
1132.743178	-0.013906
1132.900338	-0.017263
1133.057480	-0.026284
1133.214604	-0.022551
1133.371710	-0.026782
1133.528797	-0.025763
1133.685866	-0.029868
1133.842917	-0.033429
1133.999950	-0.035010
1134.156964	-0.030261
1134.313960	-0.029957
1134.470938	-0.027572
1134.627898	-0.033320
1134.784840	-0.028825
1134.941763	-0.028096
1135.098668	-0.015638
1135.255555	-0.011663
1135.412424	-0.013951
1135.569274	-0.014670
1135.726107	-0.016246
1135.882921	-0.015834
1136.039716	-0.013782
1136.196494	-0.016692
1136.353253	-0.015266
1136.509995	-0.019101
1136.666717	-0.022987
1136.823422	-0.023349
1136.980109	-0.027839
1137.136777	-0.026627
1137.293427	-0.021203
1137.450059	-0.019770
1137.606672	-0.020053
1137.763267	-0.021279
1137.919844	-0.024431
1138.076403	-0.021932
1138.232944	-0.017733
1138.389466	-0.012525
1138.545971	-0.019583
1138.702457	-0.020257
1138.858924	-0.020117
1139.015374	-0.020284
1139.171805	-0.020713
1139.328218	-0.019469
1139.484613	-0.019582
1139.640990	-0.023126
1139.797348	-0.020100
1139.953688	-0.012207
1140.110010	-0.013329
1140.266314	-0.019572
1140.422600	-0.020142
1140.578867	-0.020711
1140.735116	-0.024271
1140.891347	-0.024445
1141.047559	-0.023054
1141.203754	-0.021102
1141.359930	-0.029901
1141.516088	-0.028059
1141.672228	-0.026825
1141.828349	-0.023303
1141.984452	-0.025018
1142.140537	-0.019593
1142.296604	-0.021584
1142.452653	-0.027192
1142.608683	-0.030338
1142.764695	-0.019321
1142.920689	-0.020563
1143.076665	-0.014271
1143.232622	-0.012803
1143.388562	-0.011341
1143.544483	-0.015036
1143.700385	-0.009825
1143.856270	-0.013619
1144.012136	-0.013843
1144.167985	-0.019333
1144.323814	-0.027724
1144.479626	-0.025941
1144.635420	-0.025293
1144.791195	-0.021397
1144.946952	-0.024841
1145.102691	-0.031380
1145.258411	-0.019507
1145.414113	-0.021360
1145.569798	-0.017727
1145.725463	-0.014630
1145.881111	-0.021345
1146.036741	-0.024103
1146.192352	-0.028677
1146.347945	-0.029690
1146.503519	-0.030617
1146.659076	-0.037733
1146.814614	-0.036083
1146.970134	-0.035316
1147.125636	-0.031001
1147.281120	-0.033985
1147.436585	-0.044263
1147.592032	-0.046927
1147.747461	-0.037268
1147.902872	-0.031636
1148.058265	-0.032857
1148.213639	-0.038026
1148.368995	-0.046277
1148.524333	-0.049402
1148.679653	-0.049097
1148.834954	-0.036883
1148.990237	-0.033591
1149.145502	-0.039819
1149.300749	-0.041634
1149.455977	-0.034055
1149.611188	-0.027954
1149.766380	-0.022323
1149.921553	-0.015639
1150.076709	-0.009167
1150.231846	-0.013199
1150.386966	-0.020401
1150.542066	-0.017192
1150.697149	-0.021902
1150.852214	-0.029861
1151.007260	-0.030564
1151.162288	-0.028610
1151.317298	-0.027617
1151.472289	-0.031424
1151.627263	-0.031957
1151.782218	-0.031047
1151.937155	-0.038233
1152.092073	-0.027676
1152.246974	-0.025863
1152.401856	-0.026015
1152.556720	-0.030110
1152.711566	-0.036603
1152.866393	-0.028275
1153.021203	-0.025997
1153.175994	-0.010739
1153.330767	-0.008777
1153.485521	-0.022068
1153.640258	-0.021724
1153.794976	-0.023938
1153.949676	-0.025273
1154.104358	-0.022313
1154.259021	-0.026332
1154.413667	-0.035757
1154.568294	-0.051446
1154.722903	-0.047505
1154.877493	-0.040993
1155.032066	-0.043958
1155.186620	-0.043415
1155.341156	-0.036235
1155.495674	-0.041589
1155.650173	-0.048413
1155.804654	-0.035539
1155.959118	-0.024853
1156.113562	-0.019932
1156.267989	-0.025335
1156.422397	-0.020634
1156.576788	-0.025921
1156.731160	-0.028510
1156.885513	-0.023460
1157.039849	-0.017494
1157.194166	-0.024189
1157.348465	-0.029371
1157.502746	-0.035681
1157.657009	-0.035657
1157.811253	-0.030679
1157.965479	-0.021477
1158.119687	-0.025337
1158.273877	-0.026188
1158.428048	-0.031496
1158.582201	-0.027697
1158.736337	-0.023267
1158.890453	-0.017357
1159.044552	-0.007597
1159.198632	-0.008581
1159.352694	-0.009947
1159.506738	-0.001682
1159.660764	-0.006400
1159.814771	0.007006
1159.968761	0.003687
1160.122732	-0.004313
1160.276685	-0.009020
1160.430619	-0.016189
1160.584535	-0.028668
1160.738434	-0.026485
1160.892313	-0.031428
1161.046175	-0.033110
1161.200019	-0.037686
1161.353844	-0.046060
1161.507651	-0.041116
1161.661440	-0.036895
1161.815210	-0.041328
1161.968962	-0.037160
1162.122697	-0.041099
1162.276412	-0.032322
1162.430110	-0.030814
1162.583789	-0.022955
1162.737451	-0.022882
1162.891094	-0.024588
1163.044718	-0.029192
1163.198325	-0.015606
1163.351913	-0.019584
1163.505483	-0.022016
1163.659035	-0.036840
1163.812569	-0.024678
1163.966084	-0.037975
1164.119581	-0.031311
1164.273060	-0.033562
1164.426521	-0.040658
1164.579964	-0.045678
1164.733388	-0.029831
1164.886794	-0.031890
1165.040182	-0.023123
1165.193551	-0.031526
1165.346903	-0.013774
1165.500236	-0.002727
1165.653551	0.005280
1165.806848	0.009426
1165.960126	0.007128
1166.113386	0.009360
1166.266628	0.025766
1166.419852	0.018080
1166.573058	0.016139
1166.726245	0.010365
1166.879414	0.002507
1167.032565	0.004478
1167.185698	0.016537
1167.338812	0.012021
1167.491909	-0.003092
1167.644987	-0.014345
1167.798046	0.000453
1167.951088	0.003495
1168.104111	-0.002878
1168.257117	-0.009651
1168.410103	-0.012723
1168.563072	-0.008385
1168.716023	-0.021127
1168.868955	-0.020091
1169.021869	-0.045752
1169.174765	-0.049472
1169.327642	-0.056676
1169.480501	-0.046877
1169.633343	-0.041074
1169.786165	-0.041222
1169.938970	-0.050876
1170.091757	-0.036606
1170.244525	-0.031028
1170.397275	0.001901
1170.550007	0.007572
1170.702720	0.018242
1170.855415	0.006573
1171.008092	-0.000115
1171.160751	-0.010273
1171.313392	-0.024243
1171.466014	0.000647
1171.618619	-0.096687
1171.771205	-0.096687
1171.923772	-0.096687
