sample name	sample
index	1195
start time	 04-26-2021  12:26:28 PM
880	-0.053054
Peak Time (s)	92.035
Peak Height 	-0.05305
calc peak height	90,93
Baseline Time (s)	9.034
Baseline Value 	-0.00263
subtract baseline	10,4
Abs	-0.017168
Peak Time (s)	91.035
Peak Height 	-0.01717
calc peak height	90,93
Baseline Time (s)	9.034
Baseline Value 	0.002926
subtract baseline	10,3
PK_550	-0.001932
Peak Time (s)	90.035
Peak Height 	-0.001932
calc peak height	90,93
Baseline Time (s)	9.034
Baseline Value 	1.9356E-4
subtract baseline	10,2
PK_880	-0.014535
Peak Time (s)	91.035
Peak Height 	-0.01454
calc peak height	90,93
Baseline Time (s)	10.035
Baseline Value 	1.8092E-4
subtract baseline	10,1


Time (s)	A880-A510	A880-A775	A880-A975	A880	I510	I775	I975	I880	
0.034500	-0.000296	-0.000071	0.002328	0.001752	6156.344507	43583.518956	3877.698470	22569.534459
0.535500	-0.002515	-0.000577	-0.004593	0.007007	6100.959856	43047.921559	3850.218133	22333.030882
1.035500	-0.002815	-0.000408	-0.001938	0.003792	6122.450062	43361.681626	3863.371743	22477.405438
1.537000	0.002454	0.000564	-0.002239	0.001543	6178.542885	43662.622991	3867.775111	22579.025018
2.036000	0.000245	-0.000692	-0.008428	-0.000594	6178.005765	43745.337983	3858.634479	22676.067533
2.536000	-0.001280	0.000436	-0.009116	0.006248	6115.642269	43211.894637	3841.877511	22367.009563
3.036500	-0.000726	0.000282	0.000969	-0.001809	6179.845785	43951.647400	3882.754292	22731.490185
3.536500	0.002179	0.000976	-0.000135	0.001516	6176.674800	43703.779115	3872.615382	22580.220544
4.040000	-0.001821	0.000280	-0.001464	0.000702	6152.806417	43714.960275	3871.444140	22617.171919
4.537500	-0.000711	-0.000306	-0.003758	0.000786	6160.471595	43652.052328	3866.049689	22613.359198
5.034500	-0.001904	0.000247	-0.002850	0.000758	6151.765529	43706.647391	3868.170081	22614.635218
5.535000	-0.001031	0.000645	-0.002211	0.001042	6156.162437	43717.214649	3868.974756	22601.725244
6.035500	-0.000043	0.000634	-0.001238	0.000374	6168.570036	43779.049700	3872.704859	22632.060926
6.535500	0.000123	0.000710	-0.005704	0.000692	6167.426526	43756.291815	3861.870065	22617.630132
7.036000	-0.000530	0.000326	-0.005483	0.000290	6165.543817	43758.029737	3863.275122	22635.885378
7.536500	0.000798	-0.000722	-0.005337	-0.000701	6182.976601	43752.567222	3865.842400	22680.952447
8.036500	-0.000678	-0.000454	-0.004177	0.000033	6166.360391	43708.874007	3866.805373	22647.554709
8.537000	-0.000119	0.000159	-0.003588	0.000272	6168.759715	43743.965213	3867.598102	22636.670993
9.034000	0.000119	0.000000	0.000000	0.000000	6172.592822	43754.569202	3876.381996	22649.048813
9.535000	0.001096	-0.000056	0.001196	-0.000212	6181.535505	43769.248799	3879.604586	22658.678554
10.035000	0.000000	0.000461	-0.004431	0.000146	6170.601464	43784.223089	3865.974258	22642.422558
10.535000	0.000252	-0.000063	-0.001785	-0.000165	6174.835620	43764.188186	3872.687731	22656.574623
11.035500	-0.001064	-0.000215	0.001765	-0.000295	6165.926832	43762.075225	3881.101890	22662.451354
11.535500	-0.000522	0.001220	0.002251	0.000474	6164.228317	43824.717356	3880.453362	22627.512945
12.035500	-0.000157	0.000088	-0.005028	-0.000508	6174.335162	43810.621539	3866.103481	22672.162526
12.536500	-0.000111	-0.000383	-0.002775	-0.000830	6177.098725	43796.550772	3871.945870	22686.805234
13.039500	0.002833	0.000696	0.001205	-0.000835	6199.362618	43898.767918	3881.055241	22687.046209
13.539500	0.001874	0.001813	0.001227	0.000881	6179.158563	43842.253913	3877.172693	22609.016456
14.034500	-0.002313	0.000567	-0.007786	0.002283	6137.363114	43593.555478	3853.630350	22545.525577
14.537500	-0.002529	0.000718	-0.002728	0.002197	6136.389817	43615.778251	3865.188294	22549.407304
15.043000	0.000595	0.000887	-0.000084	-0.000604	6180.715226	43894.969093	3877.570968	22676.528548
15.535500	0.001067	0.000424	0.002398	-0.000726	6185.194053	43862.873789	3883.549189	22682.096351
16.036000	0.000260	0.000523	-0.001075	-0.000788	6179.574138	43877.925221	3875.726013	22684.895024
16.536000	-0.001034	0.000831	0.001615	0.000282	6161.828598	43806.244079	3879.433050	22636.238069
17.035500	0.001702	0.000495	-0.002528	-0.004003	6214.827810	44179.577791	3879.759733	22831.904768
17.536500	-0.000038	0.000083	-0.001031	0.000388	6168.493551	43725.905300	3873.142881	22631.394069
18.037000	-0.000714	0.000491	-0.004979	0.000351	6163.706514	43767.726138	3864.273486	22633.113811
18.537500	-0.002596	0.000426	0.001260	0.000721	6146.877255	43726.826125	3877.615603	22616.295486
19.037000	0.000124	0.000235	-0.003453	0.000687	6167.474798	43712.131604	3866.964136	22617.851653
19.535000	-0.000450	0.001132	-0.001958	0.000926	6161.383181	43773.931774	3869.811431	22607.001992
20.035500	0.001458	0.000720	0.000486	0.001225	6173.445118	43707.123506	3874.693170	22593.427354
20.535500	-0.001199	0.000307	-0.000007	0.001137	6154.203836	43676.685756	3873.771218	22597.437882
21.036000	0.001406	0.000908	0.001796	0.001183	6173.367152	43728.754459	3877.784574	22595.327276
21.536000	0.000076	0.000545	-0.000986	0.001431	6161.533136	43671.413892	3870.872143	22584.092434
22.036000	-0.001680	0.000691	0.002631	0.001071	6151.101776	43718.899341	3879.954404	22600.419354
22.536500	0.000119	0.001139	-0.001030	0.001429	6161.872522	43727.323315	3870.777864	22584.193381
23.040000	0.000350	0.000613	-0.000869	0.001483	6163.199930	43672.845879	3871.020681	22581.738775
23.534500	-0.002434	0.000579	-0.003274	0.001449	6142.667704	43672.920422	3865.645338	22583.296860
24.034500	-0.001165	0.000372	-0.003512	0.001067	6154.971545	43689.236591	3865.968698	22600.578423
24.537000	-0.000824	0.000390	-0.002962	0.001206	6156.487199	43677.896166	3866.899894	22594.286397
25.035500	-0.001071	0.000856	0.001379	0.001393	6153.238939	43704.055002	3876.349617	22585.795779
25.535500	0.000886	0.000594	0.005934	0.001390	6167.914682	43679.878754	3886.824901	22585.969252
26.035500	0.002939	0.000783	-0.007888	0.001445	6182.933715	43692.410344	3855.276658	22583.464529
26.536000	-0.000391	0.000725	-0.003490	0.001247	6159.415983	43705.535018	3865.611375	22592.413275
27.036000	0.000086	0.000978	0.005500	-0.001186	6181.262672	43958.440112	3891.781245	22703.031055
27.539500	0.003866	0.000680	0.000932	-0.001639	6213.306079	43973.115938	3882.274493	22723.696715
28.037000	0.001945	0.000616	-0.001152	-0.001001	6193.896956	43906.857411	3876.035793	22694.600598
28.534500	0.000320	0.000517	0.000668	-0.000556	6178.277956	43855.586468	3879.183692	22674.343131
29.037000	0.001121	0.000379	-0.001958	-0.001082	6188.289838	43892.165564	3874.382496	22698.321660
29.535500	0.001916	0.000484	-0.005372	-0.001022	6193.836678	43896.302514	3866.488089	22695.549734
30.034500	0.002006	0.001092	-0.004978	-0.001016	6194.471972	43953.222466	3867.367145	22695.289474
30.536000	0.002098	0.000603	-0.001570	-0.000536	6191.536369	43861.830629	3874.022160	22673.441104
31.036000	-0.000062	0.000430	0.000461	0.001418	6160.599217	43661.803588	3874.196690	22584.667364
31.547500	0.001662	0.000038	0.001178	-0.001458	6195.212456	43895.422411	3882.426043	22715.436456
32.036500	0.000957	0.000444	0.001655	-0.001483	6190.073384	43936.173265	3883.582481	22716.606953
32.537000	0.000512	0.000824	-0.000432	-0.001147	6184.181031	43940.236149	3878.017407	22701.270283
33.037000	0.000075	0.000804	0.001560	-0.001872	6186.353274	44006.903131	3884.256865	22734.336356
33.537000	0.002665	0.001333	0.001803	-0.002809	6213.064866	44145.739969	3886.980428	22777.177515
34.035500	0.000566	0.000441	-0.003652	0.000654	6171.030181	43734.476785	3866.587791	22619.321119
34.535500	0.002135	0.000526	0.003027	0.000860	6181.288710	43723.178199	3881.347807	22609.994172
35.035500	-0.001672	0.000507	0.000469	0.000519	6155.281435	43753.402445	3876.267868	22625.458620
35.536000	-0.001264	0.000089	-0.002444	0.000157	6161.043300	43748.211935	3870.456070	22641.929479
36.036000	-0.001468	0.000225	-0.002333	0.000512	6156.859985	43727.617000	3869.900461	22625.783999
36.536500	-0.001496	0.000047	0.000630	0.000565	6156.254090	43705.872319	3876.531359	22623.379566
37.039500	-0.000426	0.000645	-0.000716	0.000822	6162.335924	43737.885592	3872.872779	22611.704948
37.537000	0.000264	0.000585	-0.000985	0.000923	6166.745727	43722.827696	3872.029942	22607.120177
38.034500	-0.002309	0.000684	0.001302	0.001110	6146.117353	43714.515124	3876.821154	22598.651548
38.534500	-0.000522	0.000058	-0.000871	0.000390	6164.854471	43723.359035	3873.505179	22631.332013
39.035000	-0.000984	0.000692	-0.000561	0.001183	6155.458762	43708.430046	3872.402155	22595.316629
39.535500	-0.001298	0.001325	-0.001409	0.001523	6150.577207	43735.944074	3869.702038	22579.908395
40.035500	0.000500	0.001215	-0.000085	0.001541	6163.884237	43723.899639	3872.672101	22579.099019
40.536000	-0.001582	0.000202	-0.003209	0.000463	6156.370447	43730.016614	3868.022146	22627.995352
41.036500	-0.000720	0.000183	0.001535	0.000862	6159.833880	43690.830060	3877.920941	22609.902245
41.536500	0.000391	0.001059	-0.001335	0.001602	6162.611870	43703.611133	3869.691365	22576.354916
42.037000	-0.000721	0.000526	-0.001933	0.001354	6156.152901	43676.871775	3868.897294	22587.592280
42.537000	-0.001232	0.000606	0.000004	0.001220	6153.335730	43696.871924	3873.607205	22593.668299
43.037000	0.000093	-0.000129	-0.001221	0.000886	6165.745157	43659.345654	3871.579458	22608.824033
43.535500	-0.001166	0.001147	-0.000850	0.000689	6157.794151	43797.611912	3872.869698	22617.727389
44.035500	-0.000221	0.000379	0.003026	-0.000492	6173.734355	43836.535617	3884.457095	22671.440861
44.535000	0.000737	0.000240	0.005193	-0.000345	6179.829036	43809.550328	3889.121476	22664.726986
45.062500	-0.000168	-0.000277	-0.001352	-0.001541	6182.027465	43873.563984	3876.815215	22719.241959
45.536500	0.000801	0.000484	0.002663	-0.000932	6184.734949	43887.905236	3884.632383	22691.464693
46.036500	0.000582	0.000533	0.000524	-0.000686	6181.238709	43869.294080	3879.152363	22680.274669
46.539500	-0.000793	-0.000108	0.003517	0.000983	6158.379839	43652.084701	3882.191247	22604.388677
47.037500	0.000849	0.000552	-0.000299	-0.000890	6184.780455	43890.337884	3877.732433	22689.536435
47.537500	0.002121	0.001205	-0.000675	0.001618	6175.476102	43715.778762	3871.154656	22575.619528
48.037500	-0.000914	0.000808	0.004508	0.002803	6143.894417	43567.467431	3880.285734	22522.005054
48.535500	-0.000182	-0.000133	-0.000253	-0.000792	6176.283881	43816.572620	3877.616051	22685.098246
49.035500	0.000502	0.000765	0.004098	-0.001010	6183.068600	43921.727751	3888.126348	22695.024165
49.536000	0.001532	0.001348	0.003730	-0.000637	6188.021945	43941.590644	3886.413096	22678.017779
50.036000	-0.003147	0.001213	0.001236	0.002560	6129.113730	43628.175074	3873.359860	22532.999463
50.536500	-0.001024	0.000434	-0.000493	0.000837	6157.745780	43716.673184	3873.347398	22611.025390
51.037000	0.003237	0.000927	0.004251	0.002572	6176.693773	43600.265023	3880.229084	22532.466854
51.537000	0.024632	-0.024348	0.032570	0.564418	3851.086752	13454.071702	3175.397307	8286.430809
52.037500	0.002450	-0.025527	-0.009649	-0.049770	6588.448150	46098.221982	3972.460565	25046.708939
52.534500	-0.010759	-0.039603	-0.015488	-0.182419	7752.923544	59649.857557	4341.659793	32956.834612
53.034500	-0.003821	-0.037682	-0.005420	-0.193104	7953.486878	61320.308614	4413.021162	33705.421777
53.535000	-0.000276	-0.028667	-0.003821	-0.182602	7873.331398	61120.674208	4381.989315	32969.489351
54.035500	0.002072	-0.018749	0.000840	-0.118358	7214.032178	54278.532928	4189.904680	28835.131881
54.535500	-0.004767	-0.014565	-0.008004	-0.081724	6804.055518	50581.818700	4060.038855	26737.413212
55.036000	-0.010643	-0.011948	-0.009902	-0.093187	6854.473039	52151.936834	4086.234270	27374.886571
55.536500	-0.005169	-0.009098	-0.006211	-0.100814	6975.285597	53353.764639	4117.984999	27808.448377
56.039000	-0.009902	-0.006857	-0.014940	-0.090892	6840.391432	52469.853168	4066.099117	27245.909261
56.537000	-0.007767	-0.005464	-0.016035	-0.085501	6811.023493	52015.848887	4048.569337	26945.577293
57.037500	-0.003283	-0.004444	-0.015019	-0.081589	6816.165826	51690.149013	4040.829251	26729.992412
57.534500	-0.008070	-0.005088	-0.016755	-0.079713	6756.695095	51407.958314	4031.243316	26627.275824
58.034500	-0.012678	-0.006372	-0.017749	-0.085155	6764.100335	51874.472487	4043.060466	26926.474322
58.534500	-0.005604	-0.003308	-0.010906	-0.064223	6643.053679	49901.616585	4006.049932	25796.034824
59.036000	-0.008471	-0.004131	-0.016782	-0.032382	6356.319041	46498.450382	3912.688246	24177.652977
59.536000	-0.006997	-0.001602	-0.010647	-0.032506	6369.019878	46765.342784	3927.625271	24183.703334
60.036500	-0.008927	-0.002140	-0.021606	-0.021487	6267.412039	45614.334473	3876.110018	23650.587706
60.539500	-0.007272	-0.001773	-0.009807	-0.016044	6238.251517	45118.362135	3890.742463	23392.185581
61.037000	-0.009154	-0.002967	-0.013264	-0.010463	6181.541335	44465.320487	3870.001592	23130.563920
61.537000	-0.006512	-0.003053	-0.013524	-0.007132	6176.361402	44139.802054	3861.879532	22976.011731
62.033500	-0.008718	-0.004392	-0.018402	-0.012528	6200.441896	44526.572233	3863.045215	23226.966768
62.598500	-0.012562	-0.006665	-0.018725	-0.033199	6330.427332	46326.450123	3910.022160	24217.683013
63.035000	-0.009833	-0.003524	-0.013939	-0.035126	6367.303330	46835.958099	3926.013305	24312.503650
63.536000	-0.012990	-0.002019	-0.017628	-0.034211	6335.037042	46895.658161	3915.021710	24267.453581
64.057500	-0.012597	-0.002099	-0.019484	-0.040634	6389.208814	47542.352523	3925.923070	24585.726233
64.536000	-0.010772	-0.001573	-0.019674	-0.042872	6421.915777	47827.283909	3930.849066	24697.774197
65.036500	-0.014981	-0.001170	-0.022447	-0.044256	6399.141297	48012.291122	3927.504757	24767.324819
65.537000	-0.013840	-0.000745	-0.023234	-0.044542	6410.622684	48086.228561	3926.301136	24781.716142
66.036000	-0.017151	-0.000454	-0.020988	-0.039109	6340.852614	47554.764984	3918.678638	24509.740731
66.537500	-0.014413	-0.000181	-0.024055	-0.045152	6410.930845	48208.489767	3925.795946	24812.503428
67.035500	-0.013685	0.000335	-0.020029	-0.046488	6427.608174	48401.953876	3938.741734	24879.998428
67.535000	-0.013271	-0.000210	-0.025883	-0.047314	6437.670749	48431.394646	3926.597609	24921.851139
68.035500	-0.015472	0.000767	-0.024558	-0.040960	6368.854706	47871.486363	3914.589920	24602.035739
68.536000	-0.012950	0.000891	-0.020649	-0.045169	6422.881910	48322.133015	3934.043769	24813.360539
69.036000	-0.013562	0.000112	-0.022852	-0.047289	6435.096370	48462.551528	3933.841146	24920.571087
69.536000	-0.013955	0.000095	-0.018927	-0.047317	6432.137447	48463.700377	3943.445706	24922.004640
70.039500	-0.016309	-0.000552	-0.021668	-0.041749	6368.467690	47816.667616	3923.360904	24641.480526
70.536500	-0.013785	-0.000459	-0.020001	-0.047219	6432.725852	48395.359212	3940.588341	24917.029456
71.037000	-0.013452	-0.000107	-0.019430	-0.048840	6448.612794	48602.430884	3945.936280	24999.362602
71.537500	-0.013745	-0.000660	-0.014977	-0.049738	6453.545931	48638.689378	3959.105365	25045.090778
72.035500	-0.017977	-0.001575	-0.024868	-0.045485	6384.983305	48098.043343	3924.646187	24829.316782
72.535500	-0.011553	-0.000964	-0.014369	-0.050884	6480.879132	48727.312531	3963.457437	25103.574348
73.036000	-0.012888	-0.001918	-0.019304	-0.053990	6495.476661	48954.895642	3958.920162	25262.939620
73.535500	-0.011422	-0.002210	-0.022286	-0.055295	6518.421749	49062.312911	3954.774277	25330.200777
74.036500	-0.015172	-0.002317	-0.025820	-0.050544	6448.475191	48549.191543	3934.535067	25086.207206
74.536500	-0.014142	-0.002564	-0.022080	-0.057850	6517.054221	49296.721492	3961.607507	25462.563750
75.036500	-0.013783	-0.002531	-0.018423	-0.059971	6537.708041	49527.214426	3976.042802	25572.967776
75.537000	-0.012287	-0.002029	-0.020202	-0.060567	6555.224672	49645.194338	3973.071688	25604.121020
76.034500	-0.014606	-0.003171	-0.020040	-0.056959	6505.821210	49137.133584	3964.463375	25416.334638
76.537000	-0.011946	-0.001628	-0.020696	-0.063020	6578.759894	49953.287232	3977.998131	25732.720214
77.035500	-0.011315	-0.001458	-0.015005	-0.064113	6593.350259	50090.224281	3995.225586	25790.259552
77.535000	-0.011040	-0.001496	-0.015514	-0.065298	6605.746889	50214.860290	3996.955140	25852.753109
78.035500	-0.015957	-0.002666	-0.020771	-0.061886	6535.547607	49718.545872	3974.954358	25673.150885
78.536000	-0.010785	-0.001813	-0.017373	-0.067583	6627.425885	50429.587840	3998.048989	25973.813739
79.036000	-0.009022	-0.001123	-0.014666	-0.068510	6650.528289	50606.797011	4007.412539	26023.131861
79.539000	-0.009754	-0.001807	-0.017923	-0.069993	6656.999314	50694.548996	4002.833504	26102.217349
80.037000	-0.014679	-0.002112	-0.023347	-0.065667	6578.027117	50188.043075	3977.986719	25872.292043
80.537000	-0.013351	-0.002952	-0.017079	-0.072158	6644.672646	50806.909654	4010.613113	26218.174078
81.035500	-0.011502	-0.002271	-0.020860	-0.073004	6667.920805	50975.553566	4003.024267	26263.639296
81.534500	-0.012634	-0.002731	-0.013098	-0.073577	6663.082334	50988.051941	4024.713238	26294.464359
82.035500	-0.014938	-0.002520	-0.021561	-0.068121	6596.609043	50411.078472	3988.723308	26002.420749
82.535500	-0.011729	-0.001900	-0.018414	-0.073154	6667.254680	51033.279243	4009.733988	26271.711220
83.035500	-0.014212	-0.002625	-0.017678	-0.074802	6660.029188	51135.617240	4015.933544	26360.537720
83.536000	-0.012929	-0.002812	-0.021858	-0.074285	6666.651453	51057.503062	4003.752307	26332.626597
84.036500	-0.014963	-0.002936	-0.021798	-0.074128	6647.750348	51026.327192	4003.502638	26324.165881
84.536500	-0.014689	-0.003130	-0.019503	-0.073343	6643.354626	50918.093687	4007.403072	26281.859372
85.036000	-0.015646	-0.003000	-0.025695	-0.073199	6633.900072	50916.550005	3991.128227	26274.121404
85.537500	-0.013516	-0.002288	-0.017019	-0.072094	6642.693393	50873.076628	4010.601390	26214.711015
86.037500	-0.011938	-0.002244	-0.019694	-0.071035	6647.168712	50761.267670	4000.956394	26157.969328
86.535000	-0.013801	-0.001778	-0.017640	-0.069038	6614.087431	50592.867528	4001.102006	26051.249697
87.035000	-0.012855	-0.002508	-0.019748	-0.069572	6626.735649	50571.336459	3997.058147	26079.716594
87.535500	-0.014012	-0.002179	-0.021586	-0.068248	6605.566894	50462.382777	3988.983495	26009.213735
88.035500	-0.013356	-0.003174	-0.019152	-0.068241	6611.092192	50352.763118	3995.175993	26008.806925
88.536000	-0.014143	-0.003464	-0.022730	-0.066209	6587.143273	50099.884537	3980.911252	25900.944230
89.039000	-0.014847	-0.002636	-0.019992	-0.065055	6571.446356	50064.545843	3984.920924	25839.926309
89.537000	-0.012783	-0.002381	-0.020760	-0.063768	6578.004636	49952.650661	3979.721454	25772.074580
90.035000	-0.017759	-0.001932	-0.021938	-0.057007	6480.196109	49274.254619	3959.869088	25418.798661
90.534500	-0.017729	-0.002056	-0.018443	-0.061105	6514.300244	49700.265809	3978.850661	25632.275944
91.035000	-0.014535	-0.002367	-0.017168	-0.060110	6532.593328	49559.789819	3979.556460	25580.271773
91.535000	-0.015710	-0.002170	-0.020072	-0.059107	6514.473766	49473.336829	3969.741736	25527.955185
92.035500	-0.018327	-0.001973	-0.022289	-0.053054	6443.224851	48849.933358	3949.255268	25214.772893
92.535500	-0.016765	-0.002959	-0.021969	-0.056837	6486.980631	49146.612931	3959.369614	25409.987628
93.036500	-0.017769	-0.002399	-0.020182	-0.055636	6468.868381	49078.470876	3960.823730	25347.842432
93.539000	-0.015655	-0.002110	-0.018097	-0.053890	6471.878048	48923.915054	3961.664536	25257.778986
94.068000	-0.017159	-0.002373	-0.027370	-0.048822	6418.382331	48362.770965	3926.647202	24998.422340
94.534000	-0.014374	-0.001542	-0.024836	-0.051569	6463.368727	48738.733047	3939.408991	25138.648752
95.129000	-0.015170	-0.001890	-0.025657	-0.050743	6450.116243	48615.020226	3935.412539	25096.372718
95.537000	-0.018849	-0.001778	-0.020691	-0.049601	6411.038012	48506.813565	3944.714998	25038.099472
96.035000	-0.016565	-0.002148	-0.027032	-0.049060	6425.108501	48411.198773	3928.031963	25010.510811
96.535000	-0.015039	-0.001664	-0.015312	-0.047628	6425.874184	48312.167208	3953.068995	24937.773898
97.035500	-0.017508	-0.001858	-0.026085	-0.046867	6399.827679	48212.459961	3925.041759	24899.205629
97.535500	-0.017630	-0.001721	-0.022457	-0.045866	6390.811031	48122.372156	3931.358387	24848.540465
