sample name	sample
index	487
start time	 03-11-2021  02:02:30 PM


Wavelength (nm)	Absorbance
494.344910	-0.706173
494.563924	-0.706173
494.782919	-0.706173
495.001897	-0.129700
495.220856	-0.375718
495.439797	-0.291950
495.658719	-0.286952
495.877624	-0.305303
496.096510	-0.402288
496.315378	-0.418254
496.534227	-0.130344
496.753059	-0.277500
496.971872	-0.232722
497.190667	-0.018870
497.409444	-0.015616
497.628203	-0.016179
497.846943	-0.016077
498.065665	-0.014480
498.284369	-0.015339
498.503055	-0.015669
498.721723	-0.015506
498.940372	-0.014688
499.159003	-0.015366
499.377616	-0.015050
499.596210	-0.014947
499.814787	-0.014961
500.033345	-0.015236
500.251885	-0.014775
500.470406	-0.014771
500.688910	-0.014858
500.907395	-0.015316
501.125862	-0.014758
501.344311	-0.015444
501.562742	-0.016169
501.781154	-0.016122
501.999548	-0.016412
502.217924	-0.016136
502.436282	-0.016973
502.654621	-0.016882
502.872942	-0.018199
503.091245	-0.018490
503.309530	-0.018897
503.527797	-0.018343
503.746045	-0.017379
503.964275	-0.017884
504.182487	-0.018808
504.400681	-0.018730
504.618856	-0.018368
504.837013	-0.017742
505.055152	-0.017478
505.273273	-0.016764
505.491376	-0.016767
505.709460	-0.017355
505.927526	-0.017107
506.145574	-0.016937
506.363604	-0.016811
506.581615	-0.016949
506.799608	-0.016916
507.017583	-0.016584
507.235540	-0.017675
507.453478	-0.017769
507.671399	-0.017924
507.889301	-0.018344
508.107185	-0.018496
508.325050	-0.018819
508.542898	-0.019561
508.760727	-0.019471
508.978538	-0.020291
509.196330	-0.018922
509.414105	-0.018573
509.631861	-0.019043
509.849599	-0.019142
510.067319	-0.018814
510.285021	-0.018512
510.502704	-0.018440
510.720369	-0.018627
510.938016	-0.018467
511.155645	-0.019567
511.373255	-0.020032
511.590848	-0.019737
511.808422	-0.019773
512.025977	-0.019797
512.243515	-0.020176
512.461034	-0.019509
512.678536	-0.019817
512.896018	-0.019695
513.113483	-0.019806
513.330930	-0.020054
513.548358	-0.019852
513.765768	-0.019578
513.983160	-0.019431
514.200533	-0.019561
514.417889	-0.019793
514.635226	-0.019127
514.852545	-0.019183
515.069845	-0.018792
515.287128	-0.018536
515.504392	-0.019284
515.721638	-0.019108
515.938866	-0.019759
516.156075	-0.019174
516.373267	-0.019068
516.590440	-0.019183
516.807594	-0.019844
517.024731	-0.020227
517.241850	-0.020352
517.458950	-0.019856
517.676032	-0.020074
517.893095	-0.019460
518.110141	-0.019335
518.327168	-0.019754
518.544177	-0.020415
518.761168	-0.020971
518.978141	-0.020990
519.195095	-0.020683
519.412031	-0.020404
519.628949	-0.020195
519.845849	-0.020229
520.062731	-0.020887
520.279594	-0.020850
520.496439	-0.020671
520.713266	-0.019737
520.930074	-0.018969
521.146865	-0.019423
521.363637	-0.020029
521.580391	-0.020512
521.797127	-0.020778
522.013844	-0.020726
522.230543	-0.021066
522.447224	-0.021410
522.663887	-0.021312
522.880532	-0.021862
523.097158	-0.021711
523.313766	-0.021260
523.530356	-0.021232
523.746928	-0.021122
523.963481	-0.020904
524.180017	-0.020365
524.396534	-0.020053
524.613032	-0.020680
524.829513	-0.020579
525.045975	-0.020088
525.262420	-0.019944
525.478845	-0.019646
525.695253	-0.020132
525.911643	-0.020158
526.128014	-0.020674
526.344367	-0.020825
526.560702	-0.020308
526.777018	-0.020443
526.993316	-0.020766
527.209597	-0.021351
527.425858	-0.021830
527.642102	-0.021480
527.858328	-0.021063
528.074535	-0.020973
528.290724	-0.020703
528.506894	-0.020547
528.723047	-0.020651
528.939181	-0.020678
529.155297	-0.020393
529.371395	-0.019892
529.587475	-0.020214
529.803536	-0.020853
530.019579	-0.020766
530.235604	-0.020416
530.451611	-0.020721
530.667600	-0.020610
530.883570	-0.020946
531.099522	-0.020870
531.315456	-0.021129
531.531372	-0.020869
531.747269	-0.020326
531.963148	-0.020277
532.179009	-0.020646
532.394852	-0.020628
532.610676	-0.020573
532.826482	-0.020228
533.042271	-0.020749
533.258040	-0.020420
533.473792	-0.020725
533.689525	-0.020860
533.905240	-0.021057
534.120937	-0.021100
534.336616	-0.021260
534.552277	-0.021435
534.767919	-0.021679
534.983543	-0.021215
535.199149	-0.021553
535.414736	-0.021563
535.630306	-0.021464
535.845857	-0.021514
536.061390	-0.021271
536.276904	-0.021493
536.492401	-0.021549
536.707879	-0.021780
536.923339	-0.022383
537.138781	-0.022180
537.354204	-0.021898
537.569610	-0.022276
537.784997	-0.022139
538.000366	-0.022522
538.215716	-0.022364
538.431049	-0.022386
538.646363	-0.021829
538.861659	-0.021661
539.076937	-0.021959
539.292196	-0.022259
539.507438	-0.021869
539.722661	-0.022086
539.937866	-0.022286
540.153052	-0.022036
540.368221	-0.021977
540.583371	-0.022296
540.798503	-0.022066
541.013617	-0.021872
541.228712	-0.021541
541.443789	-0.021523
541.658848	-0.021376
541.873889	-0.021254
542.088912	-0.021275
542.303916	-0.021413
542.518902	-0.021138
542.733870	-0.021244
542.948820	-0.020902
543.163752	-0.020893
543.378665	-0.020887
543.593560	-0.020760
543.808437	-0.020562
544.023295	-0.020573
544.238136	-0.020470
544.452958	-0.020807
544.667762	-0.020681
544.882548	-0.021064
545.097315	-0.021410
545.312064	-0.021486
545.526795	-0.021687
545.741508	-0.021711
545.956203	-0.021778
546.170879	-0.021792
546.385537	-0.021939
546.600177	-0.021944
546.814799	-0.021997
547.029402	-0.022300
547.243988	-0.022144
547.458555	-0.022399
547.673103	-0.022792
547.887634	-0.022820
548.102146	-0.022650
548.316640	-0.022530
548.531116	-0.022618
548.745574	-0.022124
548.960013	-0.021532
549.174435	-0.021937
549.388838	-0.021285
549.603222	-0.021060
549.817589	-0.020708
550.031937	-0.020967
550.246267	-0.020853
550.460579	-0.020573
550.674873	-0.021190
550.889148	-0.020617
551.103405	-0.020530
551.317644	-0.020836
551.531865	-0.020607
551.746068	-0.021207
551.960252	-0.021092
552.174418	-0.021106
552.388566	-0.021057
552.602696	-0.020863
552.816807	-0.021886
553.030900	-0.021667
553.244975	-0.021709
553.459032	-0.021574
553.673070	-0.021211
553.887091	-0.021196
554.101093	-0.020942
554.315077	-0.021071
554.529042	-0.020918
554.742990	-0.020362
554.956919	-0.020539
555.170830	-0.020674
555.384722	-0.021028
555.598597	-0.021214
555.812453	-0.021231
556.026291	-0.021493
556.240111	-0.021305
556.453913	-0.021590
556.667696	-0.021760
556.881461	-0.021773
557.095208	-0.021349
557.308937	-0.021376
557.522647	-0.021144
557.736339	-0.021072
557.950013	-0.021055
558.163669	-0.021622
558.377307	-0.021235
558.590926	-0.020977
558.804527	-0.021236
559.018110	-0.021387
559.231675	-0.021388
559.445221	-0.021275
559.658749	-0.021065
559.872259	-0.020980
560.085751	-0.020862
560.299225	-0.020764
560.512680	-0.020714
560.726117	-0.020777
560.939536	-0.021023
561.152937	-0.020708
561.366319	-0.020760
561.579683	-0.020617
561.793029	-0.020824
562.006357	-0.020555
562.219667	-0.020723
562.432958	-0.020933
562.646231	-0.020677
562.859486	-0.020356
563.072723	-0.020507
563.285941	-0.020798
563.499141	-0.020766
563.712323	-0.020822
563.925487	-0.021021
564.138632	-0.021097
564.351760	-0.021164
564.564869	-0.020960
564.777960	-0.020702
564.991032	-0.020599
565.204087	-0.020141
565.417123	-0.020218
565.630141	-0.019854
565.843140	-0.019471
566.056122	-0.019626
566.269085	-0.019358
566.482030	-0.019251
566.694957	-0.019813
566.907866	-0.019589
567.120756	-0.019551
567.333628	-0.019647
567.546482	-0.019341
567.759318	-0.019572
567.972135	-0.019296
568.184935	-0.019604
568.397716	-0.019598
568.610478	-0.019293
568.823223	-0.019428
569.035949	-0.019398
569.248657	-0.019474
569.461347	-0.019747
569.674019	-0.019551
569.886672	-0.019406
570.099308	-0.019179
570.311925	-0.019289
570.524523	-0.019168
570.737104	-0.019149
570.949666	-0.019245
571.162210	-0.019119
571.374736	-0.019075
571.587244	-0.018891
571.799733	-0.019016
572.012205	-0.018962
572.224658	-0.018708
572.437092	-0.018518
572.649509	-0.018258
572.861907	-0.018473
573.074287	-0.018282
573.286649	-0.018418
573.498993	-0.018408
573.711318	-0.018630
573.923625	-0.018628
574.135914	-0.018613
574.348185	-0.018736
574.560438	-0.018935
574.772672	-0.018545
574.984888	-0.018516
575.197086	-0.018323
575.409266	-0.018488
575.621427	-0.018090
575.833570	-0.017920
576.045695	-0.017941
576.257802	-0.017886
576.469890	-0.017771
576.681961	-0.017732
576.894013	-0.017834
577.106046	-0.017790
577.318062	-0.017706
577.530059	-0.018105
577.742039	-0.018095
577.954000	-0.017869
578.165942	-0.017415
578.377867	-0.017294
578.589773	-0.017257
578.801661	-0.017188
579.013531	-0.017043
579.225382	-0.016924
579.437216	-0.016499
579.649031	-0.016522
579.860828	-0.016580
580.072606	-0.016915
580.284367	-0.016925
580.496109	-0.017120
580.707833	-0.017090
580.919539	-0.017106
581.131227	-0.017405
581.342896	-0.017250
581.554547	-0.017381
581.766180	-0.017412
581.977795	-0.017427
582.189391	-0.017592
582.400969	-0.017205
582.612529	-0.016861
582.824071	-0.017133
583.035595	-0.016597
583.247100	-0.016603
583.458587	-0.016582
583.670056	-0.016570
583.881506	-0.016473
584.092939	-0.016239
584.304353	-0.016353
584.515749	-0.016432
584.727127	-0.016002
584.938486	-0.016276
585.149828	-0.016288
585.361151	-0.016041
585.572456	-0.015888
585.783742	-0.015930
585.995011	-0.015825
586.206261	-0.015748
586.417493	-0.015888
586.628706	-0.016028
586.839902	-0.015723
587.051079	-0.015502
587.262238	-0.015491
587.473379	-0.015512
587.684502	-0.015536
587.895606	-0.015593
588.106692	-0.015615
588.317760	-0.015364
588.528810	-0.015223
588.739841	-0.015253
588.950855	-0.015416
589.161850	-0.015375
589.372827	-0.015361
589.583785	-0.015236
589.794726	-0.015020
590.005648	-0.015209
590.216552	-0.015170
590.427437	-0.015018
590.638305	-0.014805
590.849154	-0.014439
591.059985	-0.014144
591.270798	-0.014109
591.481592	-0.014160
591.692369	-0.014154
591.903127	-0.014037
592.113867	-0.014209
592.324588	-0.014395
592.535292	-0.014643
592.745977	-0.014881
592.956644	-0.015059
593.167293	-0.014940
593.377923	-0.014626
593.588536	-0.014786
593.799130	-0.014402
594.009706	-0.014178
594.220263	-0.013855
594.430803	-0.013727
594.641324	-0.013820
594.851827	-0.013624
595.062312	-0.013689
595.272778	-0.013722
595.483227	-0.013530
595.693657	-0.013569
595.904069	-0.013534
596.114462	-0.013515
596.324838	-0.013190
596.535195	-0.013004
596.745534	-0.013030
596.955855	-0.012743
597.166157	-0.012523
597.376441	-0.012607
597.586707	-0.012696
597.796955	-0.012692
598.007185	-0.012714
598.217396	-0.012977
598.427589	-0.013054
598.637764	-0.012967
598.847921	-0.012955
599.058060	-0.013120
599.268180	-0.012910
599.478282	-0.012714
599.688366	-0.012677
599.898431	-0.012589
600.108479	-0.012406
600.318508	-0.012180
600.528519	-0.012361
600.738511	-0.012508
600.948486	-0.012150
601.158442	-0.012217
601.368380	-0.012282
601.578300	-0.012207
601.788202	-0.012416
601.998085	-0.012476
602.207950	-0.012597
602.417797	-0.012469
602.627626	-0.012157
602.837436	-0.012246
603.047228	-0.012293
603.257002	-0.012157
603.466758	-0.012067
603.676496	-0.011907
603.886215	-0.011837
604.095916	-0.011525
604.305599	-0.011429
604.515264	-0.011471
604.724910	-0.011388
604.934538	-0.011086
605.144148	-0.011234
605.353740	-0.011344
605.563314	-0.011337
605.772869	-0.011222
605.982406	-0.011159
606.191925	-0.010871
606.401425	-0.010913
606.610908	-0.011051
606.820372	-0.011106
607.029818	-0.010927
607.239246	-0.010852
607.448655	-0.010550
607.658047	-0.010726
607.867420	-0.010878
608.076775	-0.011023
608.286111	-0.011011
608.495430	-0.010786
608.704730	-0.010891
608.914012	-0.010744
609.123275	-0.010609
609.332521	-0.010745
609.541748	-0.010543
609.750957	-0.010362
609.960148	-0.010337
610.169321	-0.010124
610.378475	-0.010008
610.587611	-0.009763
610.796729	-0.009764
611.005829	-0.009742
611.214910	-0.009598
611.423974	-0.009607
611.633019	-0.009458
611.842045	-0.009108
612.051054	-0.009287
612.260044	-0.009561
612.469017	-0.009506
612.677970	-0.009495
612.886906	-0.009393
613.095824	-0.009415
613.304723	-0.009219
613.513604	-0.009337
613.722467	-0.009590
613.931311	-0.009228
614.140138	-0.009086
614.348946	-0.009138
614.557736	-0.009064
614.766507	-0.009021
614.975261	-0.008844
615.183996	-0.008892
615.392713	-0.008839
615.601412	-0.008746
615.810092	-0.008822
616.018754	-0.008760
616.227399	-0.008680
616.436024	-0.008592
616.644632	-0.008635
616.853222	-0.008559
617.061793	-0.008283
617.270346	-0.008154
617.478880	-0.008129
617.687397	-0.008249
617.895895	-0.008112
618.104375	-0.008018
618.312837	-0.007895
618.521281	-0.007768
618.729706	-0.007945
618.938113	-0.008034
619.146502	-0.008051
619.354873	-0.007954
619.563226	-0.007804
619.771560	-0.007687
619.979876	-0.007800
620.188174	-0.007655
620.396453	-0.007536
620.604715	-0.007495
620.812958	-0.007408
621.021183	-0.007245
621.229390	-0.007272
621.437578	-0.007096
621.645748	-0.007210
621.853900	-0.007056
622.062034	-0.007066
622.270150	-0.007144
622.478247	-0.007072
622.686326	-0.007116
622.894387	-0.007091
623.102430	-0.007115
623.310454	-0.007126
623.518461	-0.006993
623.726449	-0.006946
623.934418	-0.007099
624.142370	-0.007152
624.350303	-0.006866
624.558218	-0.006977
624.766115	-0.007066
624.973994	-0.006973
625.181855	-0.007143
625.389697	-0.007244
625.597521	-0.007238
625.805327	-0.007229
626.013114	-0.006975
626.220883	-0.007162
626.428634	-0.007173
626.636367	-0.007089
626.844082	-0.006984
627.051778	-0.006868
627.259457	-0.006820
627.467117	-0.006746
627.674758	-0.006697
627.882382	-0.006761
628.089987	-0.006606
628.297574	-0.006512
628.505143	-0.006618
628.712694	-0.006591
628.920226	-0.006687
629.127740	-0.006546
629.335236	-0.006427
629.542714	-0.006422
629.750174	-0.006406
629.957615	-0.006241
630.165038	-0.006131
630.372443	-0.005836
630.579829	-0.005607
630.787198	-0.005344
630.994548	-0.005389
631.201880	-0.005468
631.409194	-0.005154
631.616489	-0.005095
631.823766	-0.005136
632.031025	-0.004985
632.238266	-0.005109
632.445489	-0.005306
632.652693	-0.005312
632.859879	-0.005137
633.067047	-0.005028
633.274197	-0.005159
633.481329	-0.005092
633.688442	-0.005141
633.895537	-0.005175
634.102614	-0.004954
634.309672	-0.005041
634.516713	-0.004815
634.723735	-0.004802
634.930739	-0.004582
635.137724	-0.004545
635.344692	-0.004371
635.551641	-0.004240
635.758572	-0.004152
635.965485	-0.004081
636.172379	-0.003778
636.379256	-0.003785
636.586114	-0.003731
636.792954	-0.004069
636.999775	-0.003942
637.206579	-0.003926
637.413364	-0.003911
637.620131	-0.003953
637.826880	-0.004066
638.033610	-0.003886
638.240323	-0.003900
638.447017	-0.003850
638.653692	-0.003547
638.860350	-0.003504
639.066990	-0.003572
639.273611	-0.003387
639.480214	-0.003203
639.686798	-0.003175
639.893365	-0.003306
640.099913	-0.003334
640.306443	-0.003345
640.512955	-0.003427
640.719449	-0.003509
640.925924	-0.003387
641.132381	-0.003624
641.338820	-0.003548
641.545241	-0.003551
641.751644	-0.003478
641.958028	-0.003171
642.164394	-0.003099
642.370742	-0.002971
642.577071	-0.002865
642.783383	-0.002769
642.989676	-0.002613
643.195951	-0.002631
643.402207	-0.002432
643.608446	-0.002327
643.814666	-0.002540
644.020868	-0.002708
644.227052	-0.002780
644.433218	-0.002819
644.639365	-0.002949
644.845494	-0.002951
645.051605	-0.002967
645.257698	-0.003086
645.463772	-0.003106
645.669828	-0.003089
645.875866	-0.002940
646.081886	-0.002810
646.287888	-0.002809
646.493871	-0.002829
646.699836	-0.002980
646.905783	-0.002951
647.111712	-0.002919
647.317622	-0.003020
647.523514	-0.002991
647.729388	-0.002939
647.935244	-0.002781
648.141082	-0.002584
648.346901	-0.002395
648.552702	-0.002235
648.758485	-0.002119
648.964250	-0.002023
649.169996	-0.001938
649.375724	-0.001723
649.581434	-0.001640
649.787126	-0.001704
649.992800	-0.001614
650.198455	-0.001485
650.404092	-0.001278
650.609711	-0.001352
650.815311	-0.001267
651.020894	-0.001309
651.226458	-0.001496
651.432004	-0.001384
651.637532	-0.001464
651.843041	-0.001480
652.048532	-0.001618
652.254006	-0.001610
652.459460	-0.001380
652.664897	-0.001357
652.870315	-0.001266
653.075716	-0.001126
653.281097	-0.001311
653.486461	-0.001143
653.691807	-0.001078
653.897134	-0.000892
654.102443	-0.000877
654.307734	-0.000913
654.513006	-0.000824
654.718261	-0.000564
654.923497	-0.000488
655.128715	-0.000260
655.333915	-0.000126
655.539096	-0.000233
655.744259	-0.000376
655.949404	-0.000459
656.154531	-0.000503
656.359640	-0.000496
656.564730	-0.000583
656.769802	-0.000572
656.974856	-0.000572
657.179892	-0.000600
657.384909	-0.000556
657.589908	-0.000490
657.794889	-0.000231
657.999852	-0.000073
658.204797	-0.000041
658.409723	-0.000012
658.614631	-0.000024
658.819521	0.000036
659.024393	0.000095
659.229246	0.000228
659.434081	0.000319
659.638898	0.000313
659.843697	0.000236
660.048478	0.000278
660.253240	0.000209
660.457984	0.000327
660.662710	0.000408
660.867417	0.000293
661.072107	0.000232
661.276778	0.000316
661.481431	0.000360
661.686066	0.000491
661.890682	0.000405
662.095281	0.000486
662.299861	0.000372
662.504422	0.000343
662.708966	0.000350
662.913491	0.000498
663.117999	0.000502
663.322488	0.000484
663.526958	0.000376
663.731411	0.000624
663.935845	0.000747
664.140261	0.000986
664.344659	0.001185
664.549038	0.001262
664.753400	0.001293
664.957743	0.001273
665.162068	0.001407
665.366375	0.001457
665.570663	0.001350
665.774933	0.001291
665.979185	0.001180
666.183419	0.001159
666.387635	0.001402
666.591832	0.001353
666.796011	0.001440
667.000172	0.001463
667.204315	0.001688
667.408439	0.001927
667.612545	0.002071
667.816634	0.002240
668.020703	0.002126
668.224755	0.002218
668.428788	0.002242
668.632803	0.002394
668.836800	0.002315
669.040779	0.002327
669.244739	0.002400
669.448681	0.002435
669.652605	0.002427
669.856511	0.002634
670.060399	0.002611
670.264268	0.002705
670.468119	0.002631
670.671952	0.002756
670.875767	0.002788
671.079563	0.002615
671.283341	0.002660
671.487101	0.002928
671.690843	0.002969
671.894567	0.002835
672.098272	0.002966
672.301959	0.003122
672.505628	0.003221
672.709278	0.003267
672.912911	0.003496
673.116525	0.003612
673.320121	0.003511
673.523699	0.003554
673.727258	0.003746
673.930799	0.003713
674.134322	0.003692
674.337827	0.003714
674.541314	0.003746
674.744782	0.003781
674.948232	0.003973
675.151664	0.003980
675.355078	0.004085
675.558474	0.004044
675.761851	0.004227
675.965210	0.004208
676.168551	0.004354
676.371873	0.004434
676.575178	0.004483
676.778464	0.004311
676.981732	0.004336
677.184981	0.004308
677.388213	0.004434
677.591426	0.004426
677.794621	0.004512
677.997798	0.004385
678.200956	0.004348
678.404097	0.004458
678.607219	0.004549
678.810323	0.004663
679.013408	0.004708
679.216476	0.004882
679.419525	0.005049
679.622556	0.005233
679.825569	0.005407
680.028563	0.005496
680.231540	0.005564
680.434498	0.005683
680.637438	0.005943
680.840359	0.006193
681.043263	0.006122
681.246148	0.006221
681.449015	0.006105
681.651864	0.006030
681.854694	0.005875
682.057506	0.005717
682.260301	0.005786
682.463076	0.005550
682.665834	0.005444
682.868573	0.005487
683.071295	0.005275
683.273998	0.005251
683.476682	0.005410
683.679349	0.005611
683.881997	0.005692
684.084627	0.005499
684.287239	0.005611
684.489833	0.005587
684.692408	0.005555
684.894965	0.005676
685.097504	0.005833
685.300025	0.005742
685.502527	0.005736
685.705012	0.005754
685.907478	0.005980
686.109925	0.005792
686.312355	0.005915
686.514766	0.006107
686.717159	0.006242
686.919534	0.006347
687.121891	0.006569
687.324230	0.006681
687.526550	0.006750
687.728852	0.006715
687.931136	0.006903
688.133401	0.006895
688.335649	0.007010
688.537878	0.006902
688.740089	0.006910
688.942281	0.006804
689.144456	0.006798
689.346612	0.006921
689.548750	0.006969
689.750870	0.007094
689.952971	0.007289
690.155055	0.007119
690.357120	0.007113
690.559167	0.007142
690.761195	0.007182
690.963206	0.007249
691.165198	0.007063
691.367172	0.007059
691.569128	0.007117
691.771065	0.006873
691.972984	0.006850
692.174885	0.006917
692.376768	0.006895
692.578633	0.006959
692.780479	0.006970
692.982308	0.007179
693.184118	0.007229
693.385909	0.007134
693.587683	0.007227
693.789438	0.007305
693.991175	0.007451
694.192894	0.007631
694.394595	0.007759
694.596277	0.007770
694.797941	0.007828
694.999587	0.007904
695.201215	0.008065
695.402824	0.008248
695.604416	0.008185
695.805989	0.008358
696.007543	0.008228
696.209080	0.008187
696.410598	0.008360
696.612099	0.008273
696.813580	0.008252
697.015044	0.008323
697.216490	0.008293
697.417917	0.008588
697.619326	0.008445
697.820717	0.008625
698.022089	0.008727
698.223444	0.008629
698.424780	0.008713
698.626098	0.008789
698.827397	0.008703
699.028679	0.008829
699.229942	0.008823
699.431187	0.008856
699.632414	0.008830
699.833622	0.008686
700.034813	0.008785
700.235985	0.008677
700.437139	0.008633
700.638274	0.008703
700.839392	0.008667
701.040491	0.008568
701.241572	0.008502
701.442635	0.008552
701.643679	0.008568
701.844706	0.008578
702.045714	0.008715
702.246704	0.008787
702.447675	0.008915
702.648629	0.008915
702.849564	0.009149
703.050481	0.009315
703.251380	0.009308
703.452260	0.009532
703.653122	0.009717
703.853966	0.009832
704.054792	0.009988
704.255600	0.009898
704.456389	0.009823
704.657160	0.009591
704.857913	0.009605
705.058648	0.009799
705.259365	0.009712
705.460063	0.009572
705.660743	0.009609
705.861405	0.009625
706.062048	0.009772
706.262674	0.009901
706.463281	0.009988
706.663870	0.009945
706.864441	0.009816
707.064993	0.009794
707.265527	0.009811
707.466043	0.009748
707.666541	0.009607
707.867021	0.009550
708.067482	0.009555
708.267925	0.009550
708.468350	0.009632
708.668757	0.009556
708.869145	0.009646
709.069516	0.009763
709.269868	0.009858
709.470201	0.009978
709.670517	0.009969
709.870814	0.009961
710.071093	0.009904
710.271354	0.009789
710.471597	0.009839
710.671821	0.009717
710.872028	0.009599
711.072216	0.009479
711.272385	0.009380
711.472537	0.009239
711.672670	0.009245
711.872785	0.009382
712.072882	0.009548
712.272961	0.009548
712.473021	0.009773
712.673063	0.009815
712.873087	0.009803
713.073093	0.009842
713.273081	0.009929
713.473050	0.009790
713.673001	0.009769
713.872934	0.009599
714.072849	0.009558
714.272745	0.009399
714.472623	0.009376
714.672483	0.009437
714.872325	0.009565
715.072148	0.009487
715.271954	0.009606
715.471741	0.009631
715.671509	0.009746
715.871260	0.009976
716.070992	0.009983
716.270707	0.009998
716.470403	0.009991
716.670080	0.009860
716.869740	0.009998
717.069381	0.009878
717.269004	0.009866
717.468609	0.009823
717.668195	0.009702
717.867764	0.009774
718.067314	0.009681
718.266846	0.009719
718.466360	0.009668
718.665855	0.009526
718.865332	0.009603
719.064791	0.009482
719.264232	0.009479
719.463655	0.009269
719.663059	0.009044
719.862445	0.009164
720.061813	0.009139
720.261163	0.009039
720.460494	0.009034
720.659807	0.009183
720.859102	0.009119
721.058379	0.009097
721.257638	0.009116
721.456878	0.009257
721.656100	0.009256
721.855304	0.009190
722.054490	0.009456
722.253657	0.009504
722.452806	0.009372
722.651937	0.009626
722.851050	0.009450
723.050145	0.009557
723.249221	0.009603
723.448279	0.009443
723.647319	0.009498
723.846340	0.009382
724.045344	0.009313
724.244329	0.009283
724.443296	0.009155
724.642245	0.009281
724.841175	0.009331
725.040088	0.009274
725.238982	0.009372
725.437857	0.009351
725.636715	0.009207
725.835554	0.009243
726.034376	0.009290
726.233179	0.009383
726.431963	0.009461
726.630730	0.009431
726.829478	0.009314
727.028208	0.009277
727.226920	0.009220
727.425614	0.009262
727.624289	0.009176
727.822946	0.009027
728.021585	0.008985
728.220206	0.008766
728.418808	0.008660
728.617392	0.008765
728.815958	0.008689
729.014506	0.008603
729.213036	0.008540
729.411547	0.008554
729.610040	0.008575
729.808515	0.008457
730.006972	0.008654
730.205410	0.008641
730.403831	0.008571
730.602233	0.008558
730.800616	0.008640
730.998982	0.008529
731.197329	0.008558
731.395658	0.008380
731.593969	0.008213
731.792262	0.008089
731.990536	0.007928
732.188793	0.007849
732.387031	0.007786
732.585250	0.007715
732.783452	0.007729
732.981635	0.007718
733.179800	0.007752
733.377947	0.007699
733.576076	0.007635
733.774186	0.007764
733.972278	0.007837
734.170352	0.007886
734.368408	0.007841
734.566446	0.007964
734.764465	0.007973
734.962466	0.007945
735.160449	0.007946
735.358413	0.007862
735.556360	0.007608
735.754288	0.007497
735.952198	0.007337
736.150090	0.007135
736.347963	0.006985
736.545818	0.006903
736.743655	0.006749
736.941474	0.006565
737.139275	0.006551
737.337057	0.006547
737.534821	0.006605
737.732567	0.006505
737.930295	0.006620
738.128005	0.006656
738.325696	0.006774
738.523369	0.006761
738.721024	0.006974
738.918660	0.006849
739.116279	0.007082
739.313879	0.006932
739.511461	0.007011
739.709024	0.006923
739.906570	0.006867
740.104097	0.006587
740.301606	0.006790
740.499097	0.006780
740.696569	0.006856
740.894024	0.006603
741.091460	0.006689
741.288878	0.006726
741.486277	0.006742
741.683659	0.006732
741.881022	0.006753
742.078367	0.006605
742.275694	0.006665
742.473002	0.006638
742.670293	0.006759
742.867565	0.006702
743.064819	0.006744
743.262054	0.006813
743.459272	0.006933
743.656471	0.006788
743.853652	0.006821
744.050815	0.006698
744.247959	0.006726
744.445085	0.006755
744.642194	0.006590
744.839283	0.006495
745.036355	0.006403
745.233408	0.006118
745.430444	0.006168
745.627461	0.006044
745.824459	0.006039
746.021440	0.006111
746.218402	0.006142
746.415346	0.006351
746.612272	0.006350
746.809180	0.006647
747.006069	0.006772
747.202940	0.006904
747.399793	0.007052
747.596628	0.007117
747.793444	0.007092
747.990243	0.007116
748.187023	0.007000
748.383784	0.006940
748.580528	0.006783
748.777253	0.006710
748.973960	0.006660
749.170649	0.006752
749.367320	0.006783
749.563973	0.006788
749.760607	0.006718
749.957223	0.006826
750.153821	0.006824
750.350400	0.006845
750.546962	0.006907
750.743505	0.006966
750.940030	0.006792
751.136536	0.006765
751.333025	0.006741
751.529495	0.006464
751.725947	0.006339
751.922381	0.006302
752.118796	0.006286
752.315194	0.006192
752.511573	0.006181
752.707934	0.006382
752.904276	0.006323
753.100601	0.006277
753.296907	0.006602
753.493195	0.006676
753.689465	0.006772
753.885716	0.006481
754.081949	0.006560
754.278164	0.006539
754.474361	0.006252
754.670540	0.006169
754.866700	0.006050
755.062843	0.005877
755.258967	0.005907
755.455072	0.005942
755.651160	0.006045
755.847229	0.006020
756.043280	0.005765
756.239313	0.005836
756.435328	0.005987
756.631324	0.006076
756.827302	0.006118
757.023262	0.006041
757.219204	0.005834
757.415127	0.005782
757.611033	0.005741
757.806920	0.005996
758.002788	0.006083
758.198639	0.005837
758.394471	0.005633
758.590286	0.005414
758.786081	0.005224
758.981859	0.005402
759.177619	0.005501
759.373360	0.005483
759.569083	0.005368
759.764788	0.005326
759.960474	0.005458
760.156143	0.005607
760.351793	0.005804
760.547425	0.005789
760.743038	0.005526
760.938634	0.005392
761.134211	0.005274
761.329770	0.005156
761.525311	0.005218
761.720833	0.005157
761.916338	0.005147
762.111824	0.005056
762.307292	0.005205
762.502741	0.005379
762.698173	0.005395
762.893586	0.005566
763.088981	0.005635
763.284358	0.005584
763.479716	0.005605
763.675057	0.005718
763.870379	0.005819
764.065683	0.005757
764.260968	0.005775
764.456236	0.005763
764.651485	0.005694
764.846716	0.005670
765.041929	0.005585
765.237123	0.005636
765.432299	0.005432
765.627457	0.005305
765.822597	0.005351
766.017719	0.005271
766.212822	0.005336
766.407907	0.005307
766.602974	0.005367
766.798023	0.005363
766.993054	0.005221
767.188066	0.005175
767.383060	0.005300
767.578036	0.005241
767.772993	0.005284
767.967933	0.005196
768.162854	0.005236
768.357757	0.005105
768.552642	0.004982
768.747508	0.004941
768.942356	0.005011
769.137186	0.004905
769.331998	0.004969
769.526792	0.005048
769.721567	0.005069
769.916324	0.005008
770.111063	0.005047
770.305784	0.004916
770.500486	0.004996
770.695171	0.005183
770.889837	0.005068
771.084484	0.005001
771.279114	0.005098
771.473725	0.005198
771.668318	0.005244
771.862893	0.005214
772.057450	0.005463
772.251988	0.005575
772.446509	0.005471
772.641011	0.005508
772.835494	0.005595
773.029960	0.005225
773.224407	0.005081
773.418836	0.005020
773.613247	0.005105
773.807640	0.005153
774.002014	0.005209
774.196370	0.005203
774.390708	0.005349
774.585028	0.005372
774.779330	0.005541
774.973613	0.005706
775.167878	0.005715
775.362125	0.005675
775.556354	0.005602
775.750564	0.005670
775.944756	0.005545
776.138930	0.005586
776.333086	0.005512
776.527223	0.005484
776.721343	0.005304
776.915444	0.005276
777.109526	0.005421
777.303591	0.005561
777.497637	0.005339
777.691666	0.005392
777.885676	0.005175
778.079667	0.005195
778.273641	0.005168
778.467596	0.004935
778.661533	0.004874
778.855452	0.004736
779.049352	0.004552
779.243235	0.004616
779.437099	0.004693
779.630945	0.004801
779.824773	0.004809
780.018582	0.004936
780.212373	0.005239
780.406146	0.005512
780.599901	0.005558
780.793638	0.005631
780.987356	0.005494
781.181056	0.005437
781.374738	0.005436
781.568402	0.005430
781.762047	0.005337
781.955674	0.005302
782.149283	0.005115
782.342874	0.005116
782.536447	0.005087
782.730001	0.005211
782.923537	0.005099
783.117055	0.005162
783.310555	0.005064
783.504036	0.005193
783.697499	0.005242
783.890944	0.005376
784.084371	0.005385
784.277780	0.005442
784.471170	0.005397
784.664542	0.005581
784.857896	0.005463
785.051231	0.005422
785.244549	0.005270
785.437848	0.005152
785.631129	0.005053
785.824392	0.004989
786.017636	0.005013
786.210863	0.005079
786.404071	0.005094
786.597260	0.005213
786.790432	0.005493
786.983585	0.005692
787.176721	0.005821
787.369838	0.005925
787.562936	0.006051
787.756017	0.006080
787.949079	0.005979
788.142123	0.005908
788.335149	0.006114
788.528156	0.006058
788.721146	0.005967
788.914117	0.006072
789.107070	0.006147
789.300005	0.006154
789.492921	0.006144
789.685819	0.006240
789.878699	0.006355
790.071561	0.006403
790.264405	0.006301
790.457230	0.006204
790.650037	0.006067
790.842826	0.005891
791.035597	0.005892
791.228349	0.005890
791.421084	0.005717
791.613800	0.005577
791.806497	0.005247
791.999177	0.005246
792.191838	0.005281
792.384481	0.005428
792.577106	0.005570
792.769713	0.005603
792.962301	0.005646
793.154871	0.005761
793.347423	0.005832
793.539957	0.005854
793.732473	0.005811
793.924970	0.005912
794.117449	0.005954
794.309910	0.006083
794.502353	0.005995
794.694777	0.005978
794.887183	0.006146
795.079571	0.006168
795.271941	0.006341
795.464293	0.006547
795.656626	0.006640
795.848941	0.006561
796.041238	0.006294
796.233516	0.006643
796.425777	0.006634
796.618019	0.006700
796.810243	0.006778
797.002449	0.006893
797.194636	0.006966
797.386805	0.006963
797.578956	0.006914
797.771089	0.007112
797.963204	0.006922
798.155300	0.007018
798.347378	0.006937
798.539438	0.007046
798.731480	0.006912
798.923503	0.006763
799.115509	0.006701
799.307496	0.006928
799.499465	0.006885
799.691415	0.007010
799.883348	0.006965
800.075262	0.006919
800.267158	0.007034
800.459035	0.006980
800.650895	0.007039
800.842736	0.007159
801.034559	0.007075
801.226364	0.007228
801.418150	0.007079
801.609919	0.007188
801.801669	0.007295
801.993401	0.007094
802.185114	0.007149
802.376810	0.007218
802.568487	0.007220
802.760146	0.007490
802.951787	0.007308
803.143409	0.007177
803.335014	0.007164
803.526600	0.007129
803.718168	0.007123
803.909717	0.007256
804.101249	0.007309
804.292762	0.007206
804.484257	0.006800
804.675734	0.006936
804.867192	0.007066
805.058632	0.006883
805.250054	0.006917
805.441458	0.006996
805.632844	0.006966
805.824211	0.006923
806.015561	0.007143
806.206891	0.007118
806.398204	0.007102
806.589499	0.007164
806.780775	0.007228
806.972033	0.007241
807.163273	0.007264
807.354495	0.007397
807.545698	0.007430
807.736883	0.007387
807.928050	0.007619
808.119199	0.007757
808.310329	0.008036
808.501441	0.008276
808.692535	0.008409
808.883611	0.008519
809.074669	0.008380
809.265708	0.008545
809.456729	0.008520
809.647732	0.008619
809.838717	0.008658
810.029683	0.008640
810.220632	0.008754
810.411562	0.008736
810.602474	0.008613
810.793367	0.008862
810.984242	0.008978
811.175100	0.009264
811.365938	0.009497
811.556759	0.009392
811.747562	0.009305
811.938346	0.009193
812.129112	0.009183
812.319860	0.009384
812.510589	0.009356
812.701300	0.009367
812.891994	0.009359
813.082668	0.009190
813.273325	0.009302
813.463964	0.009293
813.654584	0.009385
813.845186	0.009356
814.035769	0.009279
814.226335	0.009364
814.416882	0.009223
814.607411	0.009175
814.797922	0.009301
814.988415	0.009345
815.178889	0.009320
815.369345	0.009506
815.559783	0.009837
815.750203	0.010002
815.940605	0.010188
816.130988	0.010077
816.321353	0.010079
816.511700	0.009996
816.702028	0.009963
816.892339	0.010221
817.082631	0.010212
817.272905	0.010058
817.463161	0.010132
817.653398	0.010055
817.843617	0.010242
818.033819	0.010277
818.224001	0.010202
818.414166	0.010292
818.604312	0.010206
818.794440	0.010079
818.984550	0.010190
819.174642	0.010064
819.364716	0.009951
819.554771	0.009958
819.744808	0.010130
819.934827	0.010469
820.124827	0.010488
820.314810	0.010594
820.504774	0.010817
820.694720	0.010875
820.884647	0.010918
821.074557	0.010954
821.264448	0.011026
821.454321	0.010999
821.644176	0.010788
821.834012	0.011026
822.023831	0.011142
822.213631	0.011143
822.403413	0.011135
822.593176	0.011347
822.782922	0.011365
822.972649	0.011321
823.162358	0.011348
823.352049	0.011360
823.541721	0.011106
823.731376	0.010999
823.921012	0.011008
824.110629	0.011023
824.300229	0.010843
824.489811	0.010925
824.679374	0.011052
824.868919	0.010973
825.058445	0.011122
825.247954	0.011347
825.437444	0.011143
825.626916	0.011043
825.816370	0.010958
826.005806	0.011152
826.195223	0.011183
826.384622	0.011207
826.574003	0.011253
826.763366	0.011314
826.952711	0.011203
827.142037	0.011469
827.331345	0.011547
827.520635	0.011725
827.709906	0.011804
827.899160	0.011729
828.088395	0.011765
828.277612	0.011698
828.466810	0.011774
828.655991	0.012023
828.845153	0.011910
829.034297	0.011866
829.223423	0.012013
829.412531	0.012026
829.601620	0.012169
829.790691	0.012086
829.979744	0.012225
830.168779	0.012143
830.357795	0.012095
830.546793	0.012171
830.735773	0.012186
830.924735	0.012110
831.113679	0.012208
831.302604	0.012309
831.491511	0.012594
831.680400	0.012561
831.869271	0.012603
832.058123	0.012682
832.246957	0.012982
832.435773	0.013351
832.624571	0.013433
832.813351	0.013405
833.002112	0.013325
833.190855	0.013445
833.379580	0.013590
833.568287	0.013677
833.756975	0.013667
833.945645	0.013672
834.134297	0.013366
834.322931	0.013357
834.511547	0.013198
834.700144	0.013205
834.888723	0.012925
835.077284	0.013026
835.265826	0.013013
835.454351	0.013043
835.642857	0.012826
835.831345	0.012962
836.019815	0.013086
836.208266	0.013198
836.396699	0.013365
836.585114	0.013622
836.773511	0.013792
836.961890	0.013932
837.150250	0.014204
837.338592	0.014271
837.526916	0.014473
837.715222	0.014557
837.903510	0.014794
838.091779	0.014811
838.280030	0.014818
838.468263	0.014688
838.656477	0.014787
838.844674	0.014574
839.032852	0.014785
839.221012	0.014680
839.409153	0.014761
839.597277	0.014636
839.785382	0.014790
839.973469	0.014766
840.161538	0.015012
840.349589	0.015230
840.537621	0.015444
840.725635	0.015632
840.913631	0.015710
841.101609	0.015704
841.289568	0.015948
841.477509	0.015966
841.665432	0.016176
841.853337	0.016247
842.041224	0.016229
842.229092	0.016173
842.416942	0.016039
842.604774	0.016333
842.792588	0.016412
842.980383	0.016364
843.168160	0.016460
843.355919	0.016514
843.543660	0.016523
843.731382	0.016508
843.919087	0.016741
844.106773	0.017082
844.294441	0.016987
844.482090	0.016994
844.669722	0.017071
844.857335	0.017155
845.044930	0.017108
845.232507	0.017299
845.420065	0.017428
845.607605	0.017566
845.795127	0.017434
845.982631	0.017512
846.170117	0.017539
846.357584	0.017495
846.545033	0.017790
846.732464	0.017862
846.919877	0.017803
847.107272	0.017885
847.294648	0.017855
847.482006	0.018028
847.669346	0.018121
847.856667	0.018311
848.043971	0.018396
848.231256	0.018395
848.418523	0.018582
848.605771	0.018664
848.793002	0.018767
848.980214	0.018634
849.167408	0.018893
849.354584	0.019042
849.541742	0.019195
849.728881	0.019450
849.916002	0.019214
850.103105	0.019567
850.290190	0.019436
850.477256	0.019348
850.664304	0.019626
850.851334	0.019469
851.038346	0.019514
851.225340	0.019592
851.412315	0.019776
851.599272	0.020142
851.786211	0.020061
851.973132	0.020322
852.160034	0.020403
852.346918	0.020363
852.533784	0.020558
852.720632	0.020707
852.907462	0.020849
853.094273	0.020779
853.281066	0.020841
853.467841	0.020963
853.654598	0.021165
853.841336	0.021518
854.028056	0.021815
854.214758	0.021778
854.401442	0.021813
854.588107	0.021760
854.774755	0.021953
854.961384	0.021989
855.147995	0.022085
855.334587	0.022067
855.521162	0.022207
855.707718	0.022253
855.894256	0.022319
856.080775	0.022529
856.267277	0.022623
856.453760	0.022689
856.640225	0.022580
856.826672	0.022470
857.013101	0.022494
857.199511	0.022238
857.385903	0.022016
857.572277	0.022232
857.758633	0.022079
857.944970	0.022219
858.131290	0.022160
858.317591	0.022519
858.503873	0.022749
858.690138	0.022660
858.876384	0.023032
859.062612	0.023140
859.248822	0.023219
859.435014	0.023411
859.621188	0.023455
859.807343	0.023552
859.993480	0.023470
860.179599	0.023334
860.365699	0.023624
860.551781	0.023656
860.737846	0.023865
860.923891	0.023930
861.109919	0.024089
861.295929	0.024226
861.481920	0.024459
861.667893	0.024459
861.853848	0.024768
862.039784	0.024888
862.225702	0.024842
862.411603	0.024977
862.597484	0.024952
862.783348	0.025082
862.969193	0.025152
863.155021	0.025311
863.340830	0.025609
863.526620	0.025756
863.712393	0.025640
863.898147	0.025758
864.083883	0.025994
864.269601	0.026284
864.455301	0.026104
864.640982	0.026059
864.826645	0.025960
865.012290	0.025836
865.197917	0.025932
865.383526	0.026086
865.569116	0.026105
865.754688	0.026073
865.940242	0.025792
866.125777	0.026124
866.311295	0.026430
866.496794	0.026608
866.682275	0.026783
866.867737	0.026564
867.053182	0.026846
867.238608	0.027088
867.424016	0.027375
867.609406	0.027661
867.794778	0.027925
867.980131	0.027839
868.165466	0.028008
868.350783	0.028085
868.536082	0.028199
868.721362	0.028338
868.906625	0.028033
869.091869	0.027719
869.277094	0.027875
869.462302	0.027453
869.647491	0.027167
869.832662	0.027261
870.017815	0.027061
870.202950	0.027181
870.388066	0.026846
870.573165	0.027483
870.758245	0.027551
870.943306	0.027608
871.128350	0.027846
871.313375	0.028188
871.498382	0.028034
871.683371	0.028462
871.868342	0.028387
872.053294	0.028838
872.238229	0.028563
872.423144	0.028817
872.608042	0.028850
872.792922	0.028997
872.977783	0.029289
873.162626	0.029400
873.347451	0.029135
873.532258	0.029329
873.717046	0.029053
873.901816	0.029209
874.086568	0.029279
874.271302	0.029337
874.456017	0.029426
874.640715	0.029191
874.825394	0.029161
875.010055	0.029578
875.194697	0.029608
875.379322	0.029790
875.563928	0.029757
875.748516	0.029783
875.933085	0.029775
876.117637	0.029655
876.302170	0.029843
876.486685	0.029691
876.671182	0.029578
876.855661	0.029714
877.040121	0.029724
877.224563	0.029755
877.408987	0.029726
877.593393	0.029735
877.777780	0.029871
877.962150	0.029990
878.146501	0.030336
878.330833	0.030412
878.515148	0.030287
878.699444	0.030267
878.883722	0.030413
879.067982	0.030496
879.252224	0.030448
879.436447	0.030589
879.620653	0.030535
879.804840	0.030554
879.989008	0.030665
880.173159	0.030634
880.357291	0.030874
880.541405	0.030952
880.725501	0.031207
880.909579	0.031209
881.093638	0.031176
881.277680	0.031295
881.461703	0.031430
881.645707	0.031586
881.829694	0.031684
882.013662	0.031636
882.197612	0.031601
882.381544	0.031205
882.565458	0.031411
882.749353	0.031362
882.933230	0.031104
883.117089	0.031124
883.300930	0.030953
883.484753	0.031005
883.668557	0.030828
883.852343	0.030667
884.036111	0.030957
884.219861	0.030686
884.403592	0.030915
884.587305	0.031141
884.771000	0.030951
884.954677	0.030834
885.138335	0.030667
885.321976	0.030846
885.505598	0.030995
885.689201	0.030896
885.872787	0.031176
886.056354	0.030840
886.239904	0.030807
886.423434	0.030849
886.606947	0.031076
886.790442	0.031157
886.973918	0.030920
887.157376	0.030692
887.340816	0.030524
887.524237	0.030283
887.707641	0.030477
887.891026	0.030776
888.074393	0.030746
888.257741	0.030936
888.441072	0.031294
888.624384	0.031623
888.807678	0.031822
888.990954	0.032252
889.174211	0.032565
889.357451	0.032346
889.540672	0.032281
889.723875	0.032402
889.907059	0.032011
890.090226	0.031824
890.273374	0.031584
890.456504	0.031709
890.639616	0.031325
890.822709	0.031327
891.005785	0.031598
891.188842	0.031478
891.371881	0.031734
891.554901	0.031933
891.737904	0.032129
891.920888	0.032375
892.103854	0.032222
892.286802	0.032395
892.469731	0.032461
892.652643	0.032386
892.835536	0.032377
893.018410	0.032227
893.201267	0.032209
893.384106	0.032175
893.566926	0.032310
893.749728	0.032289
893.932511	0.032231
894.115277	0.031724
894.298024	0.031486
894.480753	0.031484
894.663464	0.031375
894.846157	0.031189
895.028831	0.030823
895.211487	0.030559
895.394125	0.030665
895.576745	0.030929
895.759346	0.031357
895.941930	0.031432
896.124495	0.031371
896.307041	0.031217
896.489570	0.031130
896.672080	0.031489
896.854573	0.031464
897.037046	0.031320
897.219502	0.031041
897.401940	0.030831
897.584359	0.030957
897.766760	0.031182
897.949143	0.031428
898.131507	0.031770
898.313854	0.031689
898.496182	0.031592
898.678492	0.031806
898.860783	0.031823
899.043057	0.032145
899.225312	0.032018
899.407549	0.031768
899.589768	0.031711
899.771968	0.031311
899.954151	0.031370
900.136315	0.031711
900.318461	0.031645
900.500588	0.031636
900.682698	0.031499
900.864789	0.031691
901.046862	0.031754
901.228917	0.031547
901.410953	0.031673
901.592971	0.031332
901.774972	0.031369
901.956953	0.030931
902.138917	0.031323
902.320862	0.031092
902.502790	0.030706
902.684699	0.030477
902.866589	0.030541
903.048462	0.030496
903.230316	0.030697
903.412152	0.030190
903.593970	0.030335
903.775770	0.029727
903.957551	0.029770
904.139314	0.030115
904.321059	0.030279
904.502786	0.030067
904.684494	0.029918
904.866185	0.029810
905.047857	0.029897
905.229510	0.030013
905.411146	0.029650
905.592763	0.029542
905.774363	0.029144
905.955943	0.028703
906.137506	0.028462
906.319051	0.028447
906.500577	0.028556
906.682085	0.028605
906.863575	0.028353
907.045046	0.028627
907.226500	0.028098
907.407935	0.028180
907.589352	0.028287
907.770750	0.028156
907.952131	0.028240
908.133493	0.027713
908.314837	0.027450
908.496163	0.027333
908.677470	0.027402
908.858760	0.027989
909.040031	0.027843
909.221284	0.027860
909.402518	0.028198
909.583735	0.027972
909.764933	0.028078
909.946113	0.028328
910.127275	0.028417
910.308418	0.028587
910.489544	0.028537
910.670651	0.028442
910.851740	0.028095
911.032810	0.028025
911.213863	0.028309
911.394897	0.028238
911.575913	0.027632
911.756911	0.027197
911.937890	0.026865
912.118851	0.026599
912.299794	0.026340
912.480719	0.026454
912.661626	0.026250
912.842514	0.025606
913.023384	0.025660
913.204236	0.025675
913.385070	0.025589
913.565886	0.025479
913.746683	0.025611
913.927462	0.025692
914.108223	0.025578
914.288965	0.025381
914.469690	0.025301
914.650396	0.024992
914.831084	0.025243
915.011754	0.025326
915.192405	0.024906
915.373038	0.024441
915.553653	0.024344
915.734250	0.024106
915.914829	0.024176
916.095389	0.024384
916.275931	0.024354
916.456455	0.023989
916.636961	0.023969
916.817448	0.023902
916.997917	0.023829
917.178368	0.023312
917.358801	0.022930
917.539216	0.022829
917.719612	0.022510
917.899990	0.022360
918.080350	0.022187
918.260692	0.022346
918.441015	0.022380
918.621320	0.022389
918.801607	0.022832
918.981876	0.022973
919.162127	0.022872
919.342359	0.022540
919.522573	0.022364
919.702769	0.022565
919.882947	0.021960
920.063106	0.021678
920.243247	0.021434
920.423370	0.020930
920.603475	0.020509
920.783562	0.020371
920.963630	0.020246
921.143680	0.020068
921.323712	0.019597
921.503725	0.019633
921.683721	0.019325
921.863698	0.019094
922.043657	0.019012
922.223598	0.019522
922.403520	0.019026
922.583424	0.019250
922.763311	0.018759
922.943178	0.018589
923.123028	0.018068
923.302859	0.018219
923.482673	0.018237
923.662467	0.017932
923.842244	0.017401
924.022003	0.017234
924.201743	0.016674
924.381465	0.016790
924.561169	0.016615
924.740854	0.016893
924.920522	0.016996
925.100171	0.016670
925.279802	0.016946
925.459414	0.016824
925.639009	0.016378
925.818585	0.016112
925.998143	0.015331
926.177683	0.014632
926.357205	0.014376
926.536708	0.013531
926.716193	0.013487
926.895660	0.012913
927.075109	0.012651
927.254539	0.012429
927.433951	0.012391
927.613345	0.012693
927.792721	0.012648
927.972079	0.012368
928.151418	0.012424
928.330739	0.012351
928.510042	0.011810
928.689327	0.011685
928.868593	0.011929
929.047841	0.012362
929.227071	0.012704
929.406283	0.013031
929.585476	0.012611
929.764652	0.012049
929.943809	0.011392
930.122948	0.011741
930.302068	0.011194
930.481171	0.011256
930.660255	0.010788
930.839321	0.010048
931.018369	0.009927
931.197398	0.009975
931.376409	0.010164
931.555402	0.010126
931.734377	0.009503
931.913334	0.009734
932.092272	0.009239
932.271192	0.008814
932.450094	0.008708
932.628978	0.008478
932.807844	0.008104
932.986691	0.007817
933.165520	0.007616
933.344331	0.007420
933.523123	0.006882
933.701898	0.006524
933.880654	0.006717
934.059392	0.006519
934.238111	0.006348
934.416813	0.006429
934.595496	0.006634
934.774161	0.006742
934.952808	0.006055
935.131437	0.005730
935.310047	0.005402
935.488639	0.004367
935.667213	0.004261
935.845769	0.003362
936.024306	0.003562
936.202825	0.002648
936.381326	0.002195
936.559809	0.002983
936.738274	0.002361
936.916720	0.002107
937.095148	0.002167
937.273558	0.001559
937.451950	0.001767
937.630323	0.000930
937.808678	0.001015
937.987015	0.000454
938.165334	-0.000012
938.343635	0.000610
938.521917	0.001079
938.700181	0.000270
938.878427	0.000091
939.056655	0.000141
939.234864	-0.000613
939.413055	-0.001109
939.591228	-0.001017
939.769383	-0.001321
939.947519	-0.001962
940.125638	-0.002588
940.303738	-0.002885
940.481820	-0.003042
940.659883	-0.003376
940.837929	-0.003257
941.015956	-0.003113
941.193965	-0.004100
941.371955	-0.003757
941.549928	-0.003194
941.727882	-0.003444
941.905818	-0.003199
942.083736	-0.003230
942.261636	-0.003507
942.439517	-0.003721
942.617380	-0.003738
942.795225	-0.003123
942.973052	-0.004370
943.150860	-0.005508
943.328651	-0.005696
943.506423	-0.005556
943.684176	-0.005639
943.861912	-0.006234
944.039629	-0.006449
944.217328	-0.006456
944.395009	-0.006948
944.572672	-0.006531
944.750317	-0.006033
944.927943	-0.006438
945.105551	-0.007047
945.283141	-0.007765
945.460712	-0.007803
945.638265	-0.008049
945.815801	-0.008475
945.993317	-0.008777
946.170816	-0.009231
946.348297	-0.009352
946.525759	-0.009299
946.703203	-0.008648
946.880629	-0.008032
947.058036	-0.008206
947.235425	-0.008460
947.412797	-0.008357
947.590149	-0.009146
947.767484	-0.008876
947.944800	-0.009094
948.122099	-0.008608
948.299379	-0.009296
948.476640	-0.008320
948.653884	-0.008155
948.831109	-0.007561
949.008316	-0.008816
949.185505	-0.007984
949.362676	-0.008134
949.539828	-0.009327
949.716962	-0.010185
949.894078	-0.010430
950.071176	-0.012173
950.248256	-0.012983
950.425317	-0.013912
950.602360	-0.012530
950.779385	-0.013525
950.956391	-0.012911
951.133380	-0.011850
951.310350	-0.012151
951.487302	-0.011138
951.664235	-0.010812
951.841151	-0.010598
952.018048	-0.011116
952.194927	-0.012214
952.371788	-0.010980
952.548631	-0.010981
952.725455	-0.011682
952.902261	-0.012326
953.079049	-0.013286
953.255819	-0.013966
953.432570	-0.012653
953.609303	-0.010677
953.786018	-0.010392
953.962715	-0.011636
954.139394	-0.012249
954.316054	-0.012550
954.492696	-0.010628
954.669320	-0.011503
954.845926	-0.012069
955.022513	-0.012518
955.199083	-0.013363
955.375634	-0.013046
955.552166	-0.012067
955.728681	-0.011905
955.905177	-0.011616
956.081655	-0.014075
956.258115	-0.011552
956.434557	-0.010356
956.610980	-0.010383
956.787385	-0.010991
956.963772	-0.010767
957.140141	-0.010991
957.316492	-0.009888
957.492824	-0.009174
957.669138	-0.006263
957.845434	-0.008130
958.021712	-0.008418
958.197971	-0.009236
958.374212	-0.007600
958.550435	-0.006844
958.726640	-0.006899
958.902826	-0.007667
959.078995	-0.009658
959.255145	-0.011888
959.431277	-0.011542
959.607390	-0.010038
959.783486	-0.010176
959.959563	-0.011899
960.135622	-0.012666
960.311662	-0.012644
960.487685	-0.013364
960.663689	-0.011607
960.839675	-0.011104
961.015643	-0.010317
961.191593	-0.011325
961.367524	-0.010418
961.543437	-0.010272
961.719332	-0.009413
961.895209	-0.009423
962.071067	-0.009414
962.246907	-0.008567
962.422730	-0.008247
962.598533	-0.008225
962.774319	-0.008150
962.950086	-0.008890
963.125835	-0.007069
963.301566	-0.007178
963.477279	-0.006535
963.652973	-0.007394
963.828650	-0.008308
964.004308	-0.007769
964.179947	-0.008771
964.355569	-0.009947
964.531172	-0.008676
964.706757	-0.010861
964.882324	-0.010523
965.057873	-0.011215
965.233403	-0.008691
965.408916	-0.007191
965.584410	-0.007305
965.759885	-0.007141
965.935343	-0.004992
966.110782	-0.004808
966.286203	-0.004193
966.461606	-0.004302
966.636991	-0.004604
966.812357	-0.005571
966.987705	-0.008403
967.163035	-0.008349
967.338347	-0.006811
967.513641	-0.009013
967.688916	-0.009290
967.864173	-0.008410
968.039412	-0.010267
968.214632	-0.009525
968.389835	-0.010862
968.565019	-0.009191
968.740185	-0.008418
968.915333	-0.009504
969.090462	-0.007950
969.265573	-0.008145
969.440667	-0.007557
969.615741	-0.005548
969.790798	-0.004018
969.965836	-0.001393
970.140856	-0.000896
970.315858	-0.001554
970.490842	-0.001918
970.665808	-0.004183
970.840755	-0.004176
971.015684	-0.004421
971.190595	-0.005700
971.365487	-0.007801
971.540362	-0.008798
971.715218	-0.006985
971.890056	-0.007679
972.064875	-0.007606
972.239677	-0.005855
972.414460	-0.005082
972.589225	-0.005818
972.763972	-0.007078
972.938700	-0.006215
973.113411	-0.006311
973.288103	-0.009074
973.462777	-0.007850
973.637432	-0.007697
973.812070	-0.006954
973.986689	-0.008308
974.161290	-0.007371
974.335873	-0.004693
974.510437	-0.004876
974.684984	-0.004477
974.859512	-0.003123
975.034022	-0.005601
975.208513	-0.004206
975.382987	-0.004536
975.557442	-0.004546
975.731879	-0.005220
975.906298	-0.006189
976.080698	-0.005882
976.255080	-0.007372
976.429445	-0.009657
976.603790	-0.008531
976.778118	-0.009815
976.952427	-0.009992
977.126719	-0.010452
977.300992	-0.010565
977.475246	-0.010608
977.649483	-0.010290
977.823701	-0.010156
977.997901	-0.008078
978.172083	-0.007457
978.346247	-0.006391
978.520392	-0.007024
978.694519	-0.006838
978.868628	-0.006801
979.042719	-0.006571
979.216791	-0.007960
979.390845	-0.007930
979.564882	-0.008505
979.738899	-0.008062
979.912899	-0.009138
980.086880	-0.009698
980.260843	-0.010645
980.434788	-0.009907
980.608715	-0.011121
980.782623	-0.011598
980.956514	-0.011665
981.130386	-0.012626
981.304240	-0.011458
981.478075	-0.011734
981.651892	-0.010956
981.825692	-0.009097
981.999472	-0.010844
982.173235	-0.009481
982.346980	-0.008624
982.520706	-0.006672
982.694414	-0.007130
982.868104	-0.010109
983.041775	-0.009570
983.215428	-0.009339
983.389064	-0.009395
983.562680	-0.008162
983.736279	-0.008313
983.909860	-0.008272
984.083422	-0.010959
984.256966	-0.009356
984.430491	-0.009784
984.603999	-0.010246
984.777488	-0.009396
984.950959	-0.009747
985.124412	-0.009493
985.297847	-0.010190
985.471263	-0.010665
985.644661	-0.009721
985.818041	-0.009604
985.991403	-0.008221
986.164747	-0.007278
986.338072	-0.006819
986.511379	-0.008020
986.684668	-0.008769
986.857938	-0.008687
987.031191	-0.007417
987.204425	-0.006338
987.377641	-0.006154
987.550839	-0.005822
987.724018	-0.007278
987.897179	-0.009493
988.070322	-0.007526
988.243447	-0.007193
988.416554	-0.006486
988.589642	-0.008301
988.762712	-0.009307
988.935764	-0.008096
989.108798	-0.006862
989.281813	-0.006102
989.454811	-0.006135
989.627790	-0.006151
989.800751	-0.007363
989.973693	-0.007602
990.146617	-0.006606
990.319524	-0.006273
990.492412	-0.007060
990.665281	-0.008089
990.838133	-0.006698
991.010966	-0.006127
991.183781	-0.006986
991.356578	-0.005008
991.529356	-0.004578
991.702117	-0.003982
991.874859	-0.004471
992.047583	-0.005157
992.220288	-0.005769
992.392976	-0.007693
992.565645	-0.007007
992.738296	-0.006238
992.910929	-0.007507
993.083543	-0.009775
993.256139	-0.009677
993.428718	-0.008364
993.601277	-0.008157
993.773819	-0.007864
993.946342	-0.007331
994.118848	-0.009073
994.291335	-0.008500
994.463803	-0.008871
994.636254	-0.007252
994.808686	-0.008535
994.981100	-0.010980
995.153496	-0.009891
995.325874	-0.009966
995.498233	-0.009954
995.670574	-0.010363
995.842897	-0.011030
996.015202	-0.012118
996.187488	-0.012612
996.359757	-0.011820
996.532007	-0.009460
996.704239	-0.009645
996.876452	-0.009721
997.048648	-0.010946
997.220825	-0.008689
997.392984	-0.009973
997.565124	-0.008750
997.737247	-0.007993
997.909351	-0.007111
998.081437	-0.008533
998.253505	-0.009926
998.425554	-0.008758
998.597586	-0.007549
998.769599	-0.008589
998.941594	-0.007987
999.113571	-0.008723
999.285529	-0.008305
999.457469	-0.009591
999.629391	-0.009091
999.801295	-0.010111
999.973181	-0.011081
1000.145048	-0.011023
1000.316897	-0.011247
1000.488728	-0.011963
1000.660541	-0.010426
1000.832335	-0.010432
1001.004111	-0.010465
1001.175869	-0.009822
1001.347609	-0.008615
1001.519331	-0.008737
1001.691034	-0.008701
1001.862719	-0.008527
1002.034386	-0.008457
1002.206035	-0.009461
1002.377665	-0.011542
1002.549277	-0.011127
1002.720871	-0.012120
1002.892447	-0.012948
1003.064004	-0.013856
1003.235544	-0.013716
1003.407065	-0.013755
1003.578568	-0.012838
1003.750052	-0.012036
1003.921519	-0.011011
1004.092967	-0.011091
1004.264397	-0.011583
1004.435809	-0.011579
1004.607202	-0.011448
1004.778577	-0.011888
1004.949934	-0.011399
1005.121273	-0.011967
1005.292594	-0.012296
1005.463896	-0.013089
1005.635180	-0.013611
1005.806446	-0.013312
1005.977694	-0.013810
1006.148923	-0.013707
1006.320135	-0.014725
1006.491328	-0.014329
1006.662503	-0.015006
1006.833659	-0.017347
1007.004798	-0.017365
1007.175918	-0.016949
1007.347020	-0.016775
1007.518103	-0.014978
1007.689169	-0.015032
1007.860216	-0.013758
1008.031245	-0.014847
1008.202256	-0.013520
1008.373248	-0.011354
1008.544223	-0.011516
1008.715179	-0.010760
1008.886117	-0.009746
1009.057036	-0.010119
1009.227938	-0.009987
1009.398821	-0.009350
1009.569686	-0.008314
1009.740533	-0.008802
1009.911361	-0.009294
1010.082172	-0.007502
1010.252964	-0.008459
1010.423738	-0.009645
1010.594493	-0.011415
1010.765231	-0.010073
1010.935950	-0.011607
1011.106651	-0.011303
1011.277334	-0.010554
1011.447998	-0.010452
1011.618645	-0.010699
1011.789273	-0.009872
1011.959882	-0.009034
1012.130474	-0.007632
1012.301048	-0.009873
1012.471603	-0.009309
1012.642140	-0.010332
1012.812658	-0.011577
1012.983159	-0.011519
1013.153641	-0.012666
1013.324105	-0.014015
1013.494551	-0.014739
1013.664979	-0.015093
1013.835388	-0.013050
1014.005779	-0.013063
1014.176152	-0.012452
1014.346507	-0.012111
1014.516843	-0.011372
1014.687162	-0.011336
1014.857462	-0.010118
1015.027744	-0.010448
1015.198007	-0.009860
1015.368252	-0.009958
1015.538480	-0.010042
1015.708689	-0.010804
1015.878879	-0.010643
1016.049052	-0.012018
1016.219206	-0.012341
1016.389342	-0.012491
1016.559460	-0.012564
1016.729559	-0.012535
1016.899641	-0.012880
1017.069704	-0.012428
1017.239749	-0.011640
1017.409775	-0.010969
1017.579784	-0.010298
1017.749774	-0.009519
1017.919746	-0.010186
1018.089700	-0.009878
1018.259635	-0.011142
1018.429553	-0.010672
1018.599452	-0.010983
1018.769333	-0.012221
1018.939195	-0.012705
1019.109040	-0.013042
1019.278866	-0.013390
1019.448674	-0.013875
1019.618464	-0.014575
1019.788235	-0.012579
1019.957989	-0.012847
1020.127724	-0.013480
1020.297441	-0.012996
1020.467139	-0.013206
1020.636820	-0.011999
1020.806482	-0.011971
1020.976126	-0.011303
1021.145752	-0.011239
1021.315359	-0.011204
1021.484948	-0.012560
1021.654519	-0.011492
1021.824072	-0.012156
1021.993607	-0.012422
1022.163123	-0.012952
1022.332621	-0.012088
1022.502101	-0.013333
1022.671563	-0.011574
1022.841007	-0.013386
1023.010432	-0.012758
1023.179839	-0.015136
1023.349228	-0.014764
1023.518598	-0.015361
1023.687951	-0.015945
1023.857285	-0.017284
1024.026601	-0.015943
1024.195899	-0.016792
1024.365178	-0.015359
1024.534439	-0.015690
1024.703682	-0.014634
1024.872907	-0.014944
1025.042114	-0.013854
1025.211302	-0.012932
1025.380472	-0.011768
1025.549624	-0.012384
1025.718758	-0.013071
1025.887873	-0.014671
1026.056970	-0.013781
1026.226049	-0.014312
1026.395110	-0.014471
1026.564153	-0.015469
1026.733177	-0.015988
1026.902183	-0.015020
1027.071171	-0.014046
1027.240141	-0.013547
1027.409092	-0.013245
1027.578026	-0.014905
1027.746940	-0.012931
1027.915837	-0.012423
1028.084716	-0.011952
1028.253576	-0.013376
1028.422418	-0.013284
1028.591242	-0.014107
1028.760048	-0.014696
1028.928835	-0.014865
1029.097604	-0.012970
1029.266355	-0.013694
1029.435088	-0.013695
1029.603803	-0.013025
1029.772499	-0.012425
1029.941177	-0.014308
1030.109837	-0.014825
1030.278478	-0.014582
1030.447102	-0.014316
1030.615707	-0.013855
1030.784294	-0.014171
1030.952863	-0.015107
1031.121413	-0.015685
1031.289945	-0.014947
1031.458460	-0.013999
1031.626955	-0.012615
1031.795433	-0.012097
1031.963892	-0.012534
1032.132334	-0.011961
1032.300756	-0.012818
1032.469161	-0.010907
1032.637548	-0.010364
1032.805916	-0.009185
1032.974266	-0.009822
1033.142598	-0.010550
1033.310911	-0.011223
1033.479207	-0.012347
1033.647484	-0.014690
1033.815743	-0.013262
1033.983983	-0.014700
1034.152206	-0.015344
1034.320410	-0.016964
1034.488596	-0.017669
1034.656764	-0.018009
1034.824914	-0.018531
1034.993045	-0.015555
1035.161158	-0.015438
1035.329253	-0.015854
1035.497330	-0.015680
1035.665388	-0.014954
1035.833428	-0.015221
1036.001450	-0.015468
1036.169454	-0.015333
1036.337440	-0.014415
1036.505407	-0.015528
1036.673356	-0.015130
1036.841287	-0.015071
1037.009200	-0.013693
1037.177094	-0.014965
1037.344970	-0.015198
1037.512828	-0.015109
1037.680668	-0.013945
1037.848489	-0.013276
1038.016293	-0.013840
1038.184078	-0.014636
1038.351845	-0.015303
1038.519593	-0.016310
1038.687324	-0.015774
1038.855036	-0.014463
1039.022730	-0.013428
1039.190406	-0.013658
1039.358063	-0.015726
1039.525702	-0.014783
1039.693323	-0.013129
1039.860926	-0.013474
1040.028511	-0.013929
1040.196077	-0.014134
1040.363625	-0.013732
1040.531155	-0.013975
1040.698667	-0.015734
1040.866161	-0.014102
1041.033636	-0.015319
1041.201093	-0.018106
1041.368532	-0.017029
1041.535952	-0.015795
1041.703355	-0.015316
1041.870739	-0.016910
1042.038105	-0.016754
1042.205452	-0.014704
1042.372782	-0.014089
1042.540093	-0.012388
1042.707386	-0.010651
1042.874661	-0.011732
1043.041918	-0.012343
1043.209156	-0.013107
1043.376376	-0.012154
1043.543578	-0.011566
1043.710762	-0.013674
1043.877927	-0.014601
1044.045074	-0.014795
1044.212203	-0.014410
1044.379314	-0.012512
1044.546407	-0.011617
1044.713481	-0.010176
1044.880537	-0.011247
1045.047575	-0.012856
1045.214595	-0.013357
1045.381596	-0.013032
1045.548579	-0.015120
1045.715544	-0.017305
1045.882491	-0.017619
1046.049420	-0.019300
1046.216330	-0.019365
1046.383222	-0.018600
1046.550096	-0.017920
1046.716951	-0.016052
1046.883789	-0.015159
1047.050608	-0.013666
1047.217409	-0.010866
1047.384192	-0.010708
1047.550956	-0.009833
1047.717703	-0.010035
1047.884431	-0.010689
1048.051140	-0.009419
1048.217832	-0.008496
1048.384505	-0.009828
1048.551161	-0.009401
1048.717798	-0.009799
1048.884416	-0.011167
1049.051017	-0.011816
1049.217599	-0.011777
1049.384163	-0.010786
1049.550709	-0.012337
1049.717237	-0.014344
1049.883746	-0.013188
1050.050237	-0.014174
1050.216710	-0.014597
1050.383165	-0.013062
1050.549601	-0.013212
1050.716019	-0.013213
1050.882420	-0.013244
1051.048801	-0.012201
1051.215165	-0.011246
1051.381510	-0.011918
1051.547837	-0.012682
1051.714146	-0.012845
1051.880437	-0.012244
1052.046709	-0.011685
1052.212964	-0.012534
1052.379200	-0.012390
1052.545417	-0.012213
1052.711617	-0.013443
1052.877798	-0.013857
1053.043961	-0.013727
1053.210106	-0.013612
1053.376233	-0.014548
1053.542341	-0.014256
1053.708432	-0.013286
1053.874504	-0.013676
1054.040557	-0.013474
1054.206593	-0.012015
1054.372610	-0.011222
1054.538609	-0.009709
1054.704590	-0.009628
1054.870553	-0.009921
1055.036497	-0.009508
1055.202424	-0.010717
1055.368331	-0.011324
1055.534221	-0.011399
1055.700093	-0.012556
1055.865946	-0.014357
1056.031781	-0.015347
1056.197598	-0.014774
1056.363397	-0.014583
1056.529177	-0.015912
1056.694939	-0.016218
1056.860683	-0.014189
1057.026409	-0.015088
1057.192116	-0.015058
1057.357806	-0.013852
1057.523477	-0.013246
1057.689130	-0.014811
1057.854764	-0.014250
1058.020381	-0.012386
1058.185979	-0.011901
1058.351559	-0.013131
1058.517120	-0.014435
1058.682664	-0.013420
1058.848189	-0.013585
1059.013696	-0.013344
1059.179185	-0.013187
1059.344656	-0.014815
1059.510108	-0.016326
1059.675542	-0.014770
1059.840958	-0.014867
1060.006356	-0.012393
1060.171735	-0.011676
1060.337096	-0.010812
1060.502439	-0.011911
1060.667764	-0.009630
1060.833071	-0.009372
1060.998359	-0.008596
1061.163629	-0.010088
1061.328881	-0.009656
1061.494115	-0.010248
1061.659330	-0.011096
1061.824527	-0.011427
1061.989706	-0.010991
1062.154867	-0.012699
1062.320010	-0.012802
1062.485134	-0.012981
1062.650240	-0.011433
1062.815328	-0.012319
1062.980398	-0.013675
1063.145449	-0.011973
1063.310482	-0.012909
1063.475497	-0.011761
1063.640494	-0.011447
1063.805473	-0.009943
1063.970433	-0.011080
1064.135375	-0.012284
1064.300299	-0.011617
1064.465204	-0.011043
1064.630092	-0.013187
1064.794961	-0.014906
1064.959812	-0.014739
1065.124645	-0.016566
1065.289459	-0.017940
1065.454256	-0.017502
1065.619034	-0.019218
1065.783793	-0.020374
1065.948535	-0.020905
1066.113258	-0.022239
1066.277964	-0.021012
1066.442651	-0.022387
1066.607319	-0.020487
1066.771970	-0.020006
1066.936602	-0.020797
1067.101216	-0.018149
1067.265812	-0.017465
1067.430389	-0.017339
1067.594949	-0.015120
1067.759490	-0.012775
1067.924013	-0.012288
1068.088518	-0.012072
1068.253004	-0.012039
1068.417472	-0.010530
1068.581922	-0.010937
1068.746354	-0.008268
1068.910768	-0.006604
1069.075163	-0.007552
1069.239540	-0.010593
1069.403899	-0.011666
1069.568240	-0.010638
1069.732562	-0.010174
1069.896866	-0.008641
1070.061152	-0.008804
1070.225420	-0.011258
1070.389670	-0.012186
1070.553901	-0.010626
1070.718114	-0.009523
1070.882309	-0.008831
1071.046486	-0.009890
1071.210644	-0.009725
1071.374784	-0.010002
1071.538906	-0.010727
1071.703010	-0.010292
1071.867096	-0.009864
1072.031163	-0.010937
1072.195212	-0.009254
1072.359243	-0.010776
1072.523256	-0.009913
1072.687250	-0.010976
1072.851226	-0.011344
1073.015184	-0.011350
1073.179124	-0.011240
1073.343045	-0.012073
1073.506949	-0.011422
1073.670834	-0.013174
1073.834701	-0.011586
1073.998549	-0.012173
1074.162380	-0.014776
1074.326192	-0.015365
1074.489986	-0.014224
1074.653761	-0.013346
1074.817519	-0.012535
1074.981258	-0.013206
1075.144979	-0.012435
1075.308682	-0.011159
1075.472367	-0.013530
1075.636033	-0.011981
1075.799681	-0.012992
1075.963311	-0.014462
1076.126923	-0.017463
1076.290516	-0.018853
1076.454092	-0.018454
1076.617649	-0.018995
1076.781187	-0.020160
1076.944708	-0.017755
1077.108210	-0.017226
1077.271695	-0.015423
1077.435160	-0.017757
1077.598608	-0.015866
1077.762038	-0.015930
1077.925449	-0.018603
1078.088842	-0.018642
1078.252217	-0.015907
1078.415573	-0.015778
1078.578912	-0.015810
1078.742232	-0.016375
1078.905534	-0.014289
1079.068817	-0.015735
1079.232083	-0.014128
1079.395330	-0.014405
1079.558559	-0.013752
1079.721770	-0.017237
1079.884962	-0.019170
1080.048136	-0.018189
1080.211293	-0.017153
1080.374430	-0.016459
1080.537550	-0.015672
1080.700651	-0.015635
1080.863735	-0.012400
1081.026800	-0.012136
1081.189846	-0.010105
1081.352875	-0.008556
1081.515885	-0.006883
1081.678877	-0.008325
1081.841851	-0.009087
1082.004807	-0.009866
1082.167744	-0.009988
1082.330663	-0.011430
1082.493564	-0.011572
1082.656447	-0.013073
1082.819312	-0.012242
1082.982158	-0.013735
1083.144986	-0.015561
1083.307796	-0.013167
1083.470587	-0.012660
1083.633361	-0.013260
1083.796116	-0.014196
1083.958853	-0.014405
1084.121571	-0.013634
1084.284272	-0.013989
1084.446954	-0.012988
1084.609618	-0.011002
1084.772264	-0.011923
1084.934892	-0.008500
1085.097501	-0.006841
1085.260092	-0.005978
1085.422665	-0.005669
1085.585220	-0.007090
1085.747756	-0.009442
1085.910274	-0.012368
1086.072774	-0.011053
1086.235256	-0.011396
1086.397720	-0.014682
1086.560165	-0.015075
1086.722592	-0.013876
1086.885001	-0.014760
1087.047392	-0.014182
1087.209764	-0.012355
1087.372119	-0.011461
1087.534455	-0.012482
1087.696772	-0.013730
1087.859072	-0.013333
1088.021353	-0.014088
1088.183616	-0.012857
1088.345861	-0.009839
1088.508088	-0.010431
1088.670296	-0.010115
1088.832486	-0.010402
1088.994658	-0.010926
1089.156812	-0.008184
1089.318948	-0.007535
1089.481065	-0.004410
1089.643164	-0.003561
1089.805245	-0.006367
1089.967308	-0.006756
1090.129352	-0.007260
1090.291378	-0.005748
1090.453386	-0.005927
1090.615376	-0.007827
1090.777347	-0.009093
1090.939301	-0.011732
1091.101236	-0.012938
1091.263153	-0.013765
1091.425051	-0.013000
1091.586932	-0.010675
1091.748794	-0.011648
1091.910638	-0.010836
1092.072463	-0.010126
1092.234271	-0.010534
1092.396060	-0.012499
1092.557831	-0.013255
1092.719584	-0.012258
1092.881319	-0.010935
1093.043035	-0.013505
1093.204733	-0.011316
1093.366413	-0.011061
1093.528075	-0.011654
1093.689718	-0.010955
1093.851343	-0.008268
1094.012950	-0.008472
1094.174539	-0.005905
1094.336110	-0.007541
1094.497662	-0.006242
1094.659196	-0.007476
1094.820712	-0.008801
1094.982210	-0.008452
1095.143689	-0.008104
1095.305151	-0.007992
1095.466594	-0.008502
1095.628018	-0.012063
1095.789425	-0.013273
1095.950813	-0.017099
1096.112183	-0.016520
1096.273535	-0.016546
1096.434869	-0.019157
1096.596184	-0.019555
1096.757482	-0.020534
1096.918761	-0.020952
1097.080021	-0.021605
1097.241264	-0.018947
1097.402488	-0.016359
1097.563694	-0.018653
1097.724882	-0.017117
1097.886052	-0.013707
1098.047203	-0.011663
1098.208336	-0.010438
1098.369451	-0.010003
1098.530548	-0.007035
1098.691627	-0.009652
1098.852687	-0.008912
1099.013729	-0.008494
1099.174753	-0.007905
1099.335758	-0.008318
1099.496746	-0.009544
1099.657715	-0.013820
1099.818666	-0.013355
1099.979599	-0.014067
1100.140513	-0.011922
1100.301409	-0.012663
1100.462287	-0.011259
1100.623147	-0.010341
1100.783989	-0.009723
1100.944812	-0.006481
1101.105617	-0.003814
1101.266404	-0.005225
1101.427173	-0.006545
1101.587923	-0.004620
1101.748656	-0.001347
1101.909370	-0.002767
1102.070066	-0.004397
1102.230743	-0.003632
1102.391403	-0.003791
1102.552044	-0.004200
1102.712667	-0.003365
1102.873271	-0.003610
1103.033858	-0.007564
1103.194426	-0.011748
1103.354976	-0.011806
1103.515508	-0.015117
1103.676021	-0.014691
1103.836517	-0.017966
1103.996994	-0.017438
1104.157453	-0.015829
1104.317893	-0.012087
1104.478316	-0.008551
1104.638720	-0.005469
1104.799106	-0.004122
1104.959474	-0.004062
1105.119823	-0.006856
1105.280155	-0.006640
1105.440468	-0.005582
1105.600763	-0.006716
1105.761039	-0.009487
1105.921298	-0.011073
1106.081538	-0.013787
1106.241760	-0.015460
1106.401964	-0.011707
1106.562149	-0.011384
1106.722316	-0.013534
1106.882465	-0.016358
1107.042596	-0.016059
1107.202709	-0.015745
1107.362803	-0.015168
1107.522879	-0.013130
1107.682937	-0.010835
1107.842977	-0.012230
1108.002999	-0.014674
1108.163002	-0.012488
1108.322987	-0.012521
1108.482954	-0.011589
1108.642902	-0.012071
1108.802833	-0.011312
1108.962745	-0.011460
1109.122639	-0.010311
1109.282515	-0.011346
1109.442372	-0.009098
1109.602211	-0.007424
1109.762032	-0.003902
1109.921835	-0.004170
1110.081620	-0.002489
1110.241386	-0.001962
1110.401134	-0.002423
1110.560864	-0.003984
1110.720576	-0.002161
1110.880269	-0.003223
1111.039945	-0.004862
1111.199602	-0.005332
1111.359240	-0.006113
1111.518861	-0.007755
1111.678463	-0.009380
1111.838047	-0.009339
1111.997613	-0.009984
1112.157161	-0.009636
1112.316690	-0.007907
1112.476202	-0.009771
1112.635695	-0.010429
1112.795169	-0.010107
1112.954626	-0.009772
1113.114064	-0.008684
1113.273484	-0.008627
1113.432886	-0.005159
1113.592270	-0.003775
1113.751635	-0.006022
1113.910983	-0.008409
1114.070312	-0.009117
1114.229622	-0.007153
1114.388915	-0.006377
1114.548189	-0.008841
1114.707445	-0.008144
1114.866683	-0.009442
1115.025903	-0.007997
1115.185104	-0.006987
1115.344287	-0.001778
1115.503452	0.000580
1115.662599	-0.000170
1115.821727	-0.000930
1115.980838	0.002283
1116.139930	-0.001186
1116.299004	-0.003138
1116.458059	-0.005314
1116.617097	-0.004714
1116.776116	-0.006154
1116.935117	-0.007523
1117.094099	-0.012479
1117.253064	-0.011413
1117.412010	-0.015805
1117.570938	-0.011407
1117.729848	-0.012279
1117.888740	-0.014974
1118.047613	-0.014220
1118.206468	-0.011630
1118.365305	-0.014120
1118.524124	-0.008375
1118.682924	-0.005512
1118.841707	-0.001941
1119.000471	-0.003521
1119.159216	-0.000341
1119.317944	-0.000690
1119.476653	-0.001629
1119.635344	-0.003608
1119.794017	-0.003060
1119.952672	-0.003394
1120.111308	-0.007179
1120.269927	-0.008915
1120.428527	-0.007347
1120.587108	-0.011335
1120.745672	-0.010255
1120.904217	-0.010913
1121.062744	-0.008988
1121.221253	-0.003899
1121.379744	-0.005660
1121.538216	-0.005008
1121.696671	-0.001547
1121.855107	-0.002669
1122.013524	0.000266
1122.171924	0.001968
1122.330305	0.001720
1122.488668	0.002865
1122.647013	0.000258
1122.805340	0.002339
1122.963648	-0.001151
1123.121938	-0.002398
1123.280210	-0.002172
1123.438464	-0.003934
1123.596700	-0.005774
1123.754917	-0.000415
1123.913116	-0.001183
1124.071297	-0.003248
1124.229459	-0.003830
1124.387604	0.000884
1124.545730	-0.000510
1124.703838	0.001126
1124.861928	0.002680
1125.019999	0.008627
1125.178052	0.005273
1125.336088	0.004610
1125.494104	0.007469
1125.652103	0.004892
1125.810083	0.001119
1125.968045	0.000977
1126.125989	-0.002981
1126.283915	-0.004172
1126.441823	-0.011264
1126.599712	-0.010257
1126.757583	-0.011032
1126.915436	-0.013948
1127.073270	-0.012911
1127.231087	-0.007492
1127.388885	-0.008875
1127.546665	-0.009833
1127.704426	-0.013419
1127.862170	-0.017508
1128.019895	-0.017078
1128.177602	-0.018658
1128.335291	-0.017153
1128.492961	-0.015885
1128.650614	-0.016401
1128.808248	-0.009307
1128.965864	-0.001529
1129.123461	0.004882
1129.281041	0.007564
1129.438602	0.003659
1129.596145	0.005179
1129.753670	0.007679
1129.911176	0.010282
1130.068665	0.008278
1130.226135	0.004837
1130.383587	-0.000434
1130.541020	-0.006980
1130.698436	-0.002664
1130.855833	-0.001078
1131.013212	-0.000601
1131.170573	-0.002627
1131.327915	-0.003710
1131.485239	-0.003973
1131.642545	-0.008458
1131.799833	-0.009320
1131.957103	-0.005153
1132.114354	-0.009436
1132.271588	-0.005983
1132.428803	-0.003598
1132.585999	-0.004867
1132.743178	-0.006379
1132.900338	-0.003406
1133.057480	0.002573
1133.214604	0.005294
1133.371710	0.011008
1133.528797	0.016746
1133.685866	0.014634
1133.842917	0.013264
1133.999950	0.015653
1134.156964	0.012179
1134.313960	0.004842
1134.470938	0.003156
1134.627898	-0.003195
1134.784840	-0.010957
1134.941763	-0.013502
1135.098668	-0.019270
1135.255555	-0.025823
1135.412424	-0.029606
1135.569274	-0.026158
1135.726107	-0.021758
1135.882921	-0.022767
1136.039716	-0.020718
1136.196494	-0.015444
1136.353253	-0.019351
1136.509995	-0.011821
1136.666717	-0.003301
1136.823422	0.002616
1136.980109	-0.003282
1137.136777	-0.000022
1137.293427	0.001671
1137.450059	0.000624
1137.606672	-0.000249
1137.763267	0.007153
1137.919844	0.002260
1138.076403	-0.005741
1138.232944	-0.008951
1138.389466	-0.003422
1138.545971	-0.007751
1138.702457	-0.010371
1138.858924	-0.005228
1139.015374	-0.008890
1139.171805	-0.010412
1139.328218	-0.007443
1139.484613	-0.001309
1139.640990	-0.000515
1139.797348	-0.006383
1139.953688	-0.004634
1140.110010	-0.005842
1140.266314	-0.009126
1140.422600	-0.009437
1140.578867	-0.013298
1140.735116	-0.014970
1140.891347	-0.012309
1141.047559	-0.014860
1141.203754	-0.012539
1141.359930	-0.019352
1141.516088	-0.011318
1141.672228	-0.013377
1141.828349	-0.016255
1141.984452	-0.014751
1142.140537	-0.009056
1142.296604	-0.010020
1142.452653	-0.013912
1142.608683	-0.011012
1142.764695	-0.001753
1142.920689	-0.007918
1143.076665	-0.004744
1143.232622	0.001560
1143.388562	-0.000856
1143.544483	-0.005873
1143.700385	-0.005704
1143.856270	0.001427
1144.012136	0.001809
1144.167985	-0.003548
1144.323814	-0.003204
1144.479626	-0.003670
1144.635420	-0.011866
1144.791195	-0.014176
1144.946952	-0.016587
1145.102691	-0.016550
1145.258411	-0.014520
1145.414113	-0.010894
1145.569798	-0.007299
1145.725463	-0.005765
1145.881111	0.000794
1146.036741	0.008445
1146.192352	0.013607
1146.347945	0.017282
1146.503519	0.008519
1146.659076	0.008058
1146.814614	0.003578
1146.970134	0.005394
1147.125636	0.005504
1147.281120	-0.002919
1147.436585	0.001649
1147.592032	0.009007
1147.747461	0.009710
1147.902872	0.015299
1148.058265	0.016584
1148.213639	0.020044
1148.368995	0.013837
1148.524333	0.007122
1148.679653	0.008220
1148.834954	0.002937
1148.990237	-0.005339
1149.145502	0.002319
1149.300749	0.002943
1149.455977	-0.001469
1149.611188	-0.003993
1149.766380	0.004856
1149.921553	0.011190
1150.076709	0.017999
1150.231846	0.022481
1150.386966	0.023203
1150.542066	0.019175
1150.697149	0.016541
1150.852214	0.012233
1151.007260	0.012713
1151.162288	-0.000550
1151.317298	0.000562
1151.472289	-0.003381
1151.627263	-0.009053
1151.782218	-0.008552
1151.937155	-0.019669
1152.092073	-0.018885
1152.246974	-0.014365
1152.401856	-0.018240
1152.556720	-0.007874
1152.711566	-0.013681
1152.866393	-0.017506
1153.021203	-0.019855
1153.175994	-0.019489
1153.330767	-0.017243
1153.485521	-0.017033
1153.640258	-0.014493
1153.794976	-0.012062
1153.949676	-0.016122
1154.104358	-0.008279
1154.259021	-0.003935
1154.413667	-0.002252
1154.568294	0.000995
1154.722903	0.003188
1154.877493	0.001034
1155.032066	-0.005124
1155.186620	-0.009154
1155.341156	-0.014010
1155.495674	-0.019728
1155.650173	-0.021572
1155.804654	-0.019444
1155.959118	-0.017938
1156.113562	-0.018764
1156.267989	-0.014165
1156.422397	-0.004340
1156.576788	0.001697
1156.731160	0.005886
1156.885513	0.013520
1157.039849	0.017354
1157.194166	0.016459
1157.348465	0.021040
1157.502746	0.029346
1157.657009	0.029180
1157.811253	0.019687
1157.965479	0.023675
1158.119687	0.032766
1158.273877	0.020229
1158.428048	0.011280
1158.582201	0.015627
1158.736337	0.005211
1158.890453	0.005579
1159.044552	0.003581
1159.198632	0.007478
1159.352694	-0.002542
1159.506738	-0.001081
1159.660764	0.003722
1159.814771	0.004643
1159.968761	0.000980
1160.122732	0.005016
1160.276685	-0.002984
1160.430619	-0.004373
1160.584535	-0.002334
1160.738434	0.007440
1160.892313	-0.005143
1161.046175	-0.008489
1161.200019	-0.006505
1161.353844	0.001147
1161.507651	0.001490
1161.661440	0.003454
1161.815210	0.010394
1161.968962	0.006064
1162.122697	0.002712
1162.276412	0.001290
1162.430110	0.002145
1162.583789	0.010473
1162.737451	0.005157
1162.891094	-0.008300
1163.044718	-0.010122
1163.198325	-0.018435
1163.351913	-0.015432
1163.505483	-0.018124
1163.659035	-0.017614
1163.812569	-0.015284
1163.966084	-0.012347
1164.119581	-0.010189
1164.273060	0.005046
1164.426521	0.012889
1164.579964	0.011991
1164.733388	0.003441
1164.886794	0.009245
1165.040182	0.015309
1165.193551	0.020511
1165.346903	0.016350
1165.500236	0.020869
1165.653551	0.007141
1165.806848	-0.006604
1165.960126	-0.008530
1166.113386	-0.009873
1166.266628	-0.011964
1166.419852	-0.013632
1166.573058	-0.014407
1166.726245	-0.016707
1166.879414	-0.026037
1167.032565	-0.017882
1167.185698	-0.011683
1167.338812	-0.005625
1167.491909	0.008266
1167.644987	0.009890
1167.798046	0.004096
1167.951088	0.004603
1168.104111	-0.000609
1168.257117	-0.004806
1168.410103	-0.001297
1168.563072	0.002020
1168.716023	-0.001904
1168.868955	-0.009233
1169.021869	-0.014993
1169.174765	-0.002168
1169.327642	-0.002302
1169.480501	-0.003468
1169.633343	-0.001898
1169.786165	-0.000561
1169.938970	-0.006975
1170.091757	-0.015714
1170.244525	-0.014470
1170.397275	-0.008853
1170.550007	-0.020437
1170.702720	-0.023554
1170.855415	-0.016977
1171.008092	-0.004072
1171.160751	0.000085
1171.313392	0.014330
1171.466014	0.024579
1171.618619	0.083101
1171.771205	0.083101
1171.923772	0.083101
