sample name	sample
index	667
start time	 03-22-2021  10:57:19 AM


Wavelength (nm)	Absorbance
494.344910	NaN
494.563924	NaN
494.782919	NaN
495.001897	-0.328834
495.220856	0.462056
495.439797	0.365699
495.658719	0.147030
495.877624	0.076636
496.096510	0.058340
496.315378	-0.045177
496.534227	-0.197085
496.753059	-0.196383
496.971872	-0.156479
497.190667	0.012225
497.409444	0.020020
497.628203	0.024211
497.846943	0.027057
498.065665	0.028386
498.284369	0.029427
498.503055	0.028805
498.721723	0.029589
498.940372	0.028876
499.159003	0.028587
499.377616	0.028112
499.596210	0.027556
499.814787	0.026845
500.033345	0.026520
500.251885	0.026294
500.470406	0.026480
500.688910	0.026347
500.907395	0.026823
501.125862	0.026919
501.344311	0.027320
501.562742	0.027632
501.781154	0.027569
501.999548	0.028457
502.217924	0.028601
502.436282	0.028817
502.654621	0.029218
502.872942	0.029521
503.091245	0.029865
503.309530	0.029879
503.527797	0.029622
503.746045	0.029150
503.964275	0.028271
504.182487	0.027682
504.400681	0.027594
504.618856	0.026831
504.837013	0.026402
505.055152	0.026234
505.273273	0.026121
505.491376	0.026113
505.709460	0.025848
505.927526	0.025231
506.145574	0.025743
506.363604	0.025476
506.581615	0.025583
506.799608	0.025223
507.017583	0.025266
507.235540	0.025533
507.453478	0.025612
507.671399	0.026455
507.889301	0.026744
508.107185	0.026250
508.325050	0.026286
508.542898	0.025904
508.760727	0.025870
508.978538	0.025639
509.196330	0.025244
509.414105	0.024968
509.631861	0.024584
509.849599	0.025127
510.067319	0.024794
510.285021	0.024416
510.502704	0.024351
510.720369	0.024922
510.938016	0.025227
511.155645	0.025338
511.373255	0.024980
511.590848	0.025081
511.808422	0.024458
512.025977	0.024599
512.243515	0.024785
512.461034	0.024524
512.678536	0.024239
512.896018	0.023585
513.113483	0.023702
513.330930	0.023746
513.548358	0.023455
513.765768	0.024078
513.983160	0.024297
514.200533	0.024547
514.417889	0.025265
514.635226	0.025520
514.852545	0.025589
515.069845	0.025223
515.287128	0.025165
515.504392	0.025141
515.721638	0.025112
515.938866	0.024842
516.156075	0.024766
516.373267	0.024017
516.590440	0.024008
516.807594	0.023909
517.024731	0.023945
517.241850	0.024126
517.458950	0.024399
517.676032	0.023395
517.893095	0.024041
518.110141	0.023712
518.327168	0.023270
518.544177	0.022735
518.761168	0.022583
518.978141	0.022675
519.195095	0.022157
519.412031	0.022056
519.628949	0.022132
519.845849	0.021329
520.062731	0.021799
520.279594	0.021948
520.496439	0.022322
520.713266	0.022254
520.930074	0.022050
521.146865	0.022396
521.363637	0.022055
521.580391	0.022345
521.797127	0.022131
522.013844	0.022109
522.230543	0.022607
522.447224	0.021989
522.663887	0.022487
522.880532	0.022656
523.097158	0.022700
523.313766	0.022556
523.530356	0.022305
523.746928	0.022363
523.963481	0.022075
524.180017	0.022179
524.396534	0.022406
524.613032	0.022103
524.829513	0.022255
525.045975	0.022348
525.262420	0.022408
525.478845	0.022550
525.695253	0.022813
525.911643	0.022968
526.128014	0.023094
526.344367	0.023433
526.560702	0.023838
526.777018	0.023160
526.993316	0.022833
527.209597	0.023081
527.425858	0.022997
527.642102	0.022771
527.858328	0.022381
528.074535	0.022186
528.290724	0.021742
528.506894	0.021262
528.723047	0.021717
528.939181	0.022131
529.155297	0.021655
529.371395	0.021926
529.587475	0.022022
529.803536	0.022067
530.019579	0.021829
530.235604	0.021776
530.451611	0.021900
530.667600	0.021600
530.883570	0.021458
531.099522	0.021781
531.315456	0.021573
531.531372	0.021711
531.747269	0.022070
531.963148	0.022459
532.179009	0.022455
532.394852	0.022480
532.610676	0.022584
532.826482	0.022430
533.042271	0.022403
533.258040	0.022264
533.473792	0.022398
533.689525	0.022247
533.905240	0.022125
534.120937	0.022109
534.336616	0.022354
534.552277	0.022645
534.767919	0.022478
534.983543	0.021971
535.199149	0.022069
535.414736	0.021621
535.630306	0.021571
535.845857	0.021156
536.061390	0.020983
536.276904	0.020464
536.492401	0.020010
536.707879	0.020233
536.923339	0.020802
537.138781	0.020966
537.354204	0.020992
537.569610	0.021170
537.784997	0.020905
538.000366	0.021035
538.215716	0.021208
538.431049	0.021655
538.646363	0.021497
538.861659	0.020898
539.076937	0.020450
539.292196	0.020973
539.507438	0.021120
539.722661	0.021426
539.937866	0.021322
540.153052	0.021283
540.368221	0.020928
540.583371	0.020701
540.798503	0.021314
541.013617	0.021210
541.228712	0.020771
541.443789	0.020479
541.658848	0.020481
541.873889	0.020849
542.088912	0.020710
542.303916	0.020542
542.518902	0.020721
542.733870	0.020319
542.948820	0.020571
543.163752	0.020543
543.378665	0.020284
543.593560	0.020125
543.808437	0.019775
544.023295	0.019575
544.238136	0.019719
544.452958	0.019689
544.667762	0.019965
544.882548	0.019946
545.097315	0.019842
545.312064	0.019943
545.526795	0.020492
545.741508	0.020737
545.956203	0.021196
546.170879	0.021128
546.385537	0.021061
546.600177	0.021003
546.814799	0.021198
547.029402	0.021380
547.243988	0.021302
547.458555	0.020941
547.673103	0.020807
547.887634	0.020417
548.102146	0.020557
548.316640	0.020771
548.531116	0.020262
548.745574	0.020064
548.960013	0.019822
549.174435	0.019275
549.388838	0.019164
549.603222	0.019287
549.817589	0.019124
550.031937	0.018872
550.246267	0.018582
550.460579	0.018549
550.674873	0.018485
550.889148	0.018623
551.103405	0.019054
551.317644	0.018752
551.531865	0.018446
551.746068	0.018607
551.960252	0.018647
552.174418	0.018767
552.388566	0.018920
552.602696	0.018893
552.816807	0.018946
553.030900	0.018875
553.244975	0.019203
553.459032	0.019129
553.673070	0.019240
553.887091	0.019263
554.101093	0.019222
554.315077	0.019587
554.529042	0.019733
554.742990	0.019771
554.956919	0.019993
555.170830	0.019839
555.384722	0.019762
555.598597	0.019406
555.812453	0.019128
556.026291	0.018811
556.240111	0.018279
556.453913	0.018133
556.667696	0.018034
556.881461	0.017867
557.095208	0.018023
557.308937	0.018347
557.522647	0.018508
557.736339	0.018560
557.950013	0.018975
558.163669	0.019399
558.377307	0.019362
558.590926	0.019416
558.804527	0.019902
559.018110	0.019806
559.231675	0.020044
559.445221	0.020368
559.658749	0.020754
559.872259	0.020763
560.085751	0.020644
560.299225	0.021019
560.512680	0.020924
560.726117	0.020259
560.939536	0.020387
561.152937	0.019925
561.366319	0.020078
561.579683	0.020199
561.793029	0.020072
562.006357	0.020139
562.219667	0.019826
562.432958	0.019745
562.646231	0.019987
562.859486	0.019736
563.072723	0.019420
563.285941	0.019108
563.499141	0.018962
563.712323	0.018711
563.925487	0.018345
564.138632	0.018372
564.351760	0.018333
564.564869	0.018203
564.777960	0.018182
564.991032	0.018383
565.204087	0.018339
565.417123	0.018061
565.630141	0.018043
565.843140	0.018397
566.056122	0.018394
566.269085	0.018518
566.482030	0.018540
566.694957	0.018787
566.907866	0.018939
567.120756	0.018965
567.333628	0.018913
567.546482	0.018966
567.759318	0.019135
567.972135	0.019073
568.184935	0.019070
568.397716	0.019419
568.610478	0.019331
568.823223	0.019518
569.035949	0.019471
569.248657	0.019755
569.461347	0.019788
569.674019	0.019599
569.886672	0.019512
570.099308	0.019145
570.311925	0.018637
570.524523	0.018573
570.737104	0.018377
570.949666	0.018115
571.162210	0.018084
571.374736	0.018412
571.587244	0.018283
571.799733	0.018355
572.012205	0.018465
572.224658	0.018737
572.437092	0.018720
572.649509	0.018764
572.861907	0.018740
573.074287	0.018478
573.286649	0.018151
573.498993	0.018168
573.711318	0.018066
573.923625	0.018356
574.135914	0.018274
574.348185	0.018423
574.560438	0.018252
574.772672	0.018722
574.984888	0.018512
575.197086	0.018527
575.409266	0.018413
575.621427	0.018436
575.833570	0.018194
576.045695	0.018236
576.257802	0.018200
576.469890	0.017920
576.681961	0.017575
576.894013	0.017783
577.106046	0.017830
577.318062	0.017798
577.530059	0.017705
577.742039	0.017483
577.954000	0.017439
578.165942	0.017466
578.377867	0.017638
578.589773	0.017647
578.801661	0.017747
579.013531	0.017818
579.225382	0.018134
579.437216	0.018331
579.649031	0.018472
579.860828	0.018294
580.072606	0.017951
580.284367	0.017846
580.496109	0.017860
580.707833	0.018118
580.919539	0.018371
581.131227	0.018210
581.342896	0.018044
581.554547	0.017908
581.766180	0.018049
581.977795	0.018189
582.189391	0.018614
582.400969	0.018561
582.612529	0.018153
582.824071	0.017641
583.035595	0.017353
583.247100	0.017241
583.458587	0.017491
583.670056	0.017296
583.881506	0.017442
584.092939	0.017108
584.304353	0.017505
584.515749	0.017383
584.727127	0.017406
584.938486	0.017628
585.149828	0.017799
585.361151	0.017942
585.572456	0.018346
585.783742	0.018159
585.995011	0.018206
586.206261	0.017806
586.417493	0.018011
586.628706	0.018236
586.839902	0.018063
587.051079	0.018210
587.262238	0.018033
587.473379	0.017859
587.684502	0.018046
587.895606	0.018291
588.106692	0.018081
588.317760	0.017884
588.528810	0.017844
588.739841	0.018247
588.950855	0.018180
589.161850	0.018315
589.372827	0.018207
589.583785	0.018038
589.794726	0.017941
590.005648	0.018333
590.216552	0.018578
590.427437	0.018639
590.638305	0.018480
590.849154	0.018471
591.059985	0.018390
591.270798	0.018290
591.481592	0.018367
591.692369	0.018303
591.903127	0.018245
592.113867	0.018169
592.324588	0.018108
592.535292	0.018296
592.745977	0.018161
592.956644	0.018296
593.167293	0.018395
593.377923	0.018691
593.588536	0.019039
593.799130	0.019006
594.009706	0.019005
594.220263	0.019110
594.430803	0.019065
594.641324	0.018957
594.851827	0.018995
595.062312	0.019139
595.272778	0.018866
595.483227	0.018524
595.693657	0.018564
595.904069	0.018521
596.114462	0.018411
596.324838	0.018222
596.535195	0.018275
596.745534	0.018229
596.955855	0.018411
597.166157	0.018585
597.376441	0.018971
597.586707	0.018933
597.796955	0.019088
598.007185	0.018896
598.217396	0.018904
598.427589	0.018947
598.637764	0.018896
598.847921	0.018477
599.058060	0.018408
599.268180	0.018102
599.478282	0.017951
599.688366	0.017825
599.898431	0.018104
600.108479	0.018146
600.318508	0.018327
600.528519	0.018345
600.738511	0.018469
600.948486	0.018216
601.158442	0.018267
601.368380	0.018642
601.578300	0.018685
601.788202	0.018740
601.998085	0.018743
602.207950	0.018489
602.417797	0.018238
602.627626	0.018102
602.837436	0.018227
603.047228	0.018095
603.257002	0.017767
603.466758	0.017836
603.676496	0.017835
603.886215	0.017544
604.095916	0.017957
604.305599	0.018108
604.515264	0.018100
604.724910	0.018206
604.934538	0.018448
605.144148	0.018695
605.353740	0.018860
605.563314	0.018785
605.772869	0.019244
605.982406	0.019089
606.191925	0.019064
606.401425	0.019224
606.610908	0.018987
606.820372	0.018770
607.029818	0.018406
607.239246	0.017940
607.448655	0.017974
607.658047	0.017797
607.867420	0.017698
608.076775	0.017660
608.286111	0.017598
608.495430	0.017605
608.704730	0.017464
608.914012	0.017437
609.123275	0.017629
609.332521	0.017318
609.541748	0.017115
609.750957	0.016831
609.960148	0.016844
610.169321	0.016817
610.378475	0.016976
610.587611	0.017082
610.796729	0.017436
611.005829	0.017517
611.214910	0.017829
611.423974	0.017658
611.633019	0.017655
611.842045	0.017885
612.051054	0.018063
612.260044	0.017954
612.469017	0.017710
612.677970	0.017513
612.886906	0.017140
613.095824	0.017002
613.304723	0.017168
613.513604	0.017494
613.722467	0.017285
613.931311	0.017157
614.140138	0.017197
614.348946	0.017483
614.557736	0.017613
614.766507	0.018086
614.975261	0.018165
615.183996	0.018208
615.392713	0.018054
615.601412	0.017927
615.810092	0.017767
616.018754	0.017634
616.227399	0.017528
616.436024	0.017440
616.644632	0.017287
616.853222	0.017173
617.061793	0.017200
617.270346	0.017104
617.478880	0.017250
617.687397	0.017326
617.895895	0.017538
618.104375	0.017632
618.312837	0.017764
618.521281	0.017929
618.729706	0.018060
618.938113	0.018319
619.146502	0.018247
619.354873	0.018154
619.563226	0.018311
619.771560	0.018171
619.979876	0.018129
620.188174	0.017947
620.396453	0.017765
620.604715	0.017658
620.812958	0.017518
621.021183	0.017699
621.229390	0.017875
621.437578	0.017734
621.645748	0.017912
621.853900	0.017775
622.062034	0.017795
622.270150	0.017755
622.478247	0.017799
622.686326	0.017807
622.894387	0.017940
623.102430	0.017927
623.310454	0.017844
623.518461	0.017832
623.726449	0.017926
623.934418	0.017874
624.142370	0.017846
624.350303	0.017897
624.558218	0.017849
624.766115	0.017676
624.973994	0.017528
625.181855	0.017675
625.389697	0.017536
625.597521	0.017514
625.805327	0.017685
626.013114	0.017753
626.220883	0.017724
626.428634	0.017825
626.636367	0.017890
626.844082	0.017800
627.051778	0.017923
627.259457	0.017900
627.467117	0.017976
627.674758	0.017919
627.882382	0.017973
628.089987	0.017914
628.297574	0.017716
628.505143	0.017796
628.712694	0.017991
628.920226	0.017759
629.127740	0.017813
629.335236	0.017672
629.542714	0.017499
629.750174	0.017411
629.957615	0.017207
630.165038	0.017147
630.372443	0.016946
630.579829	0.016746
630.787198	0.016762
630.994548	0.016871
631.201880	0.016882
631.409194	0.017016
631.616489	0.016830
631.823766	0.017008
632.031025	0.017001
632.238266	0.017108
632.445489	0.017099
632.652693	0.017162
632.859879	0.016992
633.067047	0.017030
633.274197	0.016960
633.481329	0.017096
633.688442	0.017064
633.895537	0.017194
634.102614	0.017164
634.309672	0.017120
634.516713	0.017052
634.723735	0.016884
634.930739	0.016885
635.137724	0.016850
635.344692	0.016975
635.551641	0.017136
635.758572	0.017165
635.965485	0.017241
636.172379	0.017360
636.379256	0.017320
636.586114	0.017356
636.792954	0.017420
636.999775	0.017584
637.206579	0.017507
637.413364	0.017290
637.620131	0.017199
637.826880	0.017071
638.033610	0.016923
638.240323	0.016932
638.447017	0.016938
638.653692	0.016917
638.860350	0.016704
639.066990	0.016630
639.273611	0.016719
639.480214	0.016745
639.686798	0.016788
639.893365	0.016936
640.099913	0.017101
640.306443	0.017196
640.512955	0.017073
640.719449	0.017181
640.925924	0.017341
641.132381	0.017253
641.338820	0.017174
641.545241	0.017264
641.751644	0.017166
641.958028	0.017018
642.164394	0.017192
642.370742	0.017186
642.577071	0.017247
642.783383	0.017148
642.989676	0.017248
643.195951	0.017371
643.402207	0.017216
643.608446	0.017419
643.814666	0.017399
644.020868	0.017305
644.227052	0.017316
644.433218	0.017324
644.639365	0.017369
644.845494	0.017213
645.051605	0.017210
645.257698	0.017314
645.463772	0.017205
645.669828	0.017240
645.875866	0.017254
646.081886	0.017366
646.287888	0.017337
646.493871	0.017514
646.699836	0.017796
646.905783	0.017743
647.111712	0.017766
647.317622	0.017824
647.523514	0.017934
647.729388	0.018002
647.935244	0.018166
648.141082	0.018086
648.346901	0.017795
648.552702	0.017660
648.758485	0.017587
648.964250	0.017524
649.169996	0.017410
649.375724	0.017263
649.581434	0.017037
649.787126	0.016724
649.992800	0.016780
650.198455	0.016872
650.404092	0.016881
650.609711	0.016896
650.815311	0.016843
651.020894	0.016669
651.226458	0.016499
651.432004	0.016408
651.637532	0.016361
651.843041	0.016220
652.048532	0.016051
652.254006	0.015712
652.459460	0.015703
652.664897	0.015847
652.870315	0.016100
653.075716	0.016227
653.281097	0.016520
653.486461	0.016559
653.691807	0.016563
653.897134	0.016615
654.102443	0.016757
654.307734	0.016634
654.513006	0.016526
654.718261	0.016703
654.923497	0.016761
655.128715	0.016573
655.333915	0.016684
655.539096	0.016750
655.744259	0.016704
655.949404	0.016786
656.154531	0.016926
656.359640	0.016896
656.564730	0.016634
656.769802	0.016690
656.974856	0.016653
657.179892	0.016628
657.384909	0.016615
657.589908	0.016770
657.794889	0.016701
657.999852	0.016713
658.204797	0.016671
658.409723	0.016740
658.614631	0.016675
658.819521	0.016795
659.024393	0.016884
659.229246	0.016873
659.434081	0.016945
659.638898	0.017184
659.843697	0.017140
660.048478	0.017300
660.253240	0.017257
660.457984	0.017340
660.662710	0.017423
660.867417	0.017421
661.072107	0.017438
661.276778	0.017373
661.481431	0.017343
661.686066	0.017245
661.890682	0.017192
662.095281	0.017106
662.299861	0.016987
662.504422	0.016865
662.708966	0.016700
662.913491	0.016614
663.117999	0.016529
663.322488	0.016314
663.526958	0.016329
663.731411	0.016251
663.935845	0.016225
664.140261	0.016193
664.344659	0.016072
664.549038	0.016127
664.753400	0.016095
664.957743	0.016024
665.162068	0.015983
665.366375	0.015946
665.570663	0.015823
665.774933	0.015815
665.979185	0.015773
666.183419	0.015789
666.387635	0.015716
666.591832	0.015793
666.796011	0.015602
667.000172	0.015634
667.204315	0.015703
667.408439	0.015757
667.612545	0.016102
667.816634	0.016067
668.020703	0.016017
668.224755	0.016116
668.428788	0.016163
668.632803	0.016359
668.836800	0.016331
669.040779	0.016439
669.244739	0.016603
669.448681	0.016520
669.652605	0.016629
669.856511	0.016668
670.060399	0.016723
670.264268	0.016727
670.468119	0.016763
670.671952	0.016848
670.875767	0.016828
671.079563	0.016660
671.283341	0.016603
671.487101	0.016700
671.690843	0.016773
671.894567	0.016638
672.098272	0.016818
672.301959	0.016731
672.505628	0.016738
672.709278	0.016773
672.912911	0.016764
673.116525	0.016717
673.320121	0.016562
673.523699	0.016558
673.727258	0.016521
673.930799	0.016199
674.134322	0.016299
674.337827	0.016307
674.541314	0.016247
674.744782	0.016269
674.948232	0.016173
675.151664	0.016224
675.355078	0.016210
675.558474	0.016213
675.761851	0.016226
675.965210	0.016139
676.168551	0.016170
676.371873	0.016213
676.575178	0.016210
676.778464	0.016166
676.981732	0.016263
677.184981	0.016189
677.388213	0.016197
677.591426	0.016279
677.794621	0.016411
677.997798	0.016279
678.200956	0.016138
678.404097	0.016037
678.607219	0.016045
678.810323	0.015767
679.013408	0.015835
679.216476	0.015728
679.419525	0.015638
679.622556	0.015508
679.825569	0.015364
680.028563	0.015308
680.231540	0.015393
680.434498	0.015487
680.637438	0.015550
680.840359	0.015451
681.043263	0.015494
681.246148	0.015453
681.449015	0.015423
681.651864	0.015557
681.854694	0.015651
682.057506	0.015600
682.260301	0.015499
682.463076	0.015467
682.665834	0.015501
682.868573	0.015497
683.071295	0.015632
683.273998	0.015562
683.476682	0.015495
683.679349	0.015323
683.881997	0.015277
684.084627	0.015114
684.287239	0.015140
684.489833	0.015138
684.692408	0.015220
684.894965	0.015103
685.097504	0.015185
685.300025	0.015238
685.502527	0.015174
685.705012	0.015113
685.907478	0.015192
686.109925	0.015153
686.312355	0.015136
686.514766	0.015108
686.717159	0.015090
686.919534	0.015041
687.121891	0.015049
687.324230	0.015294
687.526550	0.015479
687.728852	0.015602
687.931136	0.015653
688.133401	0.015765
688.335649	0.015892
688.537878	0.015915
688.740089	0.016109
688.942281	0.016210
689.144456	0.016121
689.346612	0.016074
689.548750	0.016108
689.750870	0.016071
689.952971	0.015884
690.155055	0.015794
690.357120	0.015683
690.559167	0.015553
690.761195	0.015337
690.963206	0.015368
691.165198	0.015265
691.367172	0.015109
691.569128	0.015060
691.771065	0.015090
691.972984	0.015040
692.174885	0.015201
692.376768	0.015182
692.578633	0.015310
692.780479	0.015387
692.982308	0.015430
693.184118	0.015488
693.385909	0.015523
693.587683	0.015618
693.789438	0.015545
693.991175	0.015380
694.192894	0.015316
694.394595	0.015363
694.596277	0.015185
694.797941	0.015253
694.999587	0.015312
695.201215	0.015251
695.402824	0.015317
695.604416	0.015586
695.805989	0.015731
696.007543	0.015781
696.209080	0.015713
696.410598	0.015782
696.612099	0.015778
696.813580	0.015611
697.015044	0.015652
697.216490	0.015560
697.417917	0.015443
697.619326	0.015393
697.820717	0.015497
698.022089	0.015513
698.223444	0.015560
698.424780	0.015492
698.626098	0.015470
698.827397	0.015575
699.028679	0.015442
699.229942	0.015364
699.431187	0.015339
699.632414	0.015241
699.833622	0.015123
700.034813	0.014997
700.235985	0.014967
700.437139	0.015017
700.638274	0.014864
700.839392	0.014952
701.040491	0.014912
701.241572	0.014946
701.442635	0.014881
701.643679	0.015033
701.844706	0.015068
702.045714	0.015079
702.246704	0.015161
702.447675	0.015209
702.648629	0.015199
702.849564	0.015195
703.050481	0.015138
703.251380	0.014978
703.452260	0.014932
703.653122	0.015090
703.853966	0.015158
704.054792	0.014931
704.255600	0.015036
704.456389	0.014946
704.657160	0.014966
704.857913	0.015062
705.058648	0.015236
705.259365	0.015190
705.460063	0.015023
705.660743	0.015049
705.861405	0.015208
706.062048	0.015140
706.262674	0.015236
706.463281	0.015188
706.663870	0.015046
706.864441	0.015070
707.064993	0.015202
707.265527	0.015192
707.466043	0.015041
707.666541	0.015148
707.867021	0.015158
708.067482	0.015215
708.267925	0.015088
708.468350	0.015303
708.668757	0.015302
708.869145	0.015350
709.069516	0.015391
709.269868	0.015542
709.470201	0.015508
709.670517	0.015341
709.870814	0.015324
710.071093	0.015511
710.271354	0.015525
710.471597	0.015436
710.671821	0.015180
710.872028	0.015094
711.072216	0.015026
711.272385	0.014922
711.472537	0.014955
711.672670	0.014772
711.872785	0.014591
712.072882	0.014396
712.272961	0.014595
712.473021	0.014694
712.673063	0.014698
712.873087	0.014612
713.073093	0.014543
713.273081	0.014499
713.473050	0.014528
713.673001	0.014547
713.872934	0.014536
714.072849	0.014283
714.272745	0.014171
714.472623	0.014060
714.672483	0.014057
714.872325	0.013969
715.072148	0.014085
715.271954	0.014222
715.471741	0.014254
715.671509	0.014280
715.871260	0.014359
716.070992	0.014454
716.270707	0.014595
716.470403	0.014626
716.670080	0.014739
716.869740	0.014728
717.069381	0.014622
717.269004	0.014748
717.468609	0.014713
717.668195	0.014732
717.867764	0.014598
718.067314	0.014630
718.266846	0.014706
718.466360	0.014770
718.665855	0.014794
718.865332	0.014823
719.064791	0.014774
719.264232	0.014776
719.463655	0.014983
719.663059	0.015224
719.862445	0.015150
720.061813	0.015284
720.261163	0.015341
720.460494	0.015399
720.659807	0.015334
720.859102	0.015380
721.058379	0.015353
721.257638	0.015239
721.456878	0.015018
721.656100	0.015107
721.855304	0.015006
722.054490	0.015004
722.253657	0.014863
722.452806	0.014885
722.651937	0.014940
722.851050	0.014954
723.050145	0.014788
723.249221	0.014886
723.448279	0.014900
723.647319	0.014863
723.846340	0.014883
724.045344	0.014936
724.244329	0.015068
724.443296	0.014957
724.642245	0.015086
724.841175	0.015109
725.040088	0.015149
725.238982	0.015049
725.437857	0.015018
725.636715	0.014916
725.835554	0.014937
726.034376	0.014911
726.233179	0.014851
726.431963	0.014751
726.630730	0.014582
726.829478	0.014420
727.028208	0.014304
727.226920	0.014218
727.425614	0.014160
727.624289	0.014095
727.822946	0.014019
728.021585	0.014089
728.220206	0.014098
728.418808	0.014349
728.617392	0.014386
728.815958	0.014336
729.014506	0.014237
729.213036	0.014256
729.411547	0.014178
729.610040	0.014168
729.808515	0.014006
730.006972	0.013863
730.205410	0.013524
730.403831	0.013338
730.602233	0.013338
730.800616	0.013341
730.998982	0.013171
731.197329	0.013223
731.395658	0.013004
731.593969	0.013197
731.792262	0.013249
731.990536	0.013376
732.188793	0.013627
732.387031	0.013732
732.585250	0.013854
732.783452	0.013799
732.981635	0.013606
733.179800	0.013787
733.377947	0.013530
733.576076	0.013314
733.774186	0.013311
733.972278	0.012933
734.170352	0.012941
734.368408	0.012826
734.566446	0.013031
734.764465	0.013215
734.962466	0.013121
735.160449	0.013249
735.358413	0.013393
735.556360	0.013310
735.754288	0.013680
735.952198	0.013579
736.150090	0.013479
736.347963	0.013348
736.545818	0.013343
736.743655	0.013360
736.941474	0.013437
737.139275	0.013466
737.337057	0.013700
737.534821	0.013655
737.732567	0.013690
737.930295	0.013856
738.128005	0.013870
738.325696	0.013818
738.523369	0.013896
738.721024	0.013840
738.918660	0.013895
739.116279	0.013735
739.313879	0.013610
739.511461	0.013595
739.709024	0.013499
739.906570	0.013603
740.104097	0.013675
740.301606	0.013627
740.499097	0.013534
740.696569	0.013602
740.894024	0.013586
741.091460	0.013584
741.288878	0.013631
741.486277	0.013688
741.683659	0.013536
741.881022	0.013614
742.078367	0.013611
742.275694	0.013672
742.473002	0.013559
742.670293	0.013466
742.867565	0.013687
743.064819	0.013823
743.262054	0.013700
743.459272	0.013793
743.656471	0.013753
743.853652	0.013773
744.050815	0.013783
744.247959	0.013782
744.445085	0.013976
744.642194	0.013905
744.839283	0.013804
745.036355	0.013889
745.233408	0.013930
745.430444	0.014016
745.627461	0.014055
745.824459	0.014100
746.021440	0.014181
746.218402	0.014116
746.415346	0.014169
746.612272	0.014257
746.809180	0.014418
747.006069	0.014610
747.202940	0.014687
747.399793	0.014742
747.596628	0.014876
747.793444	0.014958
747.990243	0.015225
748.187023	0.015135
748.383784	0.015017
748.580528	0.015095
748.777253	0.014923
748.973960	0.014770
749.170649	0.014837
749.367320	0.014740
749.563973	0.014684
749.760607	0.014644
749.957223	0.014804
750.153821	0.014915
750.350400	0.014973
750.546962	0.015096
750.743505	0.015173
750.940030	0.015169
751.136536	0.015215
751.333025	0.015247
751.529495	0.015389
751.725947	0.015519
751.922381	0.015668
752.118796	0.015681
752.315194	0.015782
752.511573	0.015919
752.707934	0.016011
752.904276	0.015943
753.100601	0.015867
753.296907	0.015545
753.493195	0.015496
753.689465	0.015345
753.885716	0.015080
754.081949	0.014922
754.278164	0.014609
754.474361	0.014484
754.670540	0.014624
754.866700	0.014675
755.062843	0.014936
755.258967	0.014725
755.455072	0.014551
755.651160	0.014639
755.847229	0.014529
756.043280	0.014607
756.239313	0.014684
756.435328	0.014469
756.631324	0.014537
756.827302	0.014299
757.023262	0.014276
757.219204	0.014227
757.415127	0.014146
757.611033	0.014239
757.806920	0.014269
758.002788	0.014347
758.198639	0.014551
758.394471	0.014641
758.590286	0.014836
758.786081	0.014939
758.981859	0.015162
759.177619	0.015237
759.373360	0.015304
759.569083	0.015234
759.764788	0.014980
759.960474	0.014640
760.156143	0.014644
760.351793	0.014592
760.547425	0.014493
760.743038	0.014476
760.938634	0.014537
761.134211	0.014345
761.329770	0.014268
761.525311	0.014316
761.720833	0.014638
761.916338	0.014524
762.111824	0.014399
762.307292	0.014518
762.502741	0.014586
762.698173	0.014613
762.893586	0.014918
763.088981	0.015108
763.284358	0.015187
763.479716	0.015248
763.675057	0.015219
763.870379	0.015373
764.065683	0.015546
764.260968	0.015401
764.456236	0.015498
764.651485	0.015480
764.846716	0.015708
765.041929	0.015842
765.237123	0.015810
765.432299	0.015949
765.627457	0.016024
765.822597	0.016033
766.017719	0.016353
766.212822	0.016251
766.407907	0.016374
766.602974	0.016369
766.798023	0.016433
766.993054	0.016372
767.188066	0.016297
767.383060	0.016408
767.578036	0.016249
767.772993	0.016134
767.967933	0.016314
768.162854	0.016277
768.357757	0.016315
768.552642	0.016249
768.747508	0.016337
768.942356	0.016461
769.137186	0.016416
769.331998	0.016501
769.526792	0.016643
769.721567	0.016882
769.916324	0.016752
770.111063	0.016601
770.305784	0.016716
770.500486	0.016674
770.695171	0.016698
770.889837	0.016667
771.084484	0.016646
771.279114	0.016541
771.473725	0.016327
771.668318	0.016452
771.862893	0.016683
772.057450	0.016758
772.251988	0.017051
772.446509	0.017132
772.641011	0.017074
772.835494	0.017183
773.029960	0.017196
773.224407	0.017189
773.418836	0.017455
773.613247	0.017425
773.807640	0.017241
774.002014	0.017143
774.196370	0.017094
774.390708	0.017458
774.585028	0.017368
774.779330	0.017417
774.973613	0.017414
775.167878	0.017163
775.362125	0.017176
775.556354	0.017439
775.750564	0.017450
775.944756	0.017513
776.138930	0.017374
776.333086	0.017626
776.527223	0.017720
776.721343	0.017659
776.915444	0.017741
777.109526	0.017596
777.303591	0.017397
777.497637	0.017237
777.691666	0.017182
777.885676	0.017072
778.079667	0.017031
778.273641	0.016993
778.467596	0.017054
778.661533	0.017064
778.855452	0.017312
779.049352	0.017131
779.243235	0.017260
779.437099	0.017259
779.630945	0.017339
779.824773	0.017214
780.018582	0.017143
780.212373	0.017127
780.406146	0.017091
780.599901	0.017002
780.793638	0.017177
780.987356	0.017297
781.181056	0.017353
781.374738	0.017272
781.568402	0.017296
781.762047	0.017340
781.955674	0.017291
782.149283	0.017348
782.342874	0.017188
782.536447	0.017343
782.730001	0.017169
782.923537	0.017286
783.117055	0.017380
783.310555	0.017337
783.504036	0.017543
783.697499	0.017645
783.890944	0.017684
784.084371	0.017755
784.277780	0.017693
784.471170	0.017679
784.664542	0.017620
784.857896	0.017538
785.051231	0.017566
785.244549	0.017480
785.437848	0.017440
785.631129	0.017213
785.824392	0.017168
786.017636	0.017009
786.210863	0.017267
786.404071	0.017093
786.597260	0.017059
786.790432	0.017069
786.983585	0.017052
787.176721	0.017086
787.369838	0.017201
787.562936	0.017225
787.756017	0.017164
787.949079	0.016844
788.142123	0.017007
788.335149	0.017017
788.528156	0.016998
788.721146	0.016971
788.914117	0.016904
789.107070	0.016928
789.300005	0.017063
789.492921	0.017007
789.685819	0.017227
789.878699	0.017113
790.071561	0.017089
790.264405	0.017026
790.457230	0.017033
790.650037	0.017001
790.842826	0.017016
791.035597	0.016977
791.228349	0.017161
791.421084	0.017207
791.613800	0.017304
791.806497	0.017470
791.999177	0.017687
792.191838	0.017897
792.384481	0.018126
792.577106	0.018045
792.769713	0.018096
792.962301	0.018237
793.154871	0.018212
793.347423	0.018260
793.539957	0.018167
793.732473	0.018070
793.924970	0.018033
794.117449	0.017910
794.309910	0.018162
794.502353	0.018110
794.694777	0.018170
794.887183	0.018290
795.079571	0.018372
795.271941	0.018371
795.464293	0.018520
795.656626	0.018318
795.848941	0.018295
796.041238	0.018161
796.233516	0.018251
796.425777	0.018268
796.618019	0.018192
796.810243	0.018162
797.002449	0.018329
797.194636	0.018223
797.386805	0.018286
797.578956	0.018374
797.771089	0.018434
797.963204	0.018434
798.155300	0.018198
798.347378	0.018031
798.539438	0.017899
798.731480	0.017936
798.923503	0.018003
799.115509	0.017919
799.307496	0.017902
799.499465	0.017950
799.691415	0.017868
799.883348	0.017998
800.075262	0.017949
800.267158	0.017931
800.459035	0.017820
800.650895	0.017656
800.842736	0.018007
801.034559	0.018114
801.226364	0.018046
801.418150	0.017988
801.609919	0.018115
801.801669	0.018065
801.993401	0.018048
802.185114	0.018052
802.376810	0.018024
802.568487	0.017566
802.760146	0.017243
802.951787	0.017258
803.143409	0.017424
803.335014	0.017103
803.526600	0.017244
803.718168	0.017421
803.909717	0.017275
804.101249	0.017206
804.292762	0.017435
804.484257	0.017591
804.675734	0.017444
804.867192	0.017198
805.058632	0.017441
805.250054	0.017530
805.441458	0.017621
805.632844	0.017893
805.824211	0.018074
806.015561	0.018231
806.206891	0.018228
806.398204	0.018332
806.589499	0.018499
806.780775	0.018344
806.972033	0.018233
807.163273	0.017887
807.354495	0.017596
807.545698	0.017549
807.736883	0.017233
807.928050	0.017266
808.119199	0.017113
808.310329	0.016844
808.501441	0.016989
808.692535	0.017025
808.883611	0.017117
809.074669	0.017236
809.265708	0.017114
809.456729	0.017011
809.647732	0.016831
809.838717	0.016793
810.029683	0.017023
810.220632	0.016740
810.411562	0.016668
810.602474	0.016541
810.793367	0.016320
810.984242	0.016265
811.175100	0.016340
811.365938	0.016658
811.556759	0.016737
811.747562	0.016728
811.938346	0.016809
812.129112	0.016727
812.319860	0.016803
812.510589	0.016961
812.701300	0.017317
812.891994	0.017458
813.082668	0.017331
813.273325	0.017381
813.463964	0.017296
813.654584	0.017429
813.845186	0.017433
814.035769	0.017392
814.226335	0.017238
814.416882	0.016893
814.607411	0.016782
814.797922	0.016640
814.988415	0.016618
815.178889	0.016393
815.369345	0.016250
815.559783	0.016366
815.750203	0.016358
815.940605	0.016405
816.130988	0.016430
816.321353	0.016473
816.511700	0.016421
816.702028	0.016278
816.892339	0.016532
817.082631	0.016417
817.272905	0.016301
817.463161	0.016206
817.653398	0.016308
817.843617	0.016573
818.033819	0.016455
818.224001	0.016500
818.414166	0.016517
818.604312	0.016234
818.794440	0.016334
818.984550	0.016329
819.174642	0.016470
819.364716	0.016316
819.554771	0.016046
819.744808	0.015991
819.934827	0.015886
820.124827	0.015755
820.314810	0.016061
820.504774	0.016215
820.694720	0.016263
820.884647	0.016073
821.074557	0.016193
821.264448	0.016292
821.454321	0.016509
821.644176	0.016461
821.834012	0.016544
822.023831	0.016321
822.213631	0.016006
822.403413	0.015876
822.593176	0.015880
822.782922	0.015651
822.972649	0.015631
823.162358	0.015367
823.352049	0.015417
823.541721	0.015403
823.731376	0.015431
823.921012	0.015504
824.110629	0.015350
824.300229	0.015327
824.489811	0.015278
824.679374	0.014967
824.868919	0.014867
825.058445	0.014875
825.247954	0.014804
825.437444	0.014747
825.626916	0.014772
825.816370	0.014896
826.005806	0.014961
826.195223	0.014932
826.384622	0.014918
826.574003	0.015008
826.763366	0.014906
826.952711	0.015088
827.142037	0.015038
827.331345	0.015103
827.520635	0.014959
827.709906	0.015073
827.899160	0.015226
828.088395	0.015543
828.277612	0.015678
828.466810	0.015885
828.655991	0.015903
828.845153	0.016076
829.034297	0.016109
829.223423	0.016047
829.412531	0.015959
829.601620	0.016172
829.790691	0.016188
829.979744	0.016136
830.168779	0.016097
830.357795	0.015855
830.546793	0.015683
830.735773	0.015475
830.924735	0.015551
831.113679	0.015535
831.302604	0.015334
831.491511	0.015210
831.680400	0.015167
831.869271	0.015170
832.058123	0.015135
832.246957	0.015109
832.435773	0.015033
832.624571	0.015171
832.813351	0.015168
833.002112	0.015179
833.190855	0.015003
833.379580	0.014955
833.568287	0.014705
833.756975	0.014548
833.945645	0.014469
834.134297	0.014471
834.322931	0.014349
834.511547	0.014004
834.700144	0.013624
834.888723	0.013537
835.077284	0.013340
835.265826	0.012959
835.454351	0.012967
835.642857	0.013143
835.831345	0.012978
836.019815	0.012943
836.208266	0.013065
836.396699	0.013136
836.585114	0.013243
836.773511	0.013292
836.961890	0.013651
837.150250	0.013760
837.338592	0.013651
837.526916	0.013627
837.715222	0.013585
837.903510	0.013741
838.091779	0.013815
838.280030	0.013885
838.468263	0.014002
838.656477	0.014094
838.844674	0.014230
839.032852	0.014442
839.221012	0.014591
839.409153	0.014856
839.597277	0.014791
839.785382	0.015022
839.973469	0.015057
840.161538	0.015123
840.349589	0.015148
840.537621	0.015107
840.725635	0.014956
840.913631	0.014954
841.101609	0.014691
841.289568	0.014800
841.477509	0.014839
841.665432	0.014799
841.853337	0.014764
842.041224	0.014760
842.229092	0.014825
842.416942	0.014998
842.604774	0.015242
842.792588	0.015234
842.980383	0.015245
843.168160	0.015335
843.355919	0.015368
843.543660	0.015446
843.731382	0.015591
843.919087	0.015682
844.106773	0.015513
844.294441	0.015324
844.482090	0.015549
844.669722	0.015304
844.857335	0.015157
845.044930	0.015189
845.232507	0.015015
845.420065	0.014779
845.607605	0.014654
845.795127	0.014682
845.982631	0.014767
846.170117	0.014819
846.357584	0.015010
846.545033	0.014983
846.732464	0.015004
846.919877	0.015094
847.107272	0.015384
847.294648	0.015474
847.482006	0.015692
847.669346	0.015618
847.856667	0.015540
848.043971	0.015810
848.231256	0.015701
848.418523	0.015597
848.605771	0.015624
848.793002	0.015464
848.980214	0.015575
849.167408	0.015470
849.354584	0.015406
849.541742	0.015489
849.728881	0.015418
849.916002	0.015628
850.103105	0.015592
850.290190	0.015634
850.477256	0.015826
850.664304	0.015478
850.851334	0.015471
851.038346	0.015704
851.225340	0.015650
851.412315	0.015499
851.599272	0.015450
851.786211	0.015602
851.973132	0.015713
852.160034	0.015423
852.346918	0.015632
852.533784	0.015528
852.720632	0.015444
852.907462	0.015301
853.094273	0.015500
853.281066	0.015469
853.467841	0.015678
853.654598	0.015745
853.841336	0.015997
854.028056	0.016348
854.214758	0.016614
854.401442	0.016763
854.588107	0.016936
854.774755	0.016991
854.961384	0.017072
855.147995	0.016949
855.334587	0.016851
855.521162	0.016832
855.707718	0.016773
855.894256	0.016690
856.080775	0.016616
856.267277	0.016827
856.453760	0.016881
856.640225	0.017030
856.826672	0.017042
857.013101	0.017003
857.199511	0.016998
857.385903	0.016686
857.572277	0.016413
857.758633	0.016576
857.944970	0.016521
858.131290	0.016398
858.317591	0.016526
858.503873	0.016712
858.690138	0.017187
858.876384	0.017508
859.062612	0.017675
859.248822	0.017934
859.435014	0.017708
859.621188	0.017586
859.807343	0.017601
859.993480	0.017405
860.179599	0.017054
860.365699	0.016668
860.551781	0.016274
860.737846	0.016306
860.923891	0.016202
861.109919	0.016415
861.295929	0.016530
861.481920	0.016518
861.667893	0.016289
861.853848	0.016338
862.039784	0.016374
862.225702	0.016374
862.411603	0.016127
862.597484	0.016275
862.783348	0.016025
862.969193	0.015850
863.155021	0.015792
863.340830	0.016238
863.526620	0.016423
863.712393	0.016424
863.898147	0.016571
864.083883	0.016842
864.269601	0.016737
864.455301	0.016996
864.640982	0.017155
864.826645	0.017373
865.012290	0.017331
865.197917	0.017657
865.383526	0.017698
865.569116	0.017954
865.754688	0.017925
865.940242	0.018003
866.125777	0.018092
866.311295	0.018344
866.496794	0.018447
866.682275	0.018592
866.867737	0.018402
867.053182	0.018578
867.238608	0.018424
867.424016	0.018566
867.609406	0.018728
867.794778	0.018932
867.980131	0.018654
868.165466	0.018308
868.350783	0.018005
868.536082	0.017912
868.721362	0.017618
868.906625	0.017356
869.091869	0.017381
869.277094	0.017343
869.462302	0.017113
869.647491	0.017127
869.832662	0.017245
870.017815	0.017308
870.202950	0.017230
870.388066	0.017323
870.573165	0.017743
870.758245	0.017347
870.943306	0.017391
871.128350	0.017263
871.313375	0.017214
871.498382	0.017320
871.683371	0.017366
871.868342	0.017395
872.053294	0.017474
872.238229	0.017256
872.423144	0.017399
872.608042	0.017388
872.792922	0.017552
872.977783	0.017878
873.162626	0.018004
873.347451	0.017566
873.532258	0.017737
873.717046	0.017556
873.901816	0.017548
874.086568	0.017839
874.271302	0.017884
874.456017	0.018023
874.640715	0.017920
874.825394	0.017864
875.010055	0.018041
875.194697	0.018033
875.379322	0.018012
875.563928	0.018058
875.748516	0.017884
875.933085	0.017757
876.117637	0.017675
876.302170	0.017366
876.486685	0.017297
876.671182	0.017469
876.855661	0.017526
877.040121	0.017924
877.224563	0.017894
877.408987	0.017998
877.593393	0.017979
877.777780	0.017826
877.962150	0.018155
878.146501	0.018057
878.330833	0.018009
878.515148	0.017671
878.699444	0.017488
878.883722	0.017643
879.067982	0.017729
879.252224	0.017753
879.436447	0.017869
879.620653	0.017813
879.804840	0.017915
879.989008	0.018241
880.173159	0.018443
880.357291	0.018597
880.541405	0.018675
880.725501	0.018679
880.909579	0.018872
881.093638	0.018856
881.277680	0.018949
881.461703	0.019054
881.645707	0.018829
881.829694	0.018785
882.013662	0.018965
882.197612	0.019046
882.381544	0.018933
882.565458	0.018614
882.749353	0.018317
882.933230	0.018066
883.117089	0.017963
883.300930	0.018163
883.484753	0.018260
883.668557	0.017800
883.852343	0.017469
884.036111	0.017275
884.219861	0.017373
884.403592	0.017329
884.587305	0.017497
884.771000	0.017631
884.954677	0.017812
885.138335	0.017841
885.321976	0.018039
885.505598	0.018182
885.689201	0.018536
885.872787	0.018677
886.056354	0.019001
886.239904	0.019131
886.423434	0.019018
886.606947	0.018527
886.790442	0.018608
886.973918	0.018587
887.157376	0.018506
887.340816	0.018169
887.524237	0.018322
887.707641	0.018420
887.891026	0.018298
888.074393	0.018265
888.257741	0.018594
888.441072	0.018506
888.624384	0.018442
888.807678	0.018475
888.990954	0.018695
889.174211	0.018432
889.357451	0.018364
889.540672	0.018347
889.723875	0.018319
889.907059	0.018055
890.090226	0.018067
890.273374	0.018251
890.456504	0.018279
890.639616	0.018034
890.822709	0.018030
891.005785	0.018082
891.188842	0.018005
891.371881	0.017948
891.554901	0.018106
891.737904	0.017931
891.920888	0.017494
892.103854	0.017396
892.286802	0.017390
892.469731	0.017537
892.652643	0.017367
892.835536	0.017364
893.018410	0.017244
893.201267	0.017303
893.384106	0.017342
893.566926	0.017573
893.749728	0.017781
893.932511	0.018077
894.115277	0.018177
894.298024	0.018323
894.480753	0.018364
894.663464	0.018526
894.846157	0.018291
895.028831	0.018349
895.211487	0.018276
895.394125	0.018312
895.576745	0.018420
895.759346	0.018250
895.941930	0.018115
896.124495	0.018320
896.307041	0.018514
896.489570	0.018713
896.672080	0.018459
896.854573	0.018484
897.037046	0.018423
897.219502	0.018319
897.401940	0.018236
897.584359	0.018308
897.766760	0.018058
897.949143	0.018071
898.131507	0.017587
898.313854	0.017774
898.496182	0.017853
898.678492	0.017433
898.860783	0.017282
899.043057	0.017264
899.225312	0.017267
899.407549	0.017355
899.589768	0.017330
899.771968	0.017458
899.954151	0.017202
900.136315	0.017197
900.318461	0.017451
900.500588	0.017390
900.682698	0.017587
900.864789	0.017443
901.046862	0.017518
901.228917	0.016987
901.410953	0.017443
901.592971	0.017780
901.774972	0.018215
901.956953	0.017943
902.138917	0.018055
902.320862	0.017979
902.502790	0.018049
902.684699	0.017849
902.866589	0.018165
903.048462	0.017871
903.230316	0.017817
903.412152	0.017499
903.593970	0.017785
903.775770	0.017986
903.957551	0.017950
904.139314	0.018104
904.321059	0.018003
904.502786	0.018056
904.684494	0.018003
904.866185	0.017997
905.047857	0.018252
905.229510	0.018802
905.411146	0.018784
905.592763	0.019064
905.774363	0.018679
905.955943	0.018759
906.137506	0.018927
906.319051	0.019134
906.500577	0.019494
906.682085	0.019218
906.863575	0.019147
907.045046	0.019335
907.226500	0.019108
907.407935	0.019322
907.589352	0.019445
907.770750	0.019321
907.952131	0.019427
908.133493	0.018939
908.314837	0.018591
908.496163	0.018238
908.677470	0.018158
908.858760	0.018305
909.040031	0.018537
909.221284	0.018777
909.402518	0.018958
909.583735	0.018861
909.764933	0.019217
909.946113	0.019691
910.127275	0.019578
910.308418	0.019332
910.489544	0.019164
910.670651	0.019174
910.851740	0.019326
911.032810	0.019220
911.213863	0.019172
911.394897	0.018887
911.575913	0.018538
911.756911	0.018365
911.937890	0.018229
912.118851	0.018085
912.299794	0.018078
912.480719	0.017561
912.661626	0.017400
912.842514	0.017216
913.023384	0.017260
913.204236	0.017154
913.385070	0.017251
913.565886	0.017228
913.746683	0.017050
913.927462	0.016684
914.108223	0.016260
914.288965	0.015761
914.469690	0.015981
914.650396	0.015791
914.831084	0.015428
915.011754	0.015721
915.192405	0.015475
915.373038	0.015335
915.553653	0.015237
915.734250	0.015378
915.914829	0.015662
916.095389	0.015385
916.275931	0.015146
916.456455	0.015345
916.636961	0.014828
916.817448	0.014981
916.997917	0.015085
917.178368	0.015111
917.358801	0.015154
917.539216	0.015132
917.719612	0.015090
917.899990	0.014992
918.080350	0.015037
918.260692	0.014861
918.441015	0.014686
918.621320	0.014511
918.801607	0.014356
918.981876	0.013939
919.162127	0.013853
919.342359	0.013700
919.522573	0.014078
919.702769	0.013992
919.882947	0.013985
920.063106	0.013980
920.243247	0.014037
920.423370	0.013965
920.603475	0.013858
920.783562	0.013491
920.963630	0.013239
921.143680	0.012603
921.323712	0.012627
921.503725	0.012791
921.683721	0.012710
921.863698	0.012856
922.043657	0.012874
922.223598	0.013185
922.403520	0.012725
922.583424	0.012755
922.763311	0.013069
922.943178	0.013292
923.123028	0.012938
923.302859	0.012583
923.482673	0.012469
923.662467	0.012207
923.842244	0.012206
924.022003	0.012785
924.201743	0.012805
924.381465	0.012378
924.561169	0.011685
924.740854	0.011406
924.920522	0.011177
925.100171	0.010709
925.279802	0.011245
925.459414	0.010862
925.639009	0.010502
925.818585	0.010022
925.998143	0.010291
926.177683	0.010390
926.357205	0.010214
926.536708	0.010625
926.716193	0.010642
926.895660	0.010015
927.075109	0.010108
927.254539	0.010372
927.433951	0.010804
927.613345	0.010354
927.792721	0.010036
927.972079	0.010167
928.151418	0.009849
928.330739	0.009488
928.510042	0.009170
928.689327	0.009001
928.868593	0.008451
929.047841	0.008316
929.227071	0.008347
929.406283	0.008252
929.585476	0.007710
929.764652	0.006999
929.943809	0.006831
930.122948	0.006564
930.302068	0.006545
930.481171	0.006624
930.660255	0.005922
930.839321	0.005681
931.018369	0.005412
931.197398	0.005730
931.376409	0.006026
931.555402	0.005753
931.734377	0.005906
931.913334	0.005395
932.092272	0.004955
932.271192	0.004747
932.450094	0.004623
932.628978	0.005032
932.807844	0.005224
932.986691	0.005359
933.165520	0.005625
933.344331	0.005151
933.523123	0.005162
933.701898	0.005124
933.880654	0.005478
934.059392	0.005710
934.238111	0.005721
934.416813	0.005432
934.595496	0.005000
934.774161	0.005395
934.952808	0.005274
935.131437	0.005145
935.310047	0.005206
935.488639	0.004942
935.667213	0.004610
935.845769	0.003955
936.024306	0.003607
936.202825	0.003426
936.381326	0.002478
936.559809	0.002669
936.738274	0.002393
936.916720	0.002394
937.095148	0.001919
937.273558	0.001702
937.451950	0.001603
937.630323	0.001515
937.808678	0.001834
937.987015	0.001308
938.165334	0.001095
938.343635	0.001057
938.521917	0.000639
938.700181	0.001211
938.878427	0.000990
939.056655	0.000545
939.234864	0.000278
939.413055	-0.000070
939.591228	0.000316
939.769383	0.000007
939.947519	-0.000115
940.125638	0.000375
940.303738	-0.000449
940.481820	-0.000246
940.659883	-0.000815
940.837929	-0.000714
941.015956	-0.000929
941.193965	-0.001698
941.371955	-0.001848
941.549928	-0.001380
941.727882	-0.002153
941.905818	-0.001807
942.083736	-0.002340
942.261636	-0.001590
942.439517	-0.002418
942.617380	-0.002339
942.795225	-0.001422
942.973052	-0.001730
943.150860	-0.001975
943.328651	-0.001544
943.506423	-0.001890
943.684176	-0.001680
943.861912	-0.001704
944.039629	-0.001107
944.217328	-0.001363
944.395009	-0.001240
944.572672	-0.001333
944.750317	-0.001428
944.927943	-0.001339
945.105551	-0.001767
945.283141	-0.002029
945.460712	-0.001545
945.638265	-0.001251
945.815801	-0.001164
945.993317	-0.002049
946.170816	-0.001885
946.348297	-0.001912
946.525759	-0.002879
946.703203	-0.001490
946.880629	-0.001201
947.058036	-0.002257
947.235425	-0.001483
947.412797	-0.001624
947.590149	-0.001111
947.767484	-0.000201
947.944800	-0.000382
948.122099	0.000246
948.299379	-0.000483
948.476640	-0.000471
948.653884	-0.000160
948.831109	-0.001560
949.008316	-0.001262
949.185505	-0.000653
949.362676	-0.000627
949.539828	-0.000419
949.716962	-0.001122
949.894078	-0.000806
950.071176	-0.001370
950.248256	-0.001273
950.425317	-0.001264
950.602360	-0.000954
950.779385	-0.000953
950.956391	-0.000247
951.133380	-0.000691
951.310350	-0.000991
951.487302	-0.001687
951.664235	-0.001786
951.841151	-0.000365
952.018048	-0.000036
952.194927	-0.000364
952.371788	-0.000820
952.548631	-0.002272
952.725455	-0.002130
952.902261	-0.000846
953.079049	-0.000535
953.255819	0.000963
953.432570	0.000472
953.609303	0.000379
953.786018	0.000478
953.962715	0.001405
954.139394	0.001165
954.316054	0.002095
954.492696	0.002241
954.669320	0.002605
954.845926	0.001917
955.022513	0.001932
955.199083	0.002788
955.375634	0.003300
955.552166	0.002640
955.728681	0.003787
955.905177	0.004349
956.081655	0.006334
956.258115	0.006827
956.434557	0.007346
956.610980	0.006884
956.787385	0.007947
956.963772	0.008951
957.140141	0.009855
957.316492	0.010931
957.492824	0.010196
957.669138	0.008952
957.845434	0.008797
958.021712	0.008017
958.197971	0.008421
958.374212	0.008293
958.550435	0.008388
958.726640	0.008316
958.902826	0.007645
959.078995	0.008460
959.255145	0.007246
959.431277	0.007934
959.607390	0.009830
959.783486	0.011002
959.959563	0.009738
960.135622	0.010831
960.311662	0.011012
960.487685	0.012211
960.663689	0.013384
960.839675	0.015108
961.015643	0.016324
961.191593	0.015554
961.367524	0.014623
961.543437	0.016633
961.719332	0.014616
961.895209	0.016182
962.071067	0.016756
962.246907	0.018121
962.422730	0.018829
962.598533	0.020088
962.774319	0.022265
962.950086	0.023222
963.125835	0.024317
963.301566	0.024913
963.477279	0.024871
963.652973	0.024673
963.828650	0.023000
964.004308	0.021632
964.179947	0.020498
964.355569	0.020279
964.531172	0.020456
964.706757	0.018557
964.882324	0.019124
965.057873	0.018580
965.233403	0.018935
965.408916	0.018518
965.584410	0.020541
965.759885	0.020913
965.935343	0.020896
966.110782	0.020751
966.286203	0.021897
966.461606	0.023733
966.636991	0.023498
966.812357	0.024027
966.987705	0.025097
967.163035	0.024005
967.338347	0.023980
967.513641	0.025578
967.688916	0.026899
967.864173	0.025786
968.039412	0.025126
968.214632	0.028136
968.389835	0.026765
968.565019	0.026084
968.740185	0.026806
968.915333	0.026565
969.090462	0.025869
969.265573	0.026883
969.440667	0.030416
969.615741	0.030714
969.790798	0.027809
969.965836	0.029102
970.140856	0.027811
970.315858	0.029082
970.490842	0.029600
970.665808	0.027311
970.840755	0.025303
971.015684	0.025067
971.190595	0.025157
971.365487	0.026131
971.540362	0.027710
971.715218	0.030799
971.890056	0.029836
972.064875	0.030816
972.239677	0.032739
972.414460	0.033921
972.589225	0.031158
972.763972	0.031017
972.938700	0.030506
973.113411	0.029362
973.288103	0.028671
973.462777	0.027177
973.637432	0.026334
973.812070	0.026294
973.986689	0.025552
974.161290	0.025627
974.335873	0.025979
974.510437	0.026280
974.684984	0.025527
974.859512	0.024888
975.034022	0.027472
975.208513	0.027400
975.382987	0.027606
975.557442	0.028385
975.731879	0.029306
975.906298	0.028214
976.080698	0.026930
976.255080	0.027186
976.429445	0.027662
976.603790	0.026278
976.778118	0.028209
976.952427	0.027013
977.126719	0.026341
977.300992	0.024680
977.475246	0.025635
977.649483	0.026866
977.823701	0.026139
977.997901	0.026336
978.172083	0.027368
978.346247	0.024830
978.520392	0.025570
978.694519	0.025101
978.868628	0.028185
979.042719	0.027101
979.216791	0.027822
979.390845	0.028713
979.564882	0.030100
979.738899	0.027983
979.912899	0.029549
980.086880	0.028219
980.260843	0.030349
980.434788	0.029757
980.608715	0.031840
980.782623	0.031995
980.956514	0.032875
981.130386	0.030759
981.304240	0.033019
981.478075	0.031721
981.651892	0.032463
981.825692	0.029752
981.999472	0.029124
982.173235	0.027709
982.346980	0.027494
982.520706	0.027325
982.694414	0.027152
982.868104	0.026109
983.041775	0.026462
983.215428	0.025785
983.389064	0.028101
983.562680	0.028028
983.736279	0.028813
983.909860	0.029066
984.083422	0.028022
984.256966	0.028850
984.430491	0.028513
984.603999	0.027442
984.777488	0.029941
984.950959	0.027794
985.124412	0.027705
985.297847	0.028101
985.471263	0.026610
985.644661	0.027046
985.818041	0.026552
985.991403	0.027143
986.164747	0.029075
986.338072	0.028309
986.511379	0.029116
986.684668	0.029351
986.857938	0.028167
987.031191	0.029768
987.204425	0.029774
987.377641	0.029845
987.550839	0.031294
987.724018	0.031191
987.897179	0.030578
988.070322	0.032674
988.243447	0.031982
988.416554	0.031904
988.589642	0.032026
988.762712	0.032463
988.935764	0.033400
989.108798	0.032326
989.281813	0.032462
989.454811	0.033830
989.627790	0.032173
989.800751	0.031844
989.973693	0.030892
990.146617	0.030423
990.319524	0.029965
990.492412	0.030489
990.665281	0.029663
990.838133	0.029044
991.010966	0.028872
991.183781	0.028335
991.356578	0.029081
991.529356	0.029140
991.702117	0.030396
991.874859	0.029984
992.047583	0.028851
992.220288	0.030131
992.392976	0.029844
992.565645	0.029283
992.738296	0.030430
992.910929	0.030133
993.083543	0.031113
993.256139	0.029318
993.428718	0.030413
993.601277	0.030701
993.773819	0.029584
993.946342	0.030299
994.118848	0.030734
994.291335	0.029940
994.463803	0.029800
994.636254	0.029513
994.808686	0.029486
994.981100	0.029666
995.153496	0.029747
995.325874	0.029796
995.498233	0.028662
995.670574	0.026594
995.842897	0.027326
996.015202	0.027716
996.187488	0.029007
996.359757	0.030606
996.532007	0.029177
996.704239	0.029342
996.876452	0.030085
997.048648	0.031024
997.220825	0.033422
997.392984	0.032876
997.565124	0.032685
997.737247	0.031381
997.909351	0.031554
998.081437	0.031461
998.253505	0.029891
998.425554	0.028831
998.597586	0.027749
998.769599	0.026601
998.941594	0.026163
999.113571	0.027100
999.285529	0.027039
999.457469	0.025291
999.629391	0.024616
999.801295	0.025323
999.973181	0.025518
1000.145048	0.026457
1000.316897	0.026195
1000.488728	0.026757
1000.660541	0.026743
1000.832335	0.026376
1001.004111	0.027918
1001.175869	0.028370
1001.347609	0.029154
1001.519331	0.029014
1001.691034	0.028839
1001.862719	0.030569
1002.034386	0.030078
1002.206035	0.030461
1002.377665	0.031533
1002.549277	0.029574
1002.720871	0.030646
1002.892447	0.030302
1003.064004	0.030388
1003.235544	0.029071
1003.407065	0.028370
1003.578568	0.028373
1003.750052	0.026688
1003.921519	0.026908
1004.092967	0.027212
1004.264397	0.025710
1004.435809	0.024976
1004.607202	0.025209
1004.778577	0.025994
1004.949934	0.024522
1005.121273	0.023075
1005.292594	0.025511
1005.463896	0.025170
1005.635180	0.025690
1005.806446	0.025896
1005.977694	0.027026
1006.148923	0.028234
1006.320135	0.026675
1006.491328	0.025172
1006.662503	0.026595
1006.833659	0.022699
1007.004798	0.021933
1007.175918	0.021423
1007.347020	0.021894
1007.518103	0.021306
1007.689169	0.019356
1007.860216	0.020730
1008.031245	0.023326
1008.202256	0.023588
1008.373248	0.025540
1008.544223	0.024849
1008.715179	0.023223
1008.886117	0.023250
1009.057036	0.023364
1009.227938	0.025512
1009.398821	0.025897
1009.569686	0.024486
1009.740533	0.024419
1009.911361	0.024702
1010.082172	0.025042
1010.252964	0.027761
1010.423738	0.027279
1010.594493	0.026328
1010.765231	0.024185
1010.935950	0.024858
1011.106651	0.026039
1011.277334	0.025042
1011.447998	0.024386
1011.618645	0.025208
1011.789273	0.023192
1011.959882	0.023781
1012.130474	0.024494
1012.301048	0.026011
1012.471603	0.024901
1012.642140	0.023801
1012.812658	0.023942
1012.983159	0.023965
1013.153641	0.024178
1013.324105	0.023571
1013.494551	0.022812
1013.664979	0.023125
1013.835388	0.020998
1014.005779	0.021510
1014.176152	0.022223
1014.346507	0.023060
1014.516843	0.022574
1014.687162	0.020487
1014.857462	0.021954
1015.027744	0.023305
1015.198007	0.023089
1015.368252	0.024577
1015.538480	0.025014
1015.708689	0.024780
1015.878879	0.024292
1016.049052	0.024115
1016.219206	0.025463
1016.389342	0.026160
1016.559460	0.025448
1016.729559	0.024921
1016.899641	0.025738
1017.069704	0.026939
1017.239749	0.027435
1017.409775	0.027213
1017.579784	0.027751
1017.749774	0.027626
1017.919746	0.027054
1018.089700	0.027222
1018.259635	0.028153
1018.429553	0.028077
1018.599452	0.025454
1018.769333	0.025306
1018.939195	0.024401
1019.109040	0.025440
1019.278866	0.025357
1019.448674	0.025122
1019.618464	0.024594
1019.788235	0.023531
1019.957989	0.021908
1020.127724	0.022381
1020.297441	0.022450
1020.467139	0.023636
1020.636820	0.021956
1020.806482	0.022332
1020.976126	0.022789
1021.145752	0.023991
1021.315359	0.025380
1021.484948	0.026413
1021.654519	0.026240
1021.824072	0.026761
1021.993607	0.025160
1022.163123	0.026208
1022.332621	0.026079
1022.502101	0.026467
1022.671563	0.025467
1022.841007	0.023823
1023.010432	0.023600
1023.179839	0.023218
1023.349228	0.022956
1023.518598	0.026220
1023.687951	0.026503
1023.857285	0.026859
1024.026601	0.026346
1024.195899	0.027045
1024.365178	0.027022
1024.534439	0.027658
1024.703682	0.028675
1024.872907	0.028975
1025.042114	0.028069
1025.211302	0.027718
1025.380472	0.027188
1025.549624	0.028514
1025.718758	0.027564
1025.887873	0.027704
1026.056970	0.025639
1026.226049	0.024749
1026.395110	0.023602
1026.564153	0.023933
1026.733177	0.024149
1026.902183	0.024405
1027.071171	0.023142
1027.240141	0.022294
1027.409092	0.022384
1027.578026	0.024174
1027.746940	0.024374
1027.915837	0.026407
1028.084716	0.026489
1028.253576	0.025916
1028.422418	0.026417
1028.591242	0.025114
1028.760048	0.025637
1028.928835	0.026953
1029.097604	0.025832
1029.266355	0.027337
1029.435088	0.024628
1029.603803	0.023956
1029.772499	0.024492
1029.941177	0.023005
1030.109837	0.024521
1030.278478	0.024826
1030.447102	0.023528
1030.615707	0.024187
1030.784294	0.024070
1030.952863	0.026508
1031.121413	0.025831
1031.289945	0.025360
1031.458460	0.026781
1031.626955	0.025436
1031.795433	0.025503
1031.963892	0.027746
1032.132334	0.028254
1032.300756	0.026868
1032.469161	0.025547
1032.637548	0.027008
1032.805916	0.025871
1032.974266	0.026424
1033.142598	0.025566
1033.310911	0.025711
1033.479207	0.023367
1033.647484	0.022399
1033.815743	0.023445
1033.983983	0.023802
1034.152206	0.021428
1034.320410	0.023043
1034.488596	0.022123
1034.656764	0.024393
1034.824914	0.024371
1034.993045	0.024638
1035.161158	0.025442
1035.329253	0.025040
1035.497330	0.023984
1035.665388	0.025457
1035.833428	0.025021
1036.001450	0.026317
1036.169454	0.025589
1036.337440	0.026184
1036.505407	0.026493
1036.673356	0.025684
1036.841287	0.024667
1037.009200	0.024733
1037.177094	0.023754
1037.344970	0.024761
1037.512828	0.023026
1037.680668	0.023450
1037.848489	0.023167
1038.016293	0.022916
1038.184078	0.024249
1038.351845	0.026383
1038.519593	0.026111
1038.687324	0.025835
1038.855036	0.024958
1039.022730	0.024342
1039.190406	0.023812
1039.358063	0.024573
1039.525702	0.023258
1039.693323	0.022372
1039.860926	0.020688
1040.028511	0.019561
1040.196077	0.021083
1040.363625	0.021686
1040.531155	0.022700
1040.698667	0.022285
1040.866161	0.021045
1041.033636	0.021801
1041.201093	0.022066
1041.368532	0.022831
1041.535952	0.024965
1041.703355	0.025167
1041.870739	0.024363
1042.038105	0.026315
1042.205452	0.027249
1042.372782	0.028112
1042.540093	0.030814
1042.707386	0.029075
1042.874661	0.028412
1043.041918	0.028386
1043.209156	0.027546
1043.376376	0.027828
1043.543578	0.026436
1043.710762	0.026832
1043.877927	0.026619
1044.045074	0.025092
1044.212203	0.025621
1044.379314	0.027443
1044.546407	0.027066
1044.713481	0.028081
1044.880537	0.029080
1045.047575	0.029392
1045.214595	0.030259
1045.381596	0.030102
1045.548579	0.029975
1045.715544	0.029732
1045.882491	0.027695
1046.049420	0.027551
1046.216330	0.025281
1046.383222	0.024208
1046.550096	0.022309
1046.716951	0.019934
1046.883789	0.021188
1047.050608	0.021477
1047.217409	0.022315
1047.384192	0.023940
1047.550956	0.024500
1047.717703	0.026671
1047.884431	0.026668
1048.051140	0.028891
1048.217832	0.030873
1048.384505	0.028532
1048.551161	0.028358
1048.717798	0.028677
1048.884416	0.027438
1049.051017	0.027487
1049.217599	0.027096
1049.384163	0.028329
1049.550709	0.027101
1049.717237	0.025651
1049.883746	0.026953
1050.050237	0.025248
1050.216710	0.026341
1050.383165	0.025164
1050.549601	0.024203
1050.716019	0.023947
1050.882420	0.022127
1051.048801	0.020418
1051.215165	0.020043
1051.381510	0.019901
1051.547837	0.021566
1051.714146	0.020912
1051.880437	0.022557
1052.046709	0.023858
1052.212964	0.022326
1052.379200	0.023383
1052.545417	0.024821
1052.711617	0.025968
1052.877798	0.024558
1053.043961	0.023756
1053.210106	0.022389
1053.376233	0.021830
1053.542341	0.020169
1053.708432	0.021662
1053.874504	0.020454
1054.040557	0.021462
1054.206593	0.019858
1054.372610	0.021167
1054.538609	0.020882
1054.704590	0.023739
1054.870553	0.023564
1055.036497	0.024618
1055.202424	0.023646
1055.368331	0.023565
1055.534221	0.023805
1055.700093	0.024235
1055.865946	0.023557
1056.031781	0.024986
1056.197598	0.024338
1056.363397	0.023771
1056.529177	0.025467
1056.694939	0.028421
1056.860683	0.030880
1057.026409	0.029453
1057.192116	0.030347
1057.357806	0.030109
1057.523477	0.028563
1057.689130	0.027519
1057.854764	0.028311
1058.020381	0.026593
1058.185979	0.024073
1058.351559	0.022432
1058.517120	0.022626
1058.682664	0.023060
1058.848189	0.025607
1059.013696	0.027717
1059.179185	0.028595
1059.344656	0.029047
1059.510108	0.028776
1059.675542	0.028500
1059.840958	0.027943
1060.006356	0.027342
1060.171735	0.026069
1060.337096	0.025020
1060.502439	0.023959
1060.667764	0.022481
1060.833071	0.022426
1060.998359	0.022040
1061.163629	0.023180
1061.328881	0.023453
1061.494115	0.023828
1061.659330	0.024299
1061.824527	0.024670
1061.989706	0.022919
1062.154867	0.021974
1062.320010	0.019380
1062.485134	0.020159
1062.650240	0.020604
1062.815328	0.019201
1062.980398	0.016681
1063.145449	0.016489
1063.310482	0.014724
1063.475497	0.014857
1063.640494	0.016977
1063.805473	0.018917
1063.970433	0.018159
1064.135375	0.017738
1064.300299	0.019156
1064.465204	0.022581
1064.630092	0.022886
1064.794961	0.023544
1064.959812	0.025442
1065.124645	0.024863
1065.289459	0.025380
1065.454256	0.025407
1065.619034	0.024459
1065.783793	0.023836
1065.948535	0.022198
1066.113258	0.021025
1066.277964	0.019643
1066.442651	0.017980
1066.607319	0.017960
1066.771970	0.018776
1066.936602	0.020362
1067.101216	0.019814
1067.265812	0.019844
1067.430389	0.020579
1067.594949	0.022350
1067.759490	0.022652
1067.924013	0.023562
1068.088518	0.021531
1068.253004	0.019311
1068.417472	0.018744
1068.581922	0.019455
1068.746354	0.019213
1068.910768	0.019241
1069.075163	0.018802
1069.239540	0.019862
1069.403899	0.019896
1069.568240	0.020994
1069.732562	0.022643
1069.896866	0.022410
1070.061152	0.021834
1070.225420	0.024834
1070.389670	0.025787
1070.553901	0.025341
1070.718114	0.026094
1070.882309	0.027272
1071.046486	0.026346
1071.210644	0.026282
1071.374784	0.025686
1071.538906	0.025946
1071.703010	0.023667
1071.867096	0.022881
1072.031163	0.022555
1072.195212	0.022284
1072.359243	0.022686
1072.523256	0.024398
1072.687250	0.022679
1072.851226	0.022263
1073.015184	0.021007
1073.179124	0.019789
1073.343045	0.020190
1073.506949	0.020115
1073.670834	0.021030
1073.834701	0.021152
1073.998549	0.019897
1074.162380	0.021448
1074.326192	0.023116
1074.489986	0.025336
1074.653761	0.025987
1074.817519	0.026543
1074.981258	0.026721
1075.144979	0.024833
1075.308682	0.022754
1075.472367	0.023298
1075.636033	0.022178
1075.799681	0.021314
1075.963311	0.020618
1076.126923	0.020439
1076.290516	0.019299
1076.454092	0.018926
1076.617649	0.018745
1076.781187	0.018486
1076.944708	0.018099
1077.108210	0.017828
1077.271695	0.017439
1077.435160	0.016265
1077.598608	0.017025
1077.762038	0.017314
1077.925449	0.015285
1078.088842	0.016059
1078.252217	0.014835
1078.415573	0.014456
1078.578912	0.014873
1078.742232	0.014574
1078.905534	0.016133
1079.068817	0.017690
1079.232083	0.018623
1079.395330	0.021511
1079.558559	0.021576
1079.721770	0.024797
1079.884962	0.025121
1080.048136	0.025982
1080.211293	0.025525
1080.374430	0.025634
1080.537550	0.023711
1080.700651	0.020273
1080.863735	0.018855
1081.026800	0.017513
1081.189846	0.017923
1081.352875	0.017128
1081.515885	0.016196
1081.678877	0.017932
1081.841851	0.017218
1082.004807	0.018553
1082.167744	0.021296
1082.330663	0.020266
1082.493564	0.019722
1082.656447	0.017132
1082.819312	0.017671
1082.982158	0.017471
1083.144986	0.015908
1083.307796	0.015697
1083.470587	0.014703
1083.633361	0.013076
1083.796116	0.014801
1083.958853	0.015753
1084.121571	0.016949
1084.284272	0.018391
1084.446954	0.018889
1084.609618	0.020744
1084.772264	0.021453
1084.934892	0.021921
1085.097501	0.022180
1085.260092	0.023642
1085.422665	0.025666
1085.585220	0.024625
1085.747756	0.023679
1085.910274	0.024265
1086.072774	0.022748
1086.235256	0.020186
1086.397720	0.020670
1086.560165	0.019629
1086.722592	0.016870
1086.885001	0.017242
1087.047392	0.017728
1087.209764	0.018837
1087.372119	0.016452
1087.534455	0.017647
1087.696772	0.020564
1087.859072	0.019413
1088.021353	0.019425
1088.183616	0.019175
1088.345861	0.017933
1088.508088	0.018463
1088.670296	0.018531
1088.832486	0.020241
1088.994658	0.019505
1089.156812	0.021353
1089.318948	0.019517
1089.481065	0.021014
1089.643164	0.023435
1089.805245	0.023918
1089.967308	0.023800
1090.129352	0.020928
1090.291378	0.021791
1090.453386	0.020977
1090.615376	0.018729
1090.777347	0.022219
1090.939301	0.022210
1091.101236	0.019932
1091.263153	0.020146
1091.425051	0.020913
1091.586932	0.024546
1091.748794	0.023922
1091.910638	0.021298
1092.072463	0.020059
1092.234271	0.018884
1092.396060	0.019615
1092.557831	0.021766
1092.719584	0.021804
1092.881319	0.020076
1093.043035	0.017354
1093.204733	0.016758
1093.366413	0.020540
1093.528075	0.022345
1093.689718	0.020422
1093.851343	0.019755
1094.012950	0.020271
1094.174539	0.019376
1094.336110	0.019985
1094.497662	0.023728
1094.659196	0.027037
1094.820712	0.025331
1094.982210	0.022938
1095.143689	0.024708
1095.305151	0.023877
1095.466594	0.022700
1095.628018	0.022502
1095.789425	0.022733
1095.950813	0.019729
1096.112183	0.016088
1096.273535	0.017523
1096.434869	0.018959
1096.596184	0.019810
1096.757482	0.023000
1096.918761	0.024970
1097.080021	0.023438
1097.241264	0.025522
1097.402488	0.023886
1097.563694	0.022655
1097.724882	0.023719
1097.886052	0.024362
1098.047203	0.022431
1098.208336	0.020069
1098.369451	0.017319
1098.530548	0.018583
1098.691627	0.013868
1098.852687	0.017917
1099.013729	0.019183
1099.174753	0.017569
1099.335758	0.015957
1099.496746	0.016343
1099.657715	0.019000
1099.818666	0.019683
1099.979599	0.019030
1100.140513	0.020874
1100.301409	0.016782
1100.462287	0.018635
1100.623147	0.016439
1100.783989	0.016620
1100.944812	0.016909
1101.105617	0.014763
1101.266404	0.010270
1101.427173	0.012485
1101.587923	0.011746
1101.748656	0.011652
1101.909370	0.010151
1102.070066	0.010096
1102.230743	0.009954
1102.391403	0.009110
1102.552044	0.008601
1102.712667	0.012708
1102.873271	0.009372
1103.033858	0.014071
1103.194426	0.013749
1103.354976	0.015268
1103.515508	0.019177
1103.676021	0.021255
1103.836517	0.022479
1103.996994	0.026010
1104.157453	0.026665
1104.317893	0.026543
1104.478316	0.024783
1104.638720	0.026435
1104.799106	0.023062
1104.959474	0.019312
1105.119823	0.018891
1105.280155	0.018062
1105.440468	0.016314
1105.600763	0.017630
1105.761039	0.018495
1105.921298	0.013079
1106.081538	0.013997
1106.241760	0.016723
1106.401964	0.021823
1106.562149	0.018515
1106.722316	0.021319
1106.882465	0.020344
1107.042596	0.018390
1107.202709	0.017159
1107.362803	0.020339
1107.522879	0.023480
1107.682937	0.023176
1107.842977	0.018688
1108.002999	0.021338
1108.163002	0.016768
1108.322987	0.016633
1108.482954	0.017251
1108.642902	0.020669
1108.802833	0.017532
1108.962745	0.014508
1109.122639	0.011188
1109.282515	0.011515
1109.442372	0.011464
1109.602211	0.012196
1109.762032	0.008031
1109.921835	0.007405
1110.081620	0.004801
1110.241386	0.010267
1110.401134	0.008621
1110.560864	0.010174
1110.720576	0.010903
1110.880269	0.009854
1111.039945	0.011482
1111.199602	0.014321
1111.359240	0.014459
1111.518861	0.016381
1111.678463	0.014897
1111.838047	0.014440
1111.997613	0.017243
1112.157161	0.019672
1112.316690	0.020604
1112.476202	0.022204
1112.635695	0.023649
1112.795169	0.026132
1112.954626	0.025728
1113.114064	0.026766
1113.273484	0.029349
1113.432886	0.025599
1113.592270	0.024041
1113.751635	0.023553
1113.910983	0.017990
1114.070312	0.019299
1114.229622	0.014712
1114.388915	0.015144
1114.548189	0.010394
1114.707445	0.012467
1114.866683	0.015077
1115.025903	0.015876
1115.185104	0.019146
1115.344287	0.021544
1115.503452	0.017822
1115.662599	0.019791
1115.821727	0.020832
1115.980838	0.025716
1116.139930	0.020756
1116.299004	0.019012
1116.458059	0.016289
1116.617097	0.011966
1116.776116	0.012956
1116.935117	0.011752
1117.094099	0.011606
1117.253064	0.007404
1117.412010	0.004692
1117.570938	0.009445
1117.729848	0.011281
1117.888740	0.013985
1118.047613	0.014489
1118.206468	0.018105
1118.365305	0.023538
1118.524124	0.025550
1118.682924	0.025478
1118.841707	0.027556
1119.000471	0.024981
1119.159216	0.025591
1119.317944	0.025277
1119.476653	0.026510
1119.635344	0.019709
1119.794017	0.016869
1119.952672	0.013710
1120.111308	0.014540
1120.269927	0.012673
1120.428527	0.013623
1120.587108	0.014618
1120.745672	0.017996
1120.904217	0.017020
1121.062744	0.022035
1121.221253	0.022339
1121.379744	0.023721
1121.538216	0.021671
1121.696671	0.020785
1121.855107	0.016540
1122.013524	0.016742
1122.171924	0.012437
1122.330305	0.013047
1122.488668	0.010375
1122.647013	0.011113
1122.805340	0.014096
1122.963648	0.018374
1123.121938	0.021138
1123.280210	0.023725
1123.438464	0.018101
1123.596700	0.015606
1123.754917	0.012704
1123.913116	0.012591
1124.071297	0.011306
1124.229459	0.006142
1124.387604	0.005506
1124.545730	0.003786
1124.703838	0.007858
1124.861928	0.011966
1125.019999	0.013259
1125.178052	0.016306
1125.336088	0.016851
1125.494104	0.014974
1125.652103	0.018757
1125.810083	0.019647
1125.968045	0.016808
1126.125989	0.012113
1126.283915	0.011965
1126.441823	0.011284
1126.599712	0.011126
1126.757583	0.015977
1126.915436	0.019186
1127.073270	0.016834
1127.231087	0.015202
1127.388885	0.016729
1127.546665	0.020537
1127.704426	0.017455
1127.862170	0.016088
1128.019895	0.014365
1128.177602	0.008154
1128.335291	0.009946
1128.492961	0.014757
1128.650614	0.012060
1128.808248	0.012323
1128.965864	0.012464
1129.123461	0.017253
1129.281041	0.019122
1129.438602	0.020371
1129.596145	0.019160
1129.753670	0.017737
1129.911176	0.014080
1130.068665	0.015506
1130.226135	0.017413
1130.383587	0.009873
1130.541020	0.006807
1130.698436	0.005931
1130.855833	0.004072
1131.013212	0.007017
1131.170573	0.010450
1131.327915	0.011178
1131.485239	0.017001
1131.642545	0.018871
1131.799833	0.022163
1131.957103	0.022545
1132.114354	0.019433
1132.271588	0.023960
1132.428803	0.024236
1132.585999	0.016175
1132.743178	0.012080
1132.900338	0.003512
1133.057480	-0.000434
1133.214604	-0.002752
1133.371710	-0.004370
1133.528797	-0.006013
1133.685866	-0.010162
1133.842917	-0.007244
1133.999950	-0.004654
1134.156964	-0.000070
1134.313960	-0.002860
1134.470938	-0.001005
1134.627898	0.000796
1134.784840	0.001107
1134.941763	0.004723
1135.098668	-0.000716
1135.255555	-0.005560
1135.412424	-0.007550
1135.569274	-0.012832
1135.726107	-0.004348
1135.882921	-0.004858
1136.039716	-0.003420
1136.196494	-0.003551
1136.353253	0.000070
1136.509995	0.005697
1136.666717	0.004522
1136.823422	0.011721
1136.980109	0.017044
1137.136777	0.013524
1137.293427	0.014903
1137.450059	0.013203
1137.606672	0.017447
1137.763267	0.015447
1137.919844	0.016391
1138.076403	0.020674
1138.232944	0.015834
1138.389466	0.016705
1138.545971	0.015534
1138.702457	0.018632
1138.858924	0.017487
1139.015374	0.015914
1139.171805	0.014414
1139.328218	0.020384
1139.484613	0.015400
1139.640990	0.016416
1139.797348	0.014500
1139.953688	0.022739
1140.110010	0.015930
1140.266314	0.020210
1140.422600	0.016666
1140.578867	0.024233
1140.735116	0.023516
1140.891347	0.022353
1141.047559	0.023761
1141.203754	0.021207
1141.359930	0.014090
1141.516088	0.021698
1141.672228	0.020131
1141.828349	0.025418
1141.984452	0.017603
1142.140537	0.008883
1142.296604	0.016173
1142.452653	0.012869
1142.608683	0.014587
1142.764695	0.011293
1142.920689	0.004457
1143.076665	0.003482
1143.232622	-0.001610
1143.388562	0.006391
1143.544483	0.009062
1143.700385	0.003223
1143.856270	0.005593
1144.012136	0.003842
1144.167985	0.003161
1144.323814	0.003175
1144.479626	0.010999
1144.635420	0.012893
1144.791195	0.004159
1144.946952	0.004888
1145.102691	0.002532
1145.258411	-0.003160
1145.414113	-0.005442
1145.569798	0.009056
1145.725463	0.008055
1145.881111	-0.001418
1146.036741	-0.003772
1146.192352	0.000025
1146.347945	0.003653
1146.503519	0.005050
1146.659076	0.011253
1146.814614	0.020488
1146.970134	0.013900
1147.125636	0.013392
1147.281120	0.015523
1147.436585	0.022023
1147.592032	0.020934
1147.747461	0.016621
1147.902872	0.018703
1148.058265	0.016016
1148.213639	0.012425
1148.368995	0.010729
1148.524333	0.014415
1148.679653	0.017299
1148.834954	0.014153
1148.990237	0.019128
1149.145502	0.020399
1149.300749	0.023445
1149.455977	0.024642
1149.611188	0.028491
1149.766380	0.029799
1149.921553	0.022846
1150.076709	0.019046
1150.231846	0.012725
1150.386966	0.013041
1150.542066	0.012443
1150.697149	0.012742
1150.852214	0.009718
1151.007260	0.000028
1151.162288	-0.006457
1151.317298	-0.000876
1151.472289	-0.002601
1151.627263	0.001860
1151.782218	-0.003376
1151.937155	-0.002506
1152.092073	-0.000189
1152.246974	0.002738
1152.401856	0.016019
1152.556720	0.030318
1152.711566	0.029534
1152.866393	0.027591
1153.021203	0.025867
1153.175994	0.031507
1153.330767	0.034651
1153.485521	0.028014
1153.640258	0.030138
1153.794976	0.018078
1153.949676	0.006432
1154.104358	0.008002
1154.259021	0.010769
1154.413667	0.007022
1154.568294	0.006852
1154.722903	0.004487
1154.877493	0.006892
1155.032066	0.004946
1155.186620	0.008739
1155.341156	0.013609
1155.495674	0.008715
1155.650173	0.006802
1155.804654	0.015358
1155.959118	0.010829
1156.113562	0.007704
1156.267989	0.006227
1156.422397	0.009054
1156.576788	0.012795
1156.731160	0.012867
1156.885513	0.019493
1157.039849	0.024063
1157.194166	0.021383
1157.348465	0.018996
1157.502746	0.025367
1157.657009	0.029768
1157.811253	0.029411
1157.965479	0.021686
1158.119687	0.022293
1158.273877	0.021012
1158.428048	0.021215
1158.582201	0.022747
1158.736337	0.031661
1158.890453	0.028575
1159.044552	0.026885
1159.198632	0.024367
1159.352694	0.025193
1159.506738	0.017808
1159.660764	0.018434
1159.814771	0.022970
1159.968761	0.024177
1160.122732	0.014448
1160.276685	0.014355
1160.430619	0.020661
1160.584535	0.016334
1160.738434	0.013275
1160.892313	0.016460
1161.046175	0.013488
1161.200019	0.005677
1161.353844	0.001206
1161.507651	-0.000081
1161.661440	-0.005309
1161.815210	-0.008021
1161.968962	-0.005563
1162.122697	0.005245
1162.276412	0.014007
1162.430110	0.022249
1162.583789	0.022927
1162.737451	0.028426
1162.891094	0.036322
1163.044718	0.042944
1163.198325	0.043370
1163.351913	0.047494
1163.505483	0.040547
1163.659035	0.030009
1163.812569	0.021766
1163.966084	0.017893
1164.119581	0.010012
1164.273060	0.014365
1164.426521	0.013776
1164.579964	0.013975
1164.733388	0.001896
1164.886794	0.009003
1165.040182	0.018584
1165.193551	0.013042
1165.346903	0.016823
1165.500236	0.024942
1165.653551	0.014275
1165.806848	0.009646
1165.960126	0.001915
1166.113386	0.017038
1166.266628	0.014504
1166.419852	0.013494
1166.573058	0.013177
1166.726245	0.023055
1166.879414	0.018210
1167.032565	0.014424
1167.185698	0.014984
1167.338812	0.019045
1167.491909	0.015275
1167.644987	0.016720
1167.798046	0.012178
1167.951088	0.012298
1168.104111	0.006843
1168.257117	0.010804
1168.410103	0.014252
1168.563072	0.017875
1168.716023	0.020241
1168.868955	0.021497
1169.021869	0.001893
1169.174765	0.004629
1169.327642	-0.001403
1169.480501	-0.002411
1169.633343	-0.000687
1169.786165	0.000295
1169.938970	-0.006940
1170.091757	-0.009083
1170.244525	-0.007446
1170.397275	0.009020
1170.550007	0.012822
1170.702720	0.017338
1170.855415	-0.002917
1171.008092	-0.009789
1171.160751	-0.010415
1171.313392	-0.007135
1171.466014	-0.147748
1171.618619	-0.016859
1171.771205	-0.016859
1171.923772	-0.016859
