sample name	sample
index	1217
start time	 04-29-2021  10:05:55 AM
880	0.395996
Peak Time (s)	92.535
Peak Height 	0.396
calc peak height	90,93
Baseline Time (s)	10.035
Baseline Value 	-0.006308
subtract baseline	10,4
Abs	0.284294
Peak Time (s)	91.035
Peak Height 	0.2843
calc peak height	90,93
Baseline Time (s)	11.036
Baseline Value 	0.004641
subtract baseline	10,3
PK_550	0.163671
Peak Time (s)	92.535
Peak Height 	0.1637
calc peak height	90,93
Baseline Time (s)	11.036
Baseline Value 	0.00151
subtract baseline	10,2
PK_880	0.272073
Peak Time (s)	91.535
Peak Height 	0.2721
calc peak height	90,93
Baseline Time (s)	10.535
Baseline Value 	0.00296
subtract baseline	10,1


Time (s)	A880-A510	A880-A775	A880-A975	A880	I510	I775	I975	I880	
0.034000	-0.000591	-0.000674	-0.005800	0.001398	6163.937351	44354.863736	3803.386041	22741.918417
0.534500	-0.002185	-0.001252	-0.004218	0.003788	6133.069075	44071.844442	3801.433191	22632.312036
1.038000	-0.004335	-0.001874	-0.008063	0.005721	6101.731418	43829.671932	3787.583181	22544.107155
1.535500	0.000763	-0.001131	-0.002146	0.000404	6182.259784	44406.255457	3814.682526	22787.684437
2.035500	0.001057	-0.000108	-0.004920	-0.000209	6189.364917	44563.293365	3809.416180	22815.969162
2.535500	-0.001139	-0.000770	-0.004413	-0.000804	6176.836465	44556.902297	3812.098567	22843.460482
3.036000	-0.003320	-0.001440	-0.004776	0.005085	6114.365159	43930.941831	3796.966786	22573.075189
3.536000	0.001869	-0.000162	-0.001308	0.000353	6191.329792	44504.115504	3816.857624	22790.047902
4.036500	0.000191	-0.000329	-0.005935	0.000192	6179.439549	44503.464542	3805.978039	22797.462806
4.540000	0.000615	-0.001488	-0.000092	-0.000237	6186.121845	44433.585939	3821.290961	22817.295116
5.034500	-0.001684	-0.001202	-0.002085	0.000753	6160.452770	44366.041984	3813.980790	22771.622886
5.535000	-0.001169	-0.001422	-0.006096	-0.000985	6178.014659	44511.603162	3808.442690	22851.825538
6.035500	-0.000233	-0.000677	-0.000741	-0.000332	6180.225341	44520.409848	3819.927527	22821.644534
6.535500	-0.002795	-0.000308	-0.000055	-0.000329	6160.229148	44555.633642	3821.606972	22821.532665
7.035500	-0.002595	-0.001080	-0.003054	-0.001097	6167.764431	44555.306521	3816.134611	22857.030752
7.536000	-0.001948	-0.000222	-0.003520	-0.000364	6167.095490	44567.266691	3813.202486	22823.138577
8.036500	-0.001866	-0.000584	-0.000872	-0.000699	6170.336437	44564.621695	3820.506203	22838.592501
8.536500	0.001262	-0.000292	-0.002019	0.000051	6188.930567	44520.588999	3815.856694	22803.965309
9.037000	0.000147	-0.000582	-0.004077	-0.000535	6184.793943	44549.076844	3812.261306	22831.039799
9.537500	-0.001901	0.000175	0.000614	0.000143	6163.514859	44556.729518	3822.091729	22799.761206
10.035000	-0.000465	0.000076	-0.001945	0.000000	6175.816180	44560.947987	3816.163840	22806.334786
10.535000	0.000000	0.000145	0.001439	0.000026	6179.252983	44565.057525	3824.411215	22805.150839
11.035500	-0.001174	0.000000	0.000000	-0.000400	6173.406135	44592.096446	3821.917043	22824.809950
11.536000	0.000024	-0.000671	0.000799	-0.000841	6186.218735	44569.950249	3824.970129	22845.159734
12.036000	0.000039	-0.000726	-0.001568	-0.000558	6184.124804	44537.437771	3818.454631	22832.107716
12.536000	0.000395	-0.000212	-0.001482	-0.000581	6187.090942	44589.136031	3818.720377	22833.168331
13.036500	-0.000200	-0.001364	-0.004385	-0.003084	6202.077810	44719.306021	3817.739743	22949.139861
13.537000	0.003155	-0.000938	-0.000211	-0.002213	6221.684467	44676.313171	3825.865107	22908.694536
14.040000	-0.000974	-0.000276	-0.001822	0.001437	6160.649169	44389.189245	3812.951320	22740.124918
14.537500	-0.000439	0.000119	-0.002280	0.001468	6164.575214	44424.037927	3811.760317	22738.708840
15.034000	0.001519	0.000088	0.000584	-0.001692	6204.648186	44725.031423	3826.540851	22884.543695
15.535500	-0.000050	-0.000677	-0.008342	-0.002444	6198.221925	44723.801146	3806.533425	22919.413251
16.035500	0.002326	0.000059	-0.003509	-0.000281	6199.897119	44586.239574	3813.027732	22819.295596
16.535000	0.000977	-0.000799	-0.006155	-0.002419	6206.107860	44709.576661	3811.787669	22918.240018
17.036500	0.000886	-0.000750	-0.002746	-0.003154	6211.190260	44785.397481	3821.937029	22952.384236
17.536500	-0.000646	-0.000427	-0.002698	0.000246	6172.484470	44488.918172	3813.720156	22794.993758
18.036500	-0.001191	-0.000132	-0.005393	0.000541	6165.940172	44488.987625	3806.447166	22781.412177
18.537500	-0.000098	-0.000414	-0.003634	0.000904	6171.621502	44427.014071	3809.835353	22764.651218
19.037000	0.000386	0.000364	0.000617	0.001484	6170.882944	44446.090448	3818.803468	22737.991933
19.535000	-0.001335	-0.000011	-0.001158	0.001199	6159.700971	44437.427666	3815.155629	22751.095231
20.035000	-0.001061	-0.000404	-0.000788	0.000983	6163.504533	44420.402415	3816.588710	22761.022953
20.535000	0.000836	-0.001300	-0.003706	0.000016	6185.874160	44427.262603	3811.823577	22805.613755
21.035000	-0.002538	-0.001042	-0.001703	0.000201	6158.106758	44434.290753	3816.263990	22797.077625
21.536000	-0.000802	-0.000296	0.003058	0.000753	6167.312492	44452.871862	3826.613803	22771.611186
22.036000	0.000384	0.000137	0.003126	0.001501	6170.730173	44422.674221	3824.933240	22737.193052
22.536000	0.002401	-0.000016	-0.002064	0.000469	6194.590157	44507.017143	3814.725509	22784.699628
23.037000	-0.001134	-0.000290	-0.002651	0.000659	6165.464319	44462.449189	3812.828396	22775.969387
23.540000	-0.002194	-0.000315	0.000875	0.000730	6156.670800	44453.268508	3821.287725	22772.673634
24.037500	0.001014	-0.000156	-0.001985	0.001137	6178.486954	44429.438845	3813.285061	22753.933459
24.534500	0.000895	0.000325	-0.002409	0.001285	6176.404091	44461.449335	3811.892174	22747.149768
25.035000	0.000253	-0.000431	0.001468	0.001134	6172.569353	44403.437425	3821.754528	22754.082392
25.535500	-0.000533	-0.000523	-0.003156	0.001033	6167.232648	44404.341515	3810.687279	22758.752316
26.036000	-0.000324	-0.000929	-0.004486	0.000764	6170.958588	44391.154531	3808.106023	22771.114495
26.536000	0.000489	-0.000288	-0.001895	0.000797	6177.048575	44449.391167	3814.335566	22769.603634
27.036500	0.000692	-0.000144	-0.001499	-0.000852	6191.550005	44621.742112	3819.344497	22845.698118
27.537500	0.001105	-0.000255	0.000730	-0.001949	6203.413815	44716.774478	3827.538681	22896.463747
28.039500	0.000836	0.000412	-0.000736	0.000048	6185.613382	44588.574626	3819.007159	22804.098954
28.537500	0.002130	-0.000387	-0.002216	-0.001755	6209.962559	44685.275460	3819.798304	22887.454450
29.037000	0.001427	0.000194	-0.000958	-0.001372	6201.408079	44704.441889	3821.951454	22869.726551
29.535000	0.001815	-0.000506	0.001125	-0.001407	6204.739839	44640.344608	3827.176314	22871.373676
30.035500	-0.001833	-0.001028	-0.004229	-0.001199	6174.503447	44570.019609	3813.511284	22861.740689
30.535500	-0.001180	-0.000078	-0.004267	0.001940	6155.144969	44360.026798	3805.784195	22717.011206
31.036500	-0.000906	-0.000322	0.001551	0.001741	6158.821995	44355.765629	3820.466077	22726.186125
31.536000	0.001533	-0.000317	0.000878	-0.002020	6207.339267	44717.626053	3828.078592	22899.725390
32.037000	0.001251	-0.000230	-0.000374	-0.001976	6204.776352	44721.757638	3824.876434	22897.686433
32.537000	-0.000805	-0.000625	0.000297	-0.002166	6190.116666	44702.025099	3827.005313	22906.535676
33.037500	-0.000821	0.000123	-0.003141	-0.000519	6177.087806	44615.328523	3814.507686	22830.277823
33.537500	0.001275	0.000259	0.000509	0.001243	6179.705367	44459.143087	3819.132183	22749.089970
34.035000	-0.000967	0.000320	-0.001138	0.001965	6156.604692	44395.727989	3813.333139	22715.870097
34.535000	0.000073	-0.000968	0.001123	0.000673	6174.769117	44396.120753	3822.039657	22775.324908
35.035500	-0.001048	0.000071	-0.000067	0.001132	6162.456184	44451.752805	3817.990909	22754.187914
35.536000	0.001302	-0.000607	-0.000200	0.000978	6181.981713	44401.445351	3818.039676	22761.248256
36.036000	-0.000617	-0.000943	-0.000886	0.000788	6168.482780	44387.517608	3816.824780	22770.010835
36.535500	-0.000194	-0.000274	-0.002407	0.001141	6169.030374	44417.782212	3812.245831	22753.752889
37.036500	-0.000120	-0.000642	0.000135	0.000711	6172.962793	44423.710129	3819.515877	22773.540887
37.540000	-0.001950	-0.001039	-0.001675	0.000731	6158.557116	44383.763407	3815.034668	22772.648033
38.037000	-0.001278	-0.000219	-0.005633	0.000867	6162.724719	44449.271800	3805.074041	22766.362536
38.535000	0.001496	0.000386	-0.000021	0.001403	6180.180330	44455.886935	3817.438089	22741.706076
39.035000	0.000031	-0.000063	0.002683	0.001399	6168.773401	44413.303823	3824.092278	22741.890349
39.535500	0.001627	0.000190	-0.001193	0.001587	6179.765892	44419.481572	3814.120307	22733.244878
40.035500	-0.000096	-0.000748	-0.000239	0.000652	6173.611081	44419.193544	3818.745699	22776.272417
40.536000	0.002425	-0.000360	0.002998	0.000974	6190.814561	44425.473594	3825.919124	22761.437737
41.036500	0.000137	-0.000592	-0.002291	0.000590	6175.913811	44440.146014	3813.875527	22779.135101
41.536500	-0.002163	-0.000612	0.000718	0.000782	6156.501774	44419.794464	3820.775254	22770.281894
42.037000	0.000516	-0.000478	-0.001809	0.001200	6174.111885	44392.636506	3813.563803	22751.058837
42.536000	-0.001684	-0.001094	-0.005526	0.000019	6166.167451	44446.705961	3807.389259	22805.453785
43.037500	-0.000596	-0.000050	0.004407	0.001251	6165.038270	44428.646285	3828.718944	22748.693356
43.535000	0.003569	-0.000554	0.001067	-0.003642	6236.305812	44851.536256	3832.571816	22975.081154
44.035000	0.000692	-0.000572	0.002847	-0.001879	6199.611538	44679.448856	3832.612389	22893.201745
44.534500	0.003504	0.000174	0.003376	-0.001123	6215.819585	44678.455832	3832.047915	22858.194812
45.035500	-0.000345	-0.000240	0.002900	-0.000860	6183.482198	44613.239109	3830.214838	22846.058636
45.536000	0.003136	0.000639	0.005686	-0.000994	6211.898728	44710.880161	3837.478497	22852.234365
46.036500	0.000859	-0.000147	0.000119	-0.000012	6186.269625	44540.628938	3821.255725	22806.893326
46.536500	0.001456	-0.000410	0.004624	-0.001705	6204.258156	44678.288509	3836.601852	22885.147236
47.040000	-0.000182	0.000296	0.001853	0.002408	6159.258963	44350.972443	3819.569894	22695.535560
47.537000	0.002489	0.000107	-0.002024	0.002041	6182.952984	44368.023236	3810.986231	22712.381678
48.035500	-0.000077	-0.000492	0.001270	0.000537	6174.650289	44454.712415	3822.734783	22781.561585
48.535000	0.002722	0.000424	0.000687	-0.001246	6210.619593	44714.472936	3825.694329	22863.902131
49.035500	0.000350	0.000110	-0.001932	-0.001266	6192.106690	44686.063461	3819.295369	22864.820525
49.535500	0.000841	-0.000477	0.002750	-0.003074	6210.206983	44804.036800	3835.344730	22948.681885
50.035500	0.000772	-0.000147	-0.004790	0.000731	6179.775823	44469.294801	3807.447493	22772.637897
50.536000	0.004115	-0.001745	0.002988	0.005978	6164.918257	43817.706161	3813.609402	22532.431392
51.036500	0.029013	-0.027518	0.048831	0.505083	3918.485266	15048.247175	3126.790063	9031.909412
51.537000	0.004904	-0.019131	-0.007023	0.007865	6156.376227	42037.155137	3784.958649	22446.725185
52.036500	-0.003560	-0.026728	-0.003772	-0.093823	6963.884696	51529.359357	4066.897785	27638.195509
52.537500	-0.011295	-0.045161	-0.014485	-0.197191	7993.535393	62055.185133	4379.252600	34321.095548
53.037500	0.000382	-0.030084	-0.003027	-0.165262	7756.168197	59799.886613	4304.394632	32084.597141
53.535000	0.001801	-0.024321	0.001928	-0.137923	7468.090587	57037.246893	4226.483200	30296.100865
54.035500	0.003641	-0.018001	0.005893	-0.084450	6943.025139	51456.810600	4067.778561	27107.193436
54.535500	0.004333	-0.013733	0.007008	-0.076572	6874.769092	51054.101799	4047.469326	26669.686587
55.035500	0.009964	-0.008409	0.009795	-0.087611	7034.854502	52906.837142	4089.331389	27285.002825
55.536500	0.015252	-0.000429	0.006766	-0.096311	7173.998486	54868.792607	4106.888298	27781.067543
56.036500	0.022803	0.003087	0.016754	-0.094530	7232.718208	55077.267939	4132.709778	27678.713391
56.539000	0.031931	0.009729	0.026606	-0.068623	7064.106183	52808.842805	4082.649623	26236.228294
57.037000	0.040894	0.011851	0.036644	-0.060581	7073.197091	52131.905428	4088.775109	25805.693229
57.536500	0.053669	0.019232	0.047363	-0.046722	7062.502928	51401.388571	4079.152800	25082.164699
58.035000	0.064159	0.028348	0.060594	-0.005091	6766.445607	47895.490033	3995.234451	23042.591650
58.535000	0.074312	0.036763	0.074754	0.035651	6495.590004	44660.601803	3921.505345	21227.203678
59.035500	0.089229	0.044288	0.088631	0.058798	6425.914748	43181.583542	3896.839322	20269.216273
59.536500	0.100847	0.052061	0.099533	0.082138	6328.930453	41759.836085	3864.558994	19353.566440
60.036500	0.114135	0.057479	0.119583	0.110981	6204.206870	39714.000923	3842.288490	18287.937428
60.536500	0.126797	0.064941	0.130498	0.146158	6031.401896	37431.833807	3783.127673	17080.522598
61.039500	0.132739	0.067563	0.138782	0.165626	5931.819457	36114.149909	3756.948920	16453.159157
61.537000	0.140179	0.081208	0.141468	0.196499	5766.463697	34818.477039	3693.885948	15514.170492
62.037000	0.148905	0.087988	0.148540	0.199645	5805.041223	35087.568370	3702.427024	15422.205803
62.534500	0.147262	0.091749	0.149699	0.202320	5775.144317	35168.321886	3699.118176	15344.484557
63.042000	0.153648	0.095589	0.156102	0.198624	5845.403086	35734.951561	3721.366887	15451.966310
63.541000	0.155686	0.097253	0.160510	0.199324	5854.849439	35808.091973	3729.666937	15431.544092
64.035000	0.156728	0.099769	0.165429	0.202214	5841.804965	35779.707309	3734.238828	15347.555818
64.536000	0.161300	0.100877	0.157000	0.205806	5848.718739	35591.645600	3707.463756	15243.970081
65.035000	0.163685	0.103163	0.165089	0.205137	5870.342151	35815.480002	3726.897017	15263.191000
65.536500	0.167481	0.105378	0.167857	0.207635	5879.582025	35794.022542	3727.503338	15191.545292
66.036500	0.170917	0.106940	0.170536	0.211891	5873.739674	35589.904987	3723.971434	15070.392735
66.537500	0.170669	0.108918	0.172818	0.221456	5804.710779	35022.022221	3707.831528	14802.430953
67.037000	0.177619	0.110810	0.179335	0.224073	5834.996925	34968.298892	3716.440668	14730.136886
67.537500	0.182101	0.111896	0.182987	0.230287	5822.855589	34590.683575	3710.777631	14560.223450
68.035000	0.180929	0.113888	0.180626	0.237658	5763.663324	34199.436563	3689.563346	14361.808623
68.535000	0.180846	0.114105	0.182943	0.246024	5706.247442	33615.668972	3676.615441	14140.617407
69.036000	0.184592	0.116679	0.188385	0.249313	5709.323711	33564.970530	3681.202291	14054.827423
69.536000	0.184635	0.117138	0.192543	0.254102	5677.536487	33259.847409	3679.857414	13931.085435
70.036500	0.189344	0.119669	0.199601	0.260921	5663.504783	32960.544539	3680.366511	13757.188965
70.539500	0.189299	0.120617	0.199733	0.265261	5634.580977	32725.867212	3671.429191	13647.932334
71.037000	0.192600	0.120747	0.197570	0.269746	5626.814808	32427.282285	3657.482784	13536.162318
71.537000	0.197581	0.123706	0.201409	0.276377	5616.033785	32177.802972	3651.688784	13373.021085
72.034500	0.195451	0.124522	0.205927	0.281088	5571.776263	31915.556117	3651.290888	13258.633813
72.534500	0.205057	0.126416	0.206839	0.287021	5595.454374	31646.006762	3640.971869	13116.314721
73.035500	0.203172	0.126539	0.216406	0.291758	5552.906088	31341.129865	3650.896589	13004.060288
73.535500	0.208652	0.129224	0.217615	0.297836	5549.098574	31119.068614	3640.891860	12861.827829
74.036000	0.209961	0.128349	0.220719	0.301891	5531.671867	30799.328610	3638.949079	12768.027527
74.536000	0.212542	0.130506	0.218821	0.310693	5492.592400	30374.254890	3617.399850	12567.433807
75.036500	0.214120	0.132171	0.225736	0.310345	5504.631165	30502.357696	3631.970841	12575.282986
75.536500	0.217769	0.133249	0.225316	0.313870	5505.406828	30346.653812	3624.025120	12496.007688
76.037000	0.219357	0.134332	0.227762	0.317959	5489.776415	30156.673035	3620.737996	12404.858721
76.534500	0.218575	0.134679	0.228026	0.325802	5436.572356	29688.502350	3605.734543	12232.421253
77.034500	0.222338	0.136099	0.231260	0.324461	5467.930962	29860.024957	3614.760824	12261.683778
77.535000	0.230043	0.136729	0.235236	0.328490	5490.743832	29649.076511	3614.654891	12174.033672
78.035500	0.228951	0.138248	0.244709	0.333224	5454.675069	29450.993441	3624.104458	12072.072614
78.536000	0.228899	0.137737	0.243012	0.340585	5409.471919	28972.300818	3606.133575	11915.725605
79.036000	0.231186	0.139784	0.243199	0.338348	5436.968414	29231.733358	3610.904647	11962.950687
79.536500	0.234313	0.139854	0.241769	0.341147	5438.970296	29066.168186	3602.596404	11903.898204
80.039000	0.239579	0.142190	0.244174	0.345733	5443.133354	28930.421495	3598.341349	11807.941661
80.537000	0.235908	0.141257	0.249473	0.350729	5390.585736	28576.093607	3598.931816	11704.555207
81.037000	0.240594	0.144034	0.255956	0.350668	5419.239278	28745.099173	3611.768967	11705.819976
81.537500	0.243569	0.144383	0.257249	0.353433	5420.511299	28601.164424	3608.864041	11649.102440
82.035000	0.245938	0.146964	0.259410	0.357483	5410.324511	28513.999845	3605.150841	11566.671684
82.535000	0.243689	0.144811	0.249171	0.362808	5364.916810	28075.026543	3575.167983	11459.469110
83.036000	0.246482	0.147002	0.263639	0.360022	5398.287081	28366.348064	3608.471549	11515.401360
83.538500	0.251398	0.148454	0.263877	0.362835	5410.978037	28286.345048	3603.417001	11458.926365
84.039000	0.250173	0.149351	0.264090	0.364704	5392.330546	28229.372415	3600.182396	11421.616280
84.537000	0.254604	0.151157	0.268366	0.367663	5401.188543	28161.996608	3602.754633	11362.876513
85.037000	0.253335	0.149691	0.262542	0.367330	5395.549852	28095.925271	3592.083559	11369.463840
85.537000	0.258894	0.151915	0.269092	0.370699	5408.757572	28029.296430	3598.248860	11303.013448
86.040000	0.259421	0.152655	0.270655	0.372341	5402.022162	27976.898995	3598.093488	11270.792341
86.534500	0.258665	0.153827	0.275267	0.373274	5391.863389	27990.843053	3605.282544	11252.564353
87.034500	0.262063	0.156219	0.275383	0.377052	5389.582299	27910.532289	3598.129017	11179.088660
87.535500	0.261880	0.156535	0.274488	0.378107	5382.164361	27867.830835	3594.344674	11158.676126
88.035500	0.264526	0.157693	0.276853	0.380658	5382.731867	27787.553122	3593.983288	11109.543124
88.536000	0.266870	0.157308	0.278342	0.380858	5395.597482	27753.919079	3596.484225	11105.711119
89.036500	0.266004	0.158503	0.279580	0.382089	5383.013940	27751.847262	3596.496842	11082.113678
89.539000	0.266845	0.158676	0.279118	0.382672	5384.559239	27728.331005	3594.470368	11070.959091
90.036500	0.268542	0.160649	0.278665	0.385112	5380.107339	27701.492366	3588.886067	11024.440123
90.537000	0.265997	0.160783	0.276448	0.392117	5323.648005	27310.647767	3571.333668	10892.368991
91.034500	0.269911	0.160813	0.284294	0.386687	5378.880774	27620.755824	3596.721792	10994.566419
91.535000	0.272073	0.161752	0.279357	0.387047	5389.669011	27653.855232	3586.499102	10987.748465
92.035000	0.271170	0.162463	0.278403	0.387986	5378.645047	27640.817864	3582.875982	10969.999029
92.535500	0.265524	0.163671	0.280961	0.395996	5298.320392	27254.775204	3572.527150	10820.133971
93.036000	0.273192	0.162762	0.281493	0.389101	5384.065846	27594.156487	3586.656505	10948.973392
93.536000	0.274714	0.164812	0.285251	0.390645	5383.937384	27623.095434	3590.913367	10919.941614
94.039000	0.272472	0.163224	0.278524	0.389565	5376.988480	27594.028752	3580.094203	10940.231602
94.536500	0.270549	0.164264	0.283655	0.396600	5324.047176	27254.167161	3576.480395	10808.950324
95.037000	0.275777	0.167311	0.292388	0.393562	5372.860157	27599.254272	3599.092524	10865.390126
95.540000	0.276810	0.167078	0.289169	0.392858	5383.235092	27626.106296	3594.207480	10878.511447
96.034500	0.277438	0.167727	0.288587	0.393664	5382.169599	27617.166656	3591.526074	10863.485452
