sample name	sample
index	635
start time	 03-19-2021  03:20:08 PM


Wavelength (nm)	Absorbance
494.344910	-0.180753
494.563924	-0.180753
494.782919	-0.180753
495.001897	-0.773188
495.220856	0.034696
495.439797	0.181186
495.658719	0.360325
495.877624	0.263613
496.096510	0.210527
496.315378	0.105768
496.534227	0.166648
496.753059	0.362605
496.971872	0.191076
497.190667	0.016432
497.409444	0.016835
497.628203	0.014114
497.846943	0.013852
498.065665	0.016007
498.284369	0.015938
498.503055	0.015515
498.721723	0.015844
498.940372	0.016062
499.159003	0.017429
499.377616	0.016403
499.596210	0.016836
499.814787	0.017269
500.033345	0.016396
500.251885	0.016006
500.470406	0.015517
500.688910	0.014778
500.907395	0.014309
501.125862	0.013129
501.344311	0.014021
501.562742	0.014120
501.781154	0.013880
501.999548	0.013813
502.217924	0.013442
502.436282	0.014064
502.654621	0.014133
502.872942	0.013806
503.091245	0.013364
503.309530	0.013069
503.527797	0.013310
503.746045	0.013592
503.964275	0.013115
504.182487	0.013454
504.400681	0.013147
504.618856	0.013675
504.837013	0.014036
505.055152	0.014881
505.273273	0.015745
505.491376	0.014377
505.709460	0.013523
505.927526	0.013111
506.145574	0.013485
506.363604	0.013262
506.581615	0.013048
506.799608	0.012998
507.017583	0.013664
507.235540	0.012592
507.453478	0.013655
507.671399	0.014385
507.889301	0.015072
508.107185	0.014971
508.325050	0.014532
508.542898	0.014227
508.760727	0.014188
508.978538	0.012947
509.196330	0.013184
509.414105	0.012812
509.631861	0.012104
509.849599	0.011433
510.067319	0.011244
510.285021	0.012088
510.502704	0.011482
510.720369	0.011231
510.938016	0.011286
511.155645	0.011338
511.373255	0.011538
511.590848	0.011798
511.808422	0.012353
512.025977	0.011707
512.243515	0.010973
512.461034	0.011799
512.678536	0.011950
512.896018	0.011665
513.113483	0.011034
513.330930	0.011209
513.548358	0.011496
513.765768	0.010710
513.983160	0.010844
514.200533	0.011421
514.417889	0.011606
514.635226	0.011258
514.852545	0.011195
515.069845	0.011158
515.287128	0.011104
515.504392	0.010801
515.721638	0.010871
515.938866	0.011102
516.156075	0.010935
516.373267	0.009971
516.590440	0.010335
516.807594	0.010349
517.024731	0.009985
517.241850	0.009542
517.458950	0.009174
517.676032	0.009727
517.893095	0.009356
518.110141	0.009371
518.327168	0.009643
518.544177	0.009920
518.761168	0.009770
518.978141	0.010079
519.195095	0.009477
519.412031	0.010099
519.628949	0.010211
519.845849	0.010773
520.062731	0.010354
520.279594	0.010417
520.496439	0.010117
520.713266	0.010582
520.930074	0.010835
521.146865	0.011272
521.363637	0.010602
521.580391	0.010269
521.797127	0.010369
522.013844	0.011198
522.230543	0.010943
522.447224	0.010620
522.663887	0.010657
522.880532	0.010816
523.097158	0.010960
523.313766	0.011420
523.530356	0.011301
523.746928	0.011324
523.963481	0.010932
524.180017	0.011234
524.396534	0.011248
524.613032	0.011307
524.829513	0.011232
525.045975	0.011346
525.262420	0.010849
525.478845	0.011364
525.695253	0.011147
525.911643	0.010751
526.128014	0.010610
526.344367	0.010291
526.560702	0.010124
526.777018	0.010086
526.993316	0.009771
527.209597	0.009950
527.425858	0.009855
527.642102	0.009132
527.858328	0.009380
528.074535	0.009430
528.290724	0.009898
528.506894	0.009762
528.723047	0.009033
528.939181	0.008800
529.155297	0.008536
529.371395	0.007782
529.587475	0.008423
529.803536	0.007707
530.019579	0.007554
530.235604	0.007765
530.451611	0.007758
530.667600	0.008371
530.883570	0.008559
531.099522	0.008749
531.315456	0.009117
531.531372	0.009332
531.747269	0.009884
531.963148	0.010044
532.179009	0.009453
532.394852	0.009603
532.610676	0.009206
532.826482	0.009352
533.042271	0.009096
533.258040	0.009286
533.473792	0.009389
533.689525	0.009014
533.905240	0.009062
534.120937	0.009133
534.336616	0.009012
534.552277	0.009288
534.767919	0.009533
534.983543	0.009862
535.199149	0.009629
535.414736	0.009428
535.630306	0.009613
535.845857	0.009233
536.061390	0.009547
536.276904	0.009105
536.492401	0.009052
536.707879	0.008479
536.923339	0.008652
537.138781	0.008592
537.354204	0.008312
537.569610	0.008342
537.784997	0.008456
538.000366	0.008393
538.215716	0.008558
538.431049	0.008632
538.646363	0.008649
538.861659	0.008217
539.076937	0.008283
539.292196	0.007845
539.507438	0.008128
539.722661	0.008026
539.937866	0.008081
540.153052	0.007589
540.368221	0.007337
540.583371	0.007151
540.798503	0.007273
541.013617	0.007330
541.228712	0.007854
541.443789	0.007628
541.658848	0.007888
541.873889	0.008173
542.088912	0.008804
542.303916	0.008972
542.518902	0.009637
542.733870	0.009699
542.948820	0.010000
543.163752	0.009927
543.378665	0.010282
543.593560	0.010407
543.808437	0.010409
544.023295	0.010269
544.238136	0.009961
544.452958	0.010066
544.667762	0.010134
544.882548	0.009805
545.097315	0.009712
545.312064	0.009264
545.526795	0.009122
545.741508	0.008665
545.956203	0.008637
546.170879	0.008524
546.385537	0.008382
546.600177	0.008412
546.814799	0.008440
547.029402	0.007945
547.243988	0.008236
547.458555	0.008319
547.673103	0.008406
547.887634	0.008037
548.102146	0.008453
548.316640	0.008092
548.531116	0.007849
548.745574	0.008008
548.960013	0.008360
549.174435	0.007908
549.388838	0.007982
549.603222	0.007909
549.817589	0.008484
550.031937	0.008609
550.246267	0.008299
550.460579	0.008525
550.674873	0.008540
550.889148	0.008741
551.103405	0.008945
551.317644	0.008901
551.531865	0.008805
551.746068	0.008434
551.960252	0.008211
552.174418	0.008295
552.388566	0.008196
552.602696	0.007850
552.816807	0.007946
553.030900	0.007764
553.244975	0.007462
553.459032	0.007516
553.673070	0.007684
553.887091	0.007933
554.101093	0.008055
554.315077	0.007956
554.529042	0.008029
554.742990	0.008013
554.956919	0.008058
555.170830	0.008222
555.384722	0.008383
555.598597	0.008531
555.812453	0.008425
556.026291	0.008494
556.240111	0.008599
556.453913	0.008683
556.667696	0.008451
556.881461	0.008532
557.095208	0.008268
557.308937	0.008214
557.522647	0.008271
557.736339	0.008121
557.950013	0.008279
558.163669	0.008257
558.377307	0.008326
558.590926	0.008351
558.804527	0.008537
559.018110	0.008907
559.231675	0.008849
559.445221	0.008825
559.658749	0.008936
559.872259	0.008907
560.085751	0.008870
560.299225	0.009105
560.512680	0.009424
560.726117	0.009557
560.939536	0.009388
561.152937	0.009302
561.366319	0.009228
561.579683	0.009193
561.793029	0.009286
562.006357	0.009325
562.219667	0.009159
562.432958	0.008952
562.646231	0.008783
562.859486	0.008826
563.072723	0.008869
563.285941	0.008868
563.499141	0.008608
563.712323	0.008446
563.925487	0.008311
564.138632	0.008227
564.351760	0.008005
564.564869	0.008012
564.777960	0.007724
564.991032	0.007848
565.204087	0.008043
565.417123	0.008239
565.630141	0.008465
565.843140	0.008848
566.056122	0.008892
566.269085	0.009209
566.482030	0.009179
566.694957	0.009329
566.907866	0.009231
567.120756	0.009398
567.333628	0.009510
567.546482	0.009360
567.759318	0.009026
567.972135	0.009129
568.184935	0.009052
568.397716	0.009105
568.610478	0.009353
568.823223	0.009269
569.035949	0.009044
569.248657	0.009096
569.461347	0.008834
569.674019	0.009199
569.886672	0.009072
570.099308	0.008999
570.311925	0.008906
570.524523	0.008832
570.737104	0.009029
570.949666	0.009054
571.162210	0.008813
571.374736	0.009137
571.587244	0.008968
571.799733	0.008778
572.012205	0.009009
572.224658	0.009148
572.437092	0.009099
572.649509	0.008901
572.861907	0.008805
573.074287	0.009046
573.286649	0.008704
573.498993	0.008659
573.711318	0.009126
573.923625	0.009079
574.135914	0.008964
574.348185	0.009290
574.560438	0.009447
574.772672	0.009422
574.984888	0.009335
575.197086	0.009865
575.409266	0.009951
575.621427	0.009750
575.833570	0.009807
576.045695	0.009839
576.257802	0.009739
576.469890	0.009785
576.681961	0.010079
576.894013	0.010195
577.106046	0.010171
577.318062	0.010272
577.530059	0.010120
577.742039	0.010135
577.954000	0.010171
578.165942	0.010186
578.377867	0.010187
578.589773	0.009908
578.801661	0.009961
579.013531	0.009871
579.225382	0.009890
579.437216	0.010107
579.649031	0.010018
579.860828	0.009979
580.072606	0.009849
580.284367	0.010267
580.496109	0.010611
580.707833	0.010623
580.919539	0.010298
581.131227	0.010196
581.342896	0.010077
581.554547	0.010033
581.766180	0.010143
581.977795	0.009824
582.189391	0.009763
582.400969	0.009624
582.612529	0.009224
582.824071	0.009529
583.035595	0.009639
583.247100	0.009777
583.458587	0.009939
583.670056	0.009923
583.881506	0.010258
584.092939	0.009872
584.304353	0.009685
584.515749	0.010211
584.727127	0.010087
584.938486	0.010287
585.149828	0.010417
585.361151	0.010450
585.572456	0.010583
585.783742	0.010682
585.995011	0.010481
586.206261	0.010927
586.417493	0.010677
586.628706	0.010839
586.839902	0.010871
587.051079	0.010548
587.262238	0.010379
587.473379	0.010261
587.684502	0.010371
587.895606	0.010853
588.106692	0.010326
588.317760	0.010171
588.528810	0.010186
588.739841	0.009752
588.950855	0.009720
589.161850	0.009651
589.372827	0.009696
589.583785	0.009625
589.794726	0.009533
590.005648	0.009989
590.216552	0.010274
590.427437	0.010366
590.638305	0.010701
590.849154	0.010754
591.059985	0.011138
591.270798	0.011377
591.481592	0.011462
591.692369	0.011516
591.903127	0.011529
592.113867	0.011689
592.324588	0.011630
592.535292	0.011518
592.745977	0.011774
592.956644	0.011708
593.167293	0.011477
593.377923	0.011268
593.588536	0.011419
593.799130	0.011252
594.009706	0.011088
594.220263	0.011224
594.430803	0.011302
594.641324	0.011468
594.851827	0.011500
595.062312	0.011676
595.272778	0.011791
595.483227	0.011743
595.693657	0.011690
595.904069	0.011734
596.114462	0.011662
596.324838	0.011708
596.535195	0.011176
596.745534	0.011063
596.955855	0.011050
597.166157	0.010971
597.376441	0.010732
597.586707	0.010736
597.796955	0.010857
598.007185	0.010889
598.217396	0.010836
598.427589	0.011057
598.637764	0.011118
598.847921	0.011028
599.058060	0.011173
599.268180	0.011167
599.478282	0.011272
599.688366	0.011203
599.898431	0.011408
600.108479	0.011607
600.318508	0.011597
600.528519	0.011738
600.738511	0.011915
600.948486	0.011945
601.158442	0.012238
601.368380	0.012310
601.578300	0.012350
601.788202	0.012083
601.998085	0.011628
602.207950	0.011793
602.417797	0.011603
602.627626	0.011589
602.837436	0.011446
603.047228	0.011203
603.257002	0.011283
603.466758	0.011220
603.676496	0.011368
603.886215	0.011674
604.095916	0.011558
604.305599	0.011700
604.515264	0.011683
604.724910	0.011898
604.934538	0.012187
605.144148	0.012044
605.353740	0.011972
605.563314	0.011864
605.772869	0.011601
605.982406	0.011590
606.191925	0.011508
606.401425	0.011539
606.610908	0.011416
606.820372	0.011299
607.029818	0.011195
607.239246	0.011115
607.448655	0.011151
607.658047	0.011482
607.867420	0.011577
608.076775	0.011513
608.286111	0.011545
608.495430	0.011679
608.704730	0.011823
608.914012	0.011967
609.123275	0.012246
609.332521	0.012152
609.541748	0.011858
609.750957	0.011858
609.960148	0.012004
610.169321	0.012009
610.378475	0.011917
610.587611	0.011612
610.796729	0.011654
611.005829	0.011530
611.214910	0.011771
611.423974	0.012000
611.633019	0.011892
611.842045	0.011880
612.051054	0.011810
612.260044	0.011876
612.469017	0.012068
612.677970	0.012308
612.886906	0.012448
613.095824	0.012339
613.304723	0.012323
613.513604	0.012499
613.722467	0.012459
613.931311	0.012461
614.140138	0.012419
614.348946	0.012310
614.557736	0.012013
614.766507	0.012089
614.975261	0.012185
615.183996	0.012261
615.392713	0.012279
615.601412	0.012313
615.810092	0.012560
616.018754	0.012455
616.227399	0.012519
616.436024	0.012636
616.644632	0.012569
616.853222	0.012526
617.061793	0.012644
617.270346	0.012600
617.478880	0.012737
617.687397	0.012724
617.895895	0.012822
618.104375	0.012876
618.312837	0.013011
618.521281	0.013058
618.729706	0.013238
618.938113	0.012906
619.146502	0.012928
619.354873	0.012745
619.563226	0.012384
619.771560	0.012457
619.979876	0.012454
620.188174	0.012541
620.396453	0.012690
620.604715	0.012490
620.812958	0.012795
621.021183	0.013011
621.229390	0.013214
621.437578	0.013415
621.645748	0.013597
621.853900	0.013729
622.062034	0.013517
622.270150	0.013359
622.478247	0.013439
622.686326	0.013308
622.894387	0.013107
623.102430	0.013171
623.310454	0.013246
623.518461	0.013099
623.726449	0.012978
623.934418	0.012856
624.142370	0.012784
624.350303	0.012789
624.558218	0.012890
624.766115	0.012980
624.973994	0.012990
625.181855	0.012997
625.389697	0.013021
625.597521	0.012926
625.805327	0.013118
626.013114	0.013121
626.220883	0.013139
626.428634	0.013163
626.636367	0.013219
626.844082	0.012983
627.051778	0.013006
627.259457	0.012979
627.467117	0.013215
627.674758	0.013316
627.882382	0.013341
628.089987	0.013348
628.297574	0.013255
628.505143	0.013251
628.712694	0.013559
628.920226	0.013522
629.127740	0.013689
629.335236	0.013813
629.542714	0.013662
629.750174	0.013893
629.957615	0.014094
630.165038	0.013990
630.372443	0.014273
630.579829	0.014137
630.787198	0.014238
630.994548	0.014101
631.201880	0.014141
631.409194	0.014209
631.616489	0.014053
631.823766	0.013887
632.031025	0.013979
632.238266	0.013820
632.445489	0.013725
632.652693	0.013496
632.859879	0.013563
633.067047	0.013267
633.274197	0.013305
633.481329	0.013249
633.688442	0.013325
633.895537	0.013322
634.102614	0.013270
634.309672	0.013330
634.516713	0.013400
634.723735	0.013344
634.930739	0.013561
635.137724	0.013598
635.344692	0.013783
635.551641	0.013916
635.758572	0.014148
635.965485	0.014205
636.172379	0.014170
636.379256	0.014242
636.586114	0.014335
636.792954	0.014348
636.999775	0.014371
637.206579	0.014255
637.413364	0.014445
637.620131	0.014430
637.826880	0.014395
638.033610	0.014239
638.240323	0.014310
638.447017	0.014289
638.653692	0.014215
638.860350	0.014091
639.066990	0.014078
639.273611	0.013579
639.480214	0.013592
639.686798	0.013707
639.893365	0.014074
640.099913	0.014192
640.306443	0.014234
640.512955	0.014220
640.719449	0.014252
640.925924	0.014226
641.132381	0.014373
641.338820	0.014389
641.545241	0.014270
641.751644	0.014171
641.958028	0.013999
642.164394	0.013950
642.370742	0.013955
642.577071	0.014059
642.783383	0.014092
642.989676	0.014288
643.195951	0.014170
643.402207	0.014186
643.608446	0.014157
643.814666	0.014318
644.020868	0.014277
644.227052	0.014283
644.433218	0.014263
644.639365	0.014396
644.845494	0.014229
645.051605	0.014292
645.257698	0.014278
645.463772	0.014491
645.669828	0.014442
645.875866	0.014497
646.081886	0.014656
646.287888	0.014607
646.493871	0.014502
646.699836	0.014632
646.905783	0.014807
647.111712	0.014784
647.317622	0.014713
647.523514	0.014763
647.729388	0.014819
647.935244	0.014843
648.141082	0.015166
648.346901	0.015386
648.552702	0.015410
648.758485	0.015418
648.964250	0.015547
649.169996	0.015555
649.375724	0.015645
649.581434	0.015619
649.787126	0.015526
649.992800	0.015242
650.198455	0.015195
650.404092	0.015138
650.609711	0.015146
650.815311	0.015202
651.020894	0.015184
651.226458	0.015196
651.432004	0.015364
651.637532	0.015386
651.843041	0.015525
652.048532	0.015441
652.254006	0.015483
652.459460	0.015353
652.664897	0.015214
652.870315	0.015225
653.075716	0.015117
653.281097	0.015001
653.486461	0.015035
653.691807	0.015066
653.897134	0.015247
654.102443	0.015307
654.307734	0.015385
654.513006	0.015401
654.718261	0.015501
654.923497	0.015617
655.128715	0.015762
655.333915	0.015826
655.539096	0.015793
655.744259	0.015708
655.949404	0.015413
656.154531	0.015375
656.359640	0.015544
656.564730	0.015476
656.769802	0.015482
656.974856	0.015342
657.179892	0.015499
657.384909	0.015432
657.589908	0.015331
657.794889	0.015547
657.999852	0.015630
658.204797	0.015514
658.409723	0.015525
658.614631	0.015518
658.819521	0.015757
659.024393	0.015626
659.229246	0.015790
659.434081	0.016035
659.638898	0.016089
659.843697	0.016155
660.048478	0.016113
660.253240	0.016095
660.457984	0.016132
660.662710	0.016074
660.867417	0.016109
661.072107	0.016081
661.276778	0.015880
661.481431	0.015918
661.686066	0.015826
661.890682	0.015952
662.095281	0.015768
662.299861	0.015708
662.504422	0.015565
662.708966	0.015559
662.913491	0.015454
663.117999	0.015636
663.322488	0.015537
663.526958	0.015506
663.731411	0.015511
663.935845	0.015863
664.140261	0.015920
664.344659	0.015956
664.549038	0.015896
664.753400	0.016062
664.957743	0.016034
665.162068	0.016089
665.366375	0.016086
665.570663	0.016121
665.774933	0.016019
665.979185	0.015926
666.183419	0.015883
666.387635	0.015957
666.591832	0.015862
666.796011	0.015669
667.000172	0.015616
667.204315	0.015660
667.408439	0.015555
667.612545	0.015687
667.816634	0.015754
668.020703	0.015971
668.224755	0.015968
668.428788	0.015951
668.632803	0.016223
668.836800	0.016231
669.040779	0.016350
669.244739	0.016423
669.448681	0.016280
669.652605	0.016351
669.856511	0.016270
670.060399	0.016286
670.264268	0.016402
670.468119	0.016310
670.671952	0.016503
670.875767	0.016408
671.079563	0.016342
671.283341	0.016470
671.487101	0.016525
671.690843	0.016401
671.894567	0.016438
672.098272	0.016462
672.301959	0.016558
672.505628	0.016618
672.709278	0.016661
672.912911	0.016733
673.116525	0.016674
673.320121	0.016686
673.523699	0.016893
673.727258	0.016837
673.930799	0.016793
674.134322	0.016794
674.337827	0.016672
674.541314	0.016588
674.744782	0.016623
674.948232	0.016690
675.151664	0.016468
675.355078	0.016579
675.558474	0.016635
675.761851	0.016830
675.965210	0.016832
676.168551	0.016824
676.371873	0.016843
676.575178	0.017048
676.778464	0.017148
676.981732	0.017254
677.184981	0.017174
677.388213	0.017406
677.591426	0.017253
677.794621	0.017312
677.997798	0.017356
678.200956	0.017642
678.404097	0.017521
678.607219	0.017395
678.810323	0.017549
679.013408	0.017602
679.216476	0.017440
679.419525	0.017534
679.622556	0.017511
679.825569	0.017611
680.028563	0.017454
680.231540	0.017469
680.434498	0.017527
680.637438	0.017574
680.840359	0.017480
681.043263	0.017492
681.246148	0.017511
681.449015	0.017436
681.651864	0.017448
681.854694	0.017505
682.057506	0.017592
682.260301	0.017555
682.463076	0.017531
682.665834	0.017780
682.868573	0.017907
683.071295	0.017834
683.273998	0.017935
683.476682	0.018011
683.679349	0.018051
683.881997	0.017886
684.084627	0.018046
684.287239	0.018070
684.489833	0.017702
684.692408	0.017570
684.894965	0.017546
685.097504	0.017625
685.300025	0.017590
685.502527	0.017476
685.705012	0.017445
685.907478	0.017277
686.109925	0.017212
686.312355	0.017355
686.514766	0.017280
686.717159	0.017360
686.919534	0.017346
687.121891	0.017264
687.324230	0.017393
687.526550	0.017386
687.728852	0.017521
687.931136	0.017538
688.133401	0.017680
688.335649	0.017804
688.537878	0.017725
688.740089	0.017725
688.942281	0.017805
689.144456	0.017858
689.346612	0.017858
689.548750	0.017886
689.750870	0.017864
689.952971	0.017845
690.155055	0.017791
690.357120	0.017838
690.559167	0.017899
690.761195	0.017831
690.963206	0.017710
691.165198	0.017805
691.367172	0.017799
691.569128	0.017818
691.771065	0.017865
691.972984	0.018115
692.174885	0.018132
692.376768	0.018133
692.578633	0.018283
692.780479	0.018269
692.982308	0.018459
693.184118	0.018487
693.385909	0.018557
693.587683	0.018458
693.789438	0.018132
693.991175	0.018163
694.192894	0.018197
694.394595	0.018168
694.596277	0.018330
694.797941	0.018399
694.999587	0.018277
695.201215	0.018249
695.402824	0.018364
695.604416	0.018570
695.805989	0.018547
696.007543	0.018398
696.209080	0.018291
696.410598	0.018174
696.612099	0.017963
696.813580	0.018059
697.015044	0.018092
697.216490	0.018018
697.417917	0.018093
697.619326	0.018167
697.820717	0.018212
698.022089	0.018311
698.223444	0.018426
698.424780	0.018642
698.626098	0.018594
698.827397	0.018638
699.028679	0.018601
699.229942	0.018513
699.431187	0.018433
699.632414	0.018472
699.833622	0.018546
700.034813	0.018576
700.235985	0.018418
700.437139	0.018660
700.638274	0.018834
700.839392	0.018982
701.040491	0.019057
701.241572	0.019222
701.442635	0.019207
701.643679	0.019230
701.844706	0.019333
702.045714	0.019506
702.246704	0.019299
702.447675	0.019366
702.648629	0.019298
702.849564	0.019286
703.050481	0.019279
703.251380	0.019239
703.452260	0.019219
703.653122	0.019252
703.853966	0.019196
704.054792	0.019218
704.255600	0.019087
704.456389	0.019050
704.657160	0.019097
704.857913	0.019097
705.058648	0.019192
705.259365	0.019114
705.460063	0.018909
705.660743	0.018848
705.861405	0.018892
706.062048	0.018944
706.262674	0.018907
706.463281	0.018754
706.663870	0.018806
706.864441	0.018702
707.064993	0.018653
707.265527	0.018700
707.466043	0.018758
707.666541	0.018875
707.867021	0.018777
708.067482	0.018838
708.267925	0.019041
708.468350	0.019135
708.668757	0.019337
708.869145	0.019385
709.069516	0.019452
709.269868	0.019546
709.470201	0.019543
709.670517	0.019392
709.870814	0.019400
710.071093	0.019338
710.271354	0.019165
710.471597	0.019035
710.671821	0.019138
710.872028	0.019155
711.072216	0.018947
711.272385	0.018997
711.472537	0.019156
711.672670	0.019361
711.872785	0.019429
712.072882	0.019482
712.272961	0.019453
712.473021	0.019369
712.673063	0.019431
712.873087	0.019521
713.073093	0.019334
713.273081	0.019253
713.473050	0.019207
713.673001	0.019176
713.872934	0.019273
714.072849	0.019389
714.272745	0.019414
714.472623	0.019386
714.672483	0.019355
714.872325	0.019497
715.072148	0.019702
715.271954	0.019583
715.471741	0.019416
715.671509	0.019353
715.871260	0.019364
716.070992	0.019355
716.270707	0.019137
716.470403	0.019138
716.670080	0.018999
716.869740	0.018983
717.069381	0.018918
717.269004	0.019070
717.468609	0.019063
717.668195	0.019134
717.867764	0.019159
718.067314	0.019299
718.266846	0.019423
718.466360	0.019519
718.665855	0.019393
718.865332	0.019430
719.064791	0.019456
719.264232	0.019538
719.463655	0.019440
719.663059	0.019444
719.862445	0.019418
720.061813	0.019320
720.261163	0.019270
720.460494	0.019407
720.659807	0.019577
720.859102	0.019481
721.058379	0.019399
721.257638	0.019426
721.456878	0.019486
721.656100	0.019456
721.855304	0.019519
722.054490	0.019442
722.253657	0.019322
722.452806	0.019146
722.651937	0.019152
722.851050	0.019022
723.050145	0.019040
723.249221	0.018888
723.448279	0.018911
723.647319	0.018697
723.846340	0.018759
724.045344	0.018617
724.244329	0.018666
724.443296	0.018768
724.642245	0.018815
724.841175	0.018635
725.040088	0.018814
725.238982	0.018956
725.437857	0.019076
725.636715	0.019197
725.835554	0.019383
726.034376	0.019519
726.233179	0.019387
726.431963	0.019556
726.630730	0.019791
726.829478	0.019661
727.028208	0.019681
727.226920	0.019686
727.425614	0.019610
727.624289	0.019643
727.822946	0.019479
728.021585	0.019526
728.220206	0.019522
728.418808	0.019478
728.617392	0.019656
728.815958	0.019445
729.014506	0.019586
729.213036	0.019749
729.411547	0.019612
729.610040	0.019762
729.808515	0.019759
730.006972	0.019502
730.205410	0.019470
730.403831	0.019278
730.602233	0.019388
730.800616	0.019370
730.998982	0.019215
731.197329	0.019278
731.395658	0.019127
731.593969	0.019068
731.792262	0.019306
731.990536	0.019286
732.188793	0.019308
732.387031	0.019327
732.585250	0.019261
732.783452	0.019281
732.981635	0.019354
733.179800	0.019404
733.377947	0.019507
733.576076	0.019368
733.774186	0.019601
733.972278	0.019593
734.170352	0.019629
734.368408	0.019718
734.566446	0.019592
734.764465	0.019417
734.962466	0.019284
735.160449	0.019224
735.358413	0.019230
735.556360	0.018765
735.754288	0.018726
735.952198	0.018513
736.150090	0.018443
736.347963	0.018531
736.545818	0.018636
736.743655	0.018813
736.941474	0.018749
737.139275	0.018784
737.337057	0.018793
737.534821	0.018700
737.732567	0.018731
737.930295	0.018641
738.128005	0.018506
738.325696	0.018354
738.523369	0.018244
738.721024	0.018121
738.918660	0.017993
739.116279	0.018089
739.313879	0.018119
739.511461	0.018107
739.709024	0.018015
739.906570	0.017957
740.104097	0.017968
740.301606	0.017895
740.499097	0.018095
740.696569	0.018267
740.894024	0.018412
741.091460	0.018570
741.288878	0.018692
741.486277	0.018956
741.683659	0.019036
741.881022	0.019196
742.078367	0.019237
742.275694	0.019167
742.473002	0.019135
742.670293	0.019117
742.867565	0.019277
743.064819	0.019300
743.262054	0.019107
743.459272	0.019368
743.656471	0.019265
743.853652	0.019281
744.050815	0.019276
744.247959	0.019245
744.445085	0.019048
744.642194	0.018803
744.839283	0.018710
745.036355	0.018653
745.233408	0.018341
745.430444	0.018152
745.627461	0.017878
745.824459	0.017896
746.021440	0.017628
746.218402	0.017694
746.415346	0.017556
746.612272	0.017460
746.809180	0.017483
747.006069	0.017612
747.202940	0.017832
747.399793	0.018084
747.596628	0.017889
747.793444	0.018142
747.990243	0.018128
748.187023	0.018207
748.383784	0.018244
748.580528	0.018254
748.777253	0.018063
748.973960	0.017929
749.170649	0.017824
749.367320	0.017953
749.563973	0.017993
749.760607	0.017967
749.957223	0.017903
750.153821	0.017854
750.350400	0.017797
750.546962	0.017953
750.743505	0.017980
750.940030	0.017993
751.136536	0.018028
751.333025	0.017990
751.529495	0.018162
751.725947	0.018427
751.922381	0.018497
752.118796	0.018517
752.315194	0.018466
752.511573	0.018571
752.707934	0.018678
752.904276	0.018552
753.100601	0.018577
753.296907	0.018551
753.493195	0.018481
753.689465	0.018485
753.885716	0.018740
754.081949	0.018800
754.278164	0.018862
754.474361	0.018942
754.670540	0.019245
754.866700	0.019198
755.062843	0.019201
755.258967	0.019108
755.455072	0.019223
755.651160	0.019218
755.847229	0.019303
756.043280	0.019157
756.239313	0.019267
756.435328	0.019118
756.631324	0.019173
756.827302	0.019128
757.023262	0.019143
757.219204	0.019142
757.415127	0.018887
757.611033	0.018708
757.806920	0.018691
758.002788	0.018371
758.198639	0.018352
758.394471	0.018199
758.590286	0.018197
758.786081	0.018110
758.981859	0.018027
759.177619	0.018137
759.373360	0.018189
759.569083	0.018149
759.764788	0.018287
759.960474	0.018247
760.156143	0.018251
760.351793	0.018205
760.547425	0.018234
760.743038	0.018141
760.938634	0.018055
761.134211	0.018077
761.329770	0.018146
761.525311	0.018137
761.720833	0.018155
761.916338	0.018069
762.111824	0.017998
762.307292	0.017957
762.502741	0.018042
762.698173	0.017948
762.893586	0.017918
763.088981	0.017845
763.284358	0.017779
763.479716	0.017743
763.675057	0.017829
763.870379	0.017861
764.065683	0.017854
764.260968	0.017633
764.456236	0.017762
764.651485	0.017711
764.846716	0.017936
765.041929	0.017851
765.237123	0.017770
765.432299	0.017767
765.627457	0.018065
765.822597	0.018249
766.017719	0.018505
766.212822	0.018464
766.407907	0.018447
766.602974	0.018161
766.798023	0.018344
766.993054	0.018497
767.188066	0.018398
767.383060	0.018179
767.578036	0.018054
767.772993	0.018057
767.967933	0.018010
768.162854	0.017938
768.357757	0.018127
768.552642	0.018129
768.747508	0.018113
768.942356	0.018240
769.137186	0.018212
769.331998	0.018397
769.526792	0.018276
769.721567	0.018552
769.916324	0.018574
770.111063	0.018647
770.305784	0.018729
770.500486	0.018934
770.695171	0.018878
770.889837	0.018745
771.084484	0.018657
771.279114	0.018718
771.473725	0.018486
771.668318	0.018592
771.862893	0.018293
772.057450	0.018119
772.251988	0.017805
772.446509	0.017958
772.641011	0.018033
772.835494	0.018079
773.029960	0.018130
773.224407	0.018125
773.418836	0.018178
773.613247	0.018220
773.807640	0.018193
774.002014	0.018145
774.196370	0.017981
774.390708	0.018004
774.585028	0.017968
774.779330	0.017909
774.973613	0.018074
775.167878	0.017843
775.362125	0.017807
775.556354	0.017949
775.750564	0.017999
775.944756	0.018041
776.138930	0.018116
776.333086	0.018161
776.527223	0.018146
776.721343	0.018056
776.915444	0.018291
777.109526	0.018317
777.303591	0.018266
777.497637	0.018450
777.691666	0.018536
777.885676	0.018402
778.079667	0.018293
778.273641	0.018268
778.467596	0.018178
778.661533	0.018298
778.855452	0.018455
779.049352	0.018364
779.243235	0.018217
779.437099	0.018084
779.630945	0.018244
779.824773	0.018267
780.018582	0.018292
780.212373	0.018214
780.406146	0.018161
780.599901	0.018106
780.793638	0.018126
780.987356	0.018107
781.181056	0.018157
781.374738	0.018273
781.568402	0.018236
781.762047	0.018201
781.955674	0.018408
782.149283	0.018331
782.342874	0.018320
782.536447	0.018202
782.730001	0.018173
782.923537	0.018107
783.117055	0.018037
783.310555	0.018052
783.504036	0.018075
783.697499	0.017903
783.890944	0.017797
784.084371	0.017830
784.277780	0.018133
784.471170	0.018264
784.664542	0.018561
784.857896	0.018526
785.051231	0.018431
785.244549	0.018366
785.437848	0.018357
785.631129	0.018238
785.824392	0.018200
786.017636	0.018004
786.210863	0.017761
786.404071	0.017315
786.597260	0.017165
786.790432	0.017349
786.983585	0.017440
787.176721	0.017436
787.369838	0.017610
787.562936	0.017660
787.756017	0.017756
787.949079	0.017933
788.142123	0.018303
788.335149	0.018317
788.528156	0.018057
788.721146	0.018126
788.914117	0.018219
789.107070	0.018368
789.300005	0.018366
789.492921	0.018247
789.685819	0.018343
789.878699	0.018355
790.071561	0.018558
790.264405	0.018638
790.457230	0.018643
790.650037	0.018639
790.842826	0.018483
791.035597	0.018566
791.228349	0.018649
791.421084	0.018615
791.613800	0.018483
791.806497	0.018334
791.999177	0.018370
792.191838	0.018298
792.384481	0.018301
792.577106	0.018167
792.769713	0.017965
792.962301	0.017863
793.154871	0.017815
793.347423	0.017708
793.539957	0.017723
793.732473	0.017735
793.924970	0.017692
794.117449	0.017813
794.309910	0.017978
794.502353	0.018022
794.694777	0.018183
794.887183	0.018195
795.079571	0.018317
795.271941	0.018297
795.464293	0.018501
795.656626	0.018587
795.848941	0.018475
796.041238	0.018515
796.233516	0.018526
796.425777	0.018486
796.618019	0.018414
796.810243	0.018421
797.002449	0.018370
797.194636	0.018184
797.386805	0.018086
797.578956	0.018013
797.771089	0.017829
797.963204	0.018060
798.155300	0.017944
798.347378	0.018089
798.539438	0.017952
798.731480	0.017837
798.923503	0.017790
799.115509	0.017943
799.307496	0.018061
799.499465	0.018409
799.691415	0.018395
799.883348	0.018645
800.075262	0.018659
800.267158	0.018763
800.459035	0.019061
800.650895	0.019139
800.842736	0.019014
801.034559	0.019018
801.226364	0.018780
801.418150	0.018678
801.609919	0.018440
801.801669	0.018454
801.993401	0.018515
802.185114	0.018323
802.376810	0.018266
802.568487	0.018233
802.760146	0.018176
802.951787	0.018073
803.143409	0.018016
803.335014	0.018076
803.526600	0.018052
803.718168	0.018087
803.909717	0.018259
804.101249	0.018256
804.292762	0.018221
804.484257	0.018280
804.675734	0.018288
804.867192	0.018159
805.058632	0.017920
805.250054	0.017877
805.441458	0.017637
805.632844	0.017690
805.824211	0.017764
806.015561	0.017746
806.206891	0.017769
806.398204	0.017813
806.589499	0.018108
806.780775	0.018381
806.972033	0.018378
807.163273	0.018422
807.354495	0.018190
807.545698	0.017935
807.736883	0.017976
807.928050	0.018032
808.119199	0.018186
808.310329	0.018083
808.501441	0.018051
808.692535	0.017931
808.883611	0.018055
809.074669	0.018168
809.265708	0.018273
809.456729	0.018283
809.647732	0.018307
809.838717	0.018334
810.029683	0.018386
810.220632	0.018413
810.411562	0.018545
810.602474	0.018531
810.793367	0.018413
810.984242	0.018303
811.175100	0.018510
811.365938	0.018502
811.556759	0.018324
811.747562	0.018250
811.938346	0.018167
812.129112	0.018115
812.319860	0.018115
812.510589	0.018207
812.701300	0.018408
812.891994	0.018259
813.082668	0.018108
813.273325	0.018282
813.463964	0.018244
813.654584	0.018610
813.845186	0.018630
814.035769	0.018806
814.226335	0.018872
814.416882	0.018878
814.607411	0.018906
814.797922	0.018947
814.988415	0.018805
815.178889	0.018841
815.369345	0.018542
815.559783	0.018565
815.750203	0.018462
815.940605	0.018414
816.130988	0.018515
816.321353	0.018557
816.511700	0.018513
816.702028	0.018611
816.892339	0.018578
817.082631	0.018721
817.272905	0.018837
817.463161	0.018691
817.653398	0.018874
817.843617	0.018618
818.033819	0.018539
818.224001	0.018477
818.414166	0.018411
818.604312	0.018363
818.794440	0.018244
818.984550	0.018071
819.174642	0.018021
819.364716	0.017830
819.554771	0.017863
819.744808	0.017950
819.934827	0.018015
820.124827	0.018024
820.314810	0.018204
820.504774	0.018583
820.694720	0.018739
820.884647	0.018837
821.074557	0.018801
821.264448	0.018893
821.454321	0.018771
821.644176	0.018762
821.834012	0.018791
822.023831	0.018672
822.213631	0.018145
822.403413	0.018081
822.593176	0.018011
822.782922	0.018018
822.972649	0.018040
823.162358	0.018164
823.352049	0.018181
823.541721	0.018169
823.731376	0.018127
823.921012	0.018076
824.110629	0.017869
824.300229	0.017945
824.489811	0.017981
824.679374	0.017944
824.868919	0.017911
825.058445	0.017802
825.247954	0.017886
825.437444	0.017904
825.626916	0.018174
825.816370	0.018461
826.005806	0.018440
826.195223	0.018442
826.384622	0.018532
826.574003	0.018555
826.763366	0.018846
826.952711	0.018723
827.142037	0.018825
827.331345	0.018688
827.520635	0.018666
827.709906	0.018739
827.899160	0.018790
828.088395	0.018639
828.277612	0.018486
828.466810	0.018371
828.655991	0.018457
828.845153	0.018340
829.034297	0.018278
829.223423	0.018029
829.412531	0.017914
829.601620	0.017958
829.790691	0.018112
829.979744	0.018214
830.168779	0.018171
830.357795	0.018196
830.546793	0.018127
830.735773	0.018207
830.924735	0.018247
831.113679	0.018251
831.302604	0.018253
831.491511	0.018210
831.680400	0.018323
831.869271	0.018210
832.058123	0.018070
832.246957	0.018158
832.435773	0.018211
832.624571	0.018362
832.813351	0.018346
833.002112	0.018273
833.190855	0.018319
833.379580	0.018303
833.568287	0.018340
833.756975	0.018365
833.945645	0.018356
834.134297	0.018396
834.322931	0.018380
834.511547	0.018464
834.700144	0.018242
834.888723	0.018152
835.077284	0.018031
835.265826	0.018042
835.454351	0.017935
835.642857	0.017800
835.831345	0.017550
836.019815	0.017647
836.208266	0.017664
836.396699	0.017825
836.585114	0.017841
836.773511	0.017888
836.961890	0.017920
837.150250	0.017948
837.338592	0.018121
837.526916	0.018446
837.715222	0.018277
837.903510	0.018263
838.091779	0.018505
838.280030	0.018785
838.468263	0.018643
838.656477	0.018536
838.844674	0.018582
839.032852	0.018494
839.221012	0.018469
839.409153	0.018702
839.597277	0.018829
839.785382	0.018553
839.973469	0.018172
840.161538	0.018327
840.349589	0.018432
840.537621	0.018378
840.725635	0.018498
840.913631	0.018550
841.101609	0.018466
841.289568	0.018227
841.477509	0.018315
841.665432	0.018630
841.853337	0.018733
842.041224	0.018835
842.229092	0.018883
842.416942	0.019047
842.604774	0.018956
842.792588	0.018800
842.980383	0.019086
843.168160	0.018939
843.355919	0.019168
843.543660	0.019108
843.731382	0.019142
843.919087	0.019522
844.106773	0.019288
844.294441	0.019245
844.482090	0.019339
844.669722	0.019060
844.857335	0.019072
845.044930	0.018991
845.232507	0.018966
845.420065	0.018964
845.607605	0.018704
845.795127	0.018599
845.982631	0.018539
846.170117	0.018436
846.357584	0.018404
846.545033	0.018748
846.732464	0.018281
846.919877	0.018329
847.107272	0.018442
847.294648	0.018487
847.482006	0.018700
847.669346	0.018931
847.856667	0.019247
848.043971	0.019550
848.231256	0.019405
848.418523	0.019816
848.605771	0.019973
848.793002	0.019732
848.980214	0.019699
849.167408	0.019538
849.354584	0.019473
849.541742	0.019361
849.728881	0.019403
849.916002	0.019428
850.103105	0.019291
850.290190	0.019334
850.477256	0.019482
850.664304	0.019372
850.851334	0.019596
851.038346	0.019481
851.225340	0.019443
851.412315	0.019414
851.599272	0.019521
851.786211	0.019618
851.973132	0.019520
852.160034	0.019684
852.346918	0.020149
852.533784	0.020460
852.720632	0.020497
852.907462	0.020671
853.094273	0.020668
853.281066	0.020693
853.467841	0.020847
853.654598	0.021200
853.841336	0.020989
854.028056	0.020784
854.214758	0.020360
854.401442	0.020573
854.588107	0.020669
854.774755	0.020782
854.961384	0.020804
855.147995	0.020667
855.334587	0.020379
855.521162	0.020657
855.707718	0.020733
855.894256	0.020993
856.080775	0.021045
856.267277	0.020782
856.453760	0.020700
856.640225	0.020543
856.826672	0.020584
857.013101	0.020534
857.199511	0.020322
857.385903	0.020274
857.572277	0.020182
857.758633	0.020352
857.944970	0.020602
858.131290	0.020565
858.317591	0.020750
858.503873	0.020535
858.690138	0.020652
858.876384	0.020685
859.062612	0.021100
859.248822	0.021145
859.435014	0.021012
859.621188	0.020814
859.807343	0.021062
859.993480	0.020941
860.179599	0.021095
860.365699	0.021098
860.551781	0.021325
860.737846	0.020999
860.923891	0.021131
861.109919	0.021252
861.295929	0.021383
861.481920	0.021271
861.667893	0.021705
861.853848	0.021976
862.039784	0.022103
862.225702	0.022316
862.411603	0.022444
862.597484	0.022378
862.783348	0.022045
862.969193	0.022195
863.155021	0.022379
863.340830	0.022111
863.526620	0.021929
863.712393	0.021927
863.898147	0.021857
864.083883	0.021925
864.269601	0.021876
864.455301	0.022125
864.640982	0.022128
864.826645	0.022120
865.012290	0.022348
865.197917	0.022512
865.383526	0.022542
865.569116	0.022435
865.754688	0.022382
865.940242	0.022500
866.125777	0.022666
866.311295	0.022542
866.496794	0.022761
866.682275	0.022402
866.867737	0.022252
867.053182	0.022184
867.238608	0.022187
867.424016	0.022159
867.609406	0.022001
867.794778	0.021986
867.980131	0.022031
868.165466	0.021448
868.350783	0.021679
868.536082	0.021682
868.721362	0.021477
868.906625	0.021462
869.091869	0.021330
869.277094	0.021761
869.462302	0.021824
869.647491	0.022005
869.832662	0.022429
870.017815	0.022662
870.202950	0.022945
870.388066	0.023430
870.573165	0.023576
870.758245	0.023715
870.943306	0.023622
871.128350	0.023604
871.313375	0.023707
871.498382	0.023767
871.683371	0.023626
871.868342	0.023610
872.053294	0.023498
872.238229	0.023726
872.423144	0.023709
872.608042	0.023778
872.792922	0.023923
872.977783	0.023796
873.162626	0.024076
873.347451	0.024258
873.532258	0.024285
873.717046	0.024375
873.901816	0.024246
874.086568	0.024532
874.271302	0.024579
874.456017	0.024614
874.640715	0.024761
874.825394	0.024373
875.010055	0.024027
875.194697	0.023959
875.379322	0.023750
875.563928	0.023510
875.748516	0.023365
875.933085	0.023340
876.117637	0.023054
876.302170	0.023163
876.486685	0.023577
876.671182	0.023773
876.855661	0.023967
877.040121	0.023891
877.224563	0.024188
877.408987	0.024214
877.593393	0.024052
877.777780	0.024208
877.962150	0.023748
878.146501	0.023347
878.330833	0.023029
878.515148	0.022888
878.699444	0.022973
878.883722	0.022701
879.067982	0.022580
879.252224	0.022738
879.436447	0.022780
879.620653	0.022862
879.804840	0.023035
879.989008	0.023356
880.173159	0.023378
880.357291	0.023375
880.541405	0.023466
880.725501	0.023750
880.909579	0.024043
881.093638	0.023987
881.277680	0.024071
881.461703	0.024110
881.645707	0.023909
881.829694	0.023820
882.013662	0.023978
882.197612	0.024011
882.381544	0.024021
882.565458	0.023946
882.749353	0.023955
882.933230	0.024051
883.117089	0.024095
883.300930	0.024292
883.484753	0.024379
883.668557	0.024517
883.852343	0.024497
884.036111	0.024212
884.219861	0.024093
884.403592	0.023987
884.587305	0.023957
884.771000	0.024051
884.954677	0.023860
885.138335	0.023915
885.321976	0.023931
885.505598	0.024011
885.689201	0.024147
885.872787	0.023937
886.056354	0.024204
886.239904	0.024462
886.423434	0.024404
886.606947	0.024597
886.790442	0.024707
886.973918	0.024710
887.157376	0.024883
887.340816	0.025165
887.524237	0.025315
887.707641	0.024865
887.891026	0.024686
888.074393	0.024348
888.257741	0.024472
888.441072	0.024119
888.624384	0.023645
888.807678	0.023517
888.990954	0.023335
889.174211	0.023395
889.357451	0.023679
889.540672	0.023322
889.723875	0.023570
889.907059	0.023404
890.090226	0.023821
890.273374	0.024060
890.456504	0.023964
890.639616	0.023915
890.822709	0.023971
891.005785	0.023928
891.188842	0.024060
891.371881	0.023979
891.554901	0.024034
891.737904	0.024056
891.920888	0.024176
892.103854	0.024065
892.286802	0.024110
892.469731	0.023801
892.652643	0.023989
892.835536	0.023898
893.018410	0.023850
893.201267	0.024059
893.384106	0.023692
893.566926	0.023788
893.749728	0.023747
893.932511	0.023410
894.115277	0.023554
894.298024	0.023446
894.480753	0.023695
894.663464	0.023798
894.846157	0.023771
895.028831	0.023712
895.211487	0.023540
895.394125	0.023864
895.576745	0.024050
895.759346	0.023740
895.941930	0.023483
896.124495	0.023526
896.307041	0.023410
896.489570	0.023465
896.672080	0.023293
896.854573	0.023392
897.037046	0.023094
897.219502	0.022920
897.401940	0.022944
897.584359	0.022907
897.766760	0.022499
897.949143	0.022542
898.131507	0.022222
898.313854	0.022733
898.496182	0.022522
898.678492	0.022511
898.860783	0.022563
899.043057	0.022701
899.225312	0.022948
899.407549	0.022929
899.589768	0.022753
899.771968	0.022757
899.954151	0.022690
900.136315	0.022749
900.318461	0.023013
900.500588	0.022896
900.682698	0.022902
900.864789	0.022759
901.046862	0.022990
901.228917	0.022982
901.410953	0.023149
901.592971	0.022786
901.774972	0.022930
901.956953	0.022759
902.138917	0.023042
902.320862	0.022864
902.502790	0.022982
902.684699	0.023097
902.866589	0.023029
903.048462	0.022899
903.230316	0.023366
903.412152	0.023213
903.593970	0.023257
903.775770	0.023196
903.957551	0.023618
904.139314	0.023663
904.321059	0.023705
904.502786	0.023922
904.684494	0.023746
904.866185	0.023718
905.047857	0.023682
905.229510	0.023680
905.411146	0.023542
905.592763	0.023253
905.774363	0.023260
905.955943	0.023350
906.137506	0.023552
906.319051	0.023726
906.500577	0.023670
906.682085	0.023678
906.863575	0.023731
907.045046	0.023713
907.226500	0.023674
907.407935	0.023516
907.589352	0.023217
907.770750	0.022932
907.952131	0.022797
908.133493	0.022382
908.314837	0.022208
908.496163	0.022067
908.677470	0.022219
908.858760	0.022301
909.040031	0.022084
909.221284	0.022138
909.402518	0.022449
909.583735	0.022771
909.764933	0.022914
909.946113	0.022929
910.127275	0.022884
910.308418	0.022767
910.489544	0.022391
910.670651	0.022489
910.851740	0.022369
911.032810	0.021826
911.213863	0.021203
911.394897	0.021122
911.575913	0.021159
911.756911	0.020750
911.937890	0.020384
912.118851	0.020370
912.299794	0.020242
912.480719	0.020479
912.661626	0.020361
912.842514	0.020550
913.023384	0.020254
913.204236	0.019956
913.385070	0.020207
913.565886	0.019989
913.746683	0.020203
913.927462	0.020241
914.108223	0.019824
914.288965	0.019614
914.469690	0.019618
914.650396	0.019462
914.831084	0.019487
915.011754	0.019183
915.192405	0.019487
915.373038	0.019073
915.553653	0.019059
915.734250	0.018971
915.914829	0.019118
916.095389	0.018769
916.275931	0.018753
916.456455	0.018783
916.636961	0.018926
916.817448	0.018910
916.997917	0.018799
917.178368	0.018688
917.358801	0.018350
917.539216	0.018464
917.719612	0.018388
917.899990	0.018534
918.080350	0.018193
918.260692	0.017742
918.441015	0.017473
918.621320	0.017931
918.801607	0.017898
918.981876	0.018371
919.162127	0.018170
919.342359	0.018110
919.522573	0.017726
919.702769	0.017819
919.882947	0.018014
920.063106	0.018108
920.243247	0.017434
920.423370	0.017229
920.603475	0.017104
920.783562	0.017409
920.963630	0.017356
921.143680	0.017447
921.323712	0.017439
921.503725	0.017265
921.683721	0.017238
921.863698	0.017525
922.043657	0.017630
922.223598	0.017673
922.403520	0.016901
922.583424	0.016627
922.763311	0.016988
922.943178	0.016928
923.123028	0.017056
923.302859	0.016394
923.482673	0.016503
923.662467	0.016405
923.842244	0.015985
924.022003	0.015961
924.201743	0.016597
924.381465	0.016582
924.561169	0.016658
924.740854	0.016692
924.920522	0.017234
925.100171	0.017173
925.279802	0.016840
925.459414	0.016733
925.639009	0.016814
925.818585	0.016607
925.998143	0.015920
926.177683	0.015556
926.357205	0.015285
926.536708	0.015314
926.716193	0.015275
926.895660	0.015370
927.075109	0.015267
927.254539	0.015211
927.433951	0.014778
927.613345	0.014539
927.792721	0.014311
927.972079	0.014031
928.151418	0.013598
928.330739	0.013175
928.510042	0.012975
928.689327	0.012852
928.868593	0.012700
929.047841	0.012491
929.227071	0.012658
929.406283	0.012492
929.585476	0.012596
929.764652	0.013016
929.943809	0.013203
930.122948	0.012967
930.302068	0.012840
930.481171	0.013049
930.660255	0.013161
930.839321	0.013101
931.018369	0.013113
931.197398	0.013029
931.376409	0.012782
931.555402	0.011816
931.734377	0.011807
931.913334	0.012010
932.092272	0.011977
932.271192	0.011927
932.450094	0.012205
932.628978	0.011687
932.807844	0.011438
932.986691	0.010740
933.165520	0.011003
933.344331	0.011363
933.523123	0.011382
933.701898	0.010862
933.880654	0.010881
934.059392	0.010119
934.238111	0.010452
934.416813	0.010197
934.595496	0.010123
934.774161	0.009954
934.952808	0.009430
935.131437	0.009112
935.310047	0.009274
935.488639	0.008549
935.667213	0.008259
935.845769	0.008415
936.024306	0.008242
936.202825	0.008650
936.381326	0.008835
936.559809	0.008326
936.738274	0.008394
936.916720	0.007671
937.095148	0.007846
937.273558	0.008164
937.451950	0.007641
937.630323	0.007960
937.808678	0.007067
937.987015	0.006753
938.165334	0.006777
938.343635	0.006104
938.521917	0.006543
938.700181	0.006711
938.878427	0.006550
939.056655	0.006765
939.234864	0.006579
939.413055	0.007538
939.591228	0.007174
939.769383	0.007438
939.947519	0.007333
940.125638	0.007300
940.303738	0.006894
940.481820	0.007166
940.659883	0.007218
940.837929	0.007457
941.015956	0.007281
941.193965	0.008009
941.371955	0.007320
941.549928	0.007705
941.727882	0.007328
941.905818	0.007354
942.083736	0.006978
942.261636	0.007075
942.439517	0.006496
942.617380	0.005818
942.795225	0.005324
942.973052	0.005178
943.150860	0.004641
943.328651	0.003940
943.506423	0.003603
943.684176	0.004083
943.861912	0.003465
944.039629	0.003446
944.217328	0.003233
944.395009	0.004110
944.572672	0.003615
944.750317	0.004162
944.927943	0.004633
945.105551	0.005260
945.283141	0.005035
945.460712	0.006140
945.638265	0.006757
945.815801	0.006366
945.993317	0.006227
946.170816	0.007350
946.348297	0.006445
946.525759	0.006844
946.703203	0.006661
946.880629	0.006480
947.058036	0.005431
947.235425	0.004598
947.412797	0.005662
947.590149	0.005048
947.767484	0.004685
947.944800	0.005901
948.122099	0.005645
948.299379	0.004748
948.476640	0.004097
948.653884	0.004994
948.831109	0.005746
949.008316	0.005792
949.185505	0.005859
949.362676	0.006825
949.539828	0.006164
949.716962	0.006123
949.894078	0.007235
950.071176	0.007221
950.248256	0.005839
950.425317	0.005180
950.602360	0.004639
950.779385	0.004981
950.956391	0.003661
951.133380	0.003719
951.310350	0.003321
951.487302	0.002841
951.664235	0.003819
951.841151	0.004204
952.018048	0.005403
952.194927	0.005921
952.371788	0.004863
952.548631	0.006170
952.725455	0.005811
952.902261	0.006827
953.079049	0.007884
953.255819	0.007178
953.432570	0.008560
953.609303	0.007536
953.786018	0.006736
953.962715	0.008275
954.139394	0.007160
954.316054	0.008058
954.492696	0.006978
954.669320	0.007103
954.845926	0.007955
955.022513	0.007062
955.199083	0.006807
955.375634	0.007685
955.552166	0.006735
955.728681	0.006798
955.905177	0.006531
956.081655	0.007743
956.258115	0.005908
956.434557	0.005906
956.610980	0.005454
956.787385	0.006679
956.963772	0.007017
957.140141	0.007936
957.316492	0.009527
957.492824	0.009779
957.669138	0.010059
957.845434	0.011155
958.021712	0.011559
958.197971	0.012742
958.374212	0.011381
958.550435	0.010795
958.726640	0.009923
958.902826	0.009225
959.078995	0.008729
959.255145	0.006838
959.431277	0.006366
959.607390	0.007241
959.783486	0.006429
959.959563	0.007526
960.135622	0.007047
960.311662	0.009249
960.487685	0.009377
960.663689	0.010130
960.839675	0.012566
961.015643	0.014255
961.191593	0.013018
961.367524	0.012643
961.543437	0.014043
961.719332	0.014633
961.895209	0.013250
962.071067	0.014034
962.246907	0.013758
962.422730	0.014044
962.598533	0.013857
962.774319	0.013110
962.950086	0.013340
963.125835	0.013015
963.301566	0.013220
963.477279	0.014652
963.652973	0.014341
963.828650	0.016405
964.004308	0.016848
964.179947	0.016547
964.355569	0.017755
964.531172	0.016489
964.706757	0.015369
964.882324	0.015926
965.057873	0.014992
965.233403	0.014441
965.408916	0.012026
965.584410	0.011014
965.759885	0.010997
965.935343	0.011799
966.110782	0.014145
966.286203	0.014149
966.461606	0.014222
966.636991	0.014074
966.812357	0.015695
966.987705	0.018253
967.163035	0.018431
967.338347	0.019439
967.513641	0.019174
967.688916	0.017787
967.864173	0.016150
968.039412	0.015490
968.214632	0.015692
968.389835	0.015381
968.565019	0.015415
968.740185	0.014361
968.915333	0.014200
969.090462	0.015624
969.265573	0.017121
969.440667	0.019794
969.615741	0.020992
969.790798	0.019769
969.965836	0.018805
970.140856	0.018922
970.315858	0.019732
970.490842	0.018309
970.665808	0.017247
970.840755	0.017486
971.015684	0.018338
971.190595	0.017473
971.365487	0.017682
971.540362	0.017642
971.715218	0.016755
971.890056	0.017445
972.064875	0.017340
972.239677	0.018150
972.414460	0.019767
972.589225	0.017545
972.763972	0.017765
972.938700	0.018557
973.113411	0.019285
973.288103	0.019984
973.462777	0.021093
973.637432	0.021670
973.812070	0.020615
973.986689	0.020019
974.161290	0.020638
974.335873	0.020466
974.510437	0.019423
974.684984	0.020313
974.859512	0.018994
975.034022	0.017317
975.208513	0.018426
975.382987	0.019324
975.557442	0.018018
975.731879	0.019306
975.906298	0.019496
976.080698	0.020834
976.255080	0.019333
976.429445	0.018537
976.603790	0.018349
976.778118	0.017119
976.952427	0.015841
977.126719	0.016157
977.300992	0.015008
977.475246	0.014044
977.649483	0.014139
977.823701	0.014570
977.997901	0.014795
978.172083	0.017068
978.346247	0.017427
978.520392	0.017313
978.694519	0.017069
978.868628	0.016262
979.042719	0.016217
979.216791	0.015618
979.390845	0.015839
979.564882	0.016132
979.738899	0.014016
979.912899	0.015203
980.086880	0.016442
980.260843	0.017045
980.434788	0.015125
980.608715	0.015948
980.782623	0.015225
980.956514	0.016826
981.130386	0.018127
981.304240	0.018642
981.478075	0.018010
981.651892	0.018444
981.825692	0.018266
981.999472	0.020563
982.173235	0.020692
982.346980	0.020977
982.520706	0.020108
982.694414	0.018123
982.868104	0.018284
983.041775	0.015377
983.215428	0.014158
983.389064	0.015360
983.562680	0.014989
983.736279	0.014849
983.909860	0.015636
984.083422	0.013606
984.256966	0.015123
984.430491	0.015306
984.603999	0.017090
984.777488	0.016805
984.950959	0.015027
985.124412	0.015659
985.297847	0.016061
985.471263	0.015420
985.644661	0.016163
985.818041	0.016492
985.991403	0.017158
986.164747	0.017742
986.338072	0.018575
986.511379	0.017430
986.684668	0.018033
986.857938	0.017493
987.031191	0.017777
987.204425	0.016854
987.377641	0.014196
987.550839	0.013692
987.724018	0.012944
987.897179	0.012744
988.070322	0.013670
988.243447	0.013246
988.416554	0.013180
988.589642	0.012910
988.762712	0.014247
988.935764	0.015825
989.108798	0.014350
989.281813	0.014446
989.454811	0.013525
989.627790	0.012412
989.800751	0.013286
989.973693	0.014363
990.146617	0.014709
990.319524	0.014888
990.492412	0.014566
990.665281	0.016384
990.838133	0.015603
991.010966	0.015782
991.183781	0.016664
991.356578	0.015732
991.529356	0.014271
991.702117	0.013041
991.874859	0.012833
992.047583	0.014209
992.220288	0.014291
992.392976	0.015986
992.565645	0.014604
992.738296	0.014451
992.910929	0.014170
993.083543	0.014240
993.256139	0.015855
993.428718	0.014307
993.601277	0.014489
993.773819	0.013280
993.946342	0.011359
994.118848	0.011914
994.291335	0.011994
994.463803	0.012450
994.636254	0.013972
994.808686	0.013456
994.981100	0.015406
995.153496	0.014440
995.325874	0.014227
995.498233	0.015979
995.670574	0.016732
995.842897	0.018353
996.015202	0.016890
996.187488	0.015592
996.359757	0.015462
996.532007	0.015587
996.704239	0.015324
996.876452	0.014996
997.048648	0.015297
997.220825	0.014368
997.392984	0.013474
997.565124	0.012688
997.737247	0.013868
997.909351	0.015497
998.081437	0.014812
998.253505	0.015719
998.425554	0.016176
998.597586	0.015748
998.769599	0.017740
998.941594	0.017514
999.113571	0.020084
999.285529	0.019973
999.457469	0.018665
999.629391	0.018958
999.801295	0.017006
999.973181	0.017757
1000.145048	0.017840
1000.316897	0.017398
1000.488728	0.017787
1000.660541	0.016558
1000.832335	0.014973
1001.004111	0.014828
1001.175869	0.015046
1001.347609	0.015597
1001.519331	0.014824
1001.691034	0.013902
1001.862719	0.014306
1002.034386	0.012827
1002.206035	0.013305
1002.377665	0.014444
1002.549277	0.014669
1002.720871	0.013695
1002.892447	0.014400
1003.064004	0.014525
1003.235544	0.014078
1003.407065	0.014000
1003.578568	0.015449
1003.750052	0.015029
1003.921519	0.015492
1004.092967	0.014331
1004.264397	0.014305
1004.435809	0.014483
1004.607202	0.014664
1004.778577	0.014282
1004.949934	0.012353
1005.121273	0.011625
1005.292594	0.011169
1005.463896	0.009223
1005.635180	0.010160
1005.806446	0.012089
1005.977694	0.012393
1006.148923	0.012449
1006.320135	0.014323
1006.491328	0.014092
1006.662503	0.014851
1006.833659	0.015433
1007.004798	0.016664
1007.175918	0.016143
1007.347020	0.014669
1007.518103	0.012481
1007.689169	0.012403
1007.860216	0.011923
1008.031245	0.012335
1008.202256	0.013362
1008.373248	0.012306
1008.544223	0.011279
1008.715179	0.012041
1008.886117	0.011659
1009.057036	0.012694
1009.227938	0.012396
1009.398821	0.012036
1009.569686	0.012634
1009.740533	0.010606
1009.911361	0.011179
1010.082172	0.012913
1010.252964	0.012627
1010.423738	0.013170
1010.594493	0.012588
1010.765231	0.012791
1010.935950	0.013052
1011.106651	0.013844
1011.277334	0.013808
1011.447998	0.014772
1011.618645	0.013407
1011.789273	0.012550
1011.959882	0.011376
1012.130474	0.012826
1012.301048	0.012101
1012.471603	0.011247
1012.642140	0.010317
1012.812658	0.010853
1012.983159	0.011237
1013.153641	0.011648
1013.324105	0.012116
1013.494551	0.013210
1013.664979	0.012775
1013.835388	0.011940
1014.005779	0.012032
1014.176152	0.011972
1014.346507	0.011672
1014.516843	0.009294
1014.687162	0.009233
1014.857462	0.008797
1015.027744	0.007831
1015.198007	0.006817
1015.368252	0.007470
1015.538480	0.008358
1015.708689	0.008817
1015.878879	0.008393
1016.049052	0.010180
1016.219206	0.009475
1016.389342	0.009729
1016.559460	0.010574
1016.729559	0.011981
1016.899641	0.012731
1017.069704	0.013916
1017.239749	0.013269
1017.409775	0.013951
1017.579784	0.014338
1017.749774	0.015333
1017.919746	0.015672
1018.089700	0.015305
1018.259635	0.016122
1018.429553	0.014837
1018.599452	0.013401
1018.769333	0.014044
1018.939195	0.013425
1019.109040	0.012747
1019.278866	0.011179
1019.448674	0.011545
1019.618464	0.010785
1019.788235	0.011082
1019.957989	0.010640
1020.127724	0.010564
1020.297441	0.009342
1020.467139	0.009911
1020.636820	0.010006
1020.806482	0.012033
1020.976126	0.011697
1021.145752	0.011335
1021.315359	0.008332
1021.484948	0.009425
1021.654519	0.009815
1021.824072	0.011444
1021.993607	0.010534
1022.163123	0.011118
1022.332621	0.009870
1022.502101	0.009948
1022.671563	0.010449
1022.841007	0.012603
1023.010432	0.012772
1023.179839	0.012072
1023.349228	0.012884
1023.518598	0.012692
1023.687951	0.011114
1023.857285	0.012273
1024.026601	0.011032
1024.195899	0.012302
1024.365178	0.011832
1024.534439	0.010992
1024.703682	0.012219
1024.872907	0.009834
1025.042114	0.010313
1025.211302	0.011928
1025.380472	0.009847
1025.549624	0.009764
1025.718758	0.009218
1025.887873	0.009158
1026.056970	0.010098
1026.226049	0.009191
1026.395110	0.009936
1026.564153	0.009366
1026.733177	0.007966
1026.902183	0.010134
1027.071171	0.010516
1027.240141	0.011079
1027.409092	0.011230
1027.578026	0.011285
1027.746940	0.011753
1027.915837	0.012249
1028.084716	0.013076
1028.253576	0.014846
1028.422418	0.015625
1028.591242	0.016128
1028.760048	0.015083
1028.928835	0.014587
1029.097604	0.014471
1029.266355	0.014026
1029.435088	0.012591
1029.603803	0.012991
1029.772499	0.012539
1029.941177	0.010793
1030.109837	0.011150
1030.278478	0.012416
1030.447102	0.011767
1030.615707	0.012031
1030.784294	0.011422
1030.952863	0.011631
1031.121413	0.011322
1031.289945	0.011327
1031.458460	0.011115
1031.626955	0.010995
1031.795433	0.009438
1031.963892	0.011213
1032.132334	0.011212
1032.300756	0.011668
1032.469161	0.012686
1032.637548	0.013631
1032.805916	0.012573
1032.974266	0.012134
1033.142598	0.011799
1033.310911	0.012575
1033.479207	0.010706
1033.647484	0.010764
1033.815743	0.011608
1033.983983	0.009418
1034.152206	0.007153
1034.320410	0.008071
1034.488596	0.009460
1034.656764	0.008610
1034.824914	0.009835
1034.993045	0.009776
1035.161158	0.009391
1035.329253	0.008542
1035.497330	0.010249
1035.665388	0.012835
1035.833428	0.012388
1036.001450	0.012105
1036.169454	0.012211
1036.337440	0.011428
1036.505407	0.012594
1036.673356	0.013129
1036.841287	0.013327
1037.009200	0.013640
1037.177094	0.011666
1037.344970	0.010981
1037.512828	0.010805
1037.680668	0.010982
1037.848489	0.011709
1038.016293	0.011575
1038.184078	0.011340
1038.351845	0.010313
1038.519593	0.009047
1038.687324	0.010313
1038.855036	0.009605
1039.022730	0.008849
1039.190406	0.010096
1039.358063	0.010047
1039.525702	0.009933
1039.693323	0.008308
1039.860926	0.008798
1040.028511	0.009972
1040.196077	0.008381
1040.363625	0.009359
1040.531155	0.008398
1040.698667	0.007900
1040.866161	0.007202
1041.033636	0.006826
1041.201093	0.006961
1041.368532	0.006605
1041.535952	0.005782
1041.703355	0.007433
1041.870739	0.007672
1042.038105	0.008819
1042.205452	0.008775
1042.372782	0.008390
1042.540093	0.008919
1042.707386	0.009453
1042.874661	0.009871
1043.041918	0.010828
1043.209156	0.009605
1043.376376	0.009159
1043.543578	0.010263
1043.710762	0.010508
1043.877927	0.009889
1044.045074	0.009306
1044.212203	0.010408
1044.379314	0.010478
1044.546407	0.009189
1044.713481	0.009934
1044.880537	0.010840
1045.047575	0.010370
1045.214595	0.010078
1045.381596	0.011501
1045.548579	0.012138
1045.715544	0.012245
1045.882491	0.012677
1046.049420	0.012846
1046.216330	0.011795
1046.383222	0.011973
1046.550096	0.012892
1046.716951	0.012672
1046.883789	0.011613
1047.050608	0.010411
1047.217409	0.009121
1047.384192	0.008765
1047.550956	0.008945
1047.717703	0.009966
1047.884431	0.010066
1048.051140	0.008370
1048.217832	0.007230
1048.384505	0.006047
1048.551161	0.006762
1048.717798	0.008262
1048.884416	0.008506
1049.051017	0.009897
1049.217599	0.008495
1049.384163	0.008122
1049.550709	0.009324
1049.717237	0.010458
1049.883746	0.011912
1050.050237	0.012598
1050.216710	0.011113
1050.383165	0.011112
1050.549601	0.010935
1050.716019	0.011225
1050.882420	0.008134
1051.048801	0.006760
1051.215165	0.006424
1051.381510	0.006554
1051.547837	0.007071
1051.714146	0.008583
1051.880437	0.008090
1052.046709	0.007548
1052.212964	0.006591
1052.379200	0.009212
1052.545417	0.008680
1052.711617	0.011040
1052.877798	0.010609
1053.043961	0.008586
1053.210106	0.007393
1053.376233	0.007198
1053.542341	0.007409
1053.708432	0.007948
1053.874504	0.005987
1054.040557	0.006522
1054.206593	0.004354
1054.372610	0.003526
1054.538609	0.004653
1054.704590	0.003500
1054.870553	0.003936
1055.036497	0.004206
1055.202424	0.006026
1055.368331	0.009534
1055.534221	0.011224
1055.700093	0.011208
1055.865946	0.013254
1056.031781	0.014682
1056.197598	0.015878
1056.363397	0.015946
1056.529177	0.016614
1056.694939	0.016003
1056.860683	0.015344
1057.026409	0.013430
1057.192116	0.014114
1057.357806	0.014176
1057.523477	0.014120
1057.689130	0.014340
1057.854764	0.014325
1058.020381	0.011009
1058.185979	0.013963
1058.351559	0.012266
1058.517120	0.012862
1058.682664	0.012639
1058.848189	0.011477
1059.013696	0.008274
1059.179185	0.008972
1059.344656	0.007777
1059.510108	0.009277
1059.675542	0.006824
1059.840958	0.008511
1060.006356	0.007474
1060.171735	0.007967
1060.337096	0.007616
1060.502439	0.008702
1060.667764	0.008612
1060.833071	0.010640
1060.998359	0.009217
1061.163629	0.009264
1061.328881	0.006767
1061.494115	0.007437
1061.659330	0.006784
1061.824527	0.007082
1061.989706	0.006733
1062.154867	0.006941
1062.320010	0.006885
1062.485134	0.008314
1062.650240	0.006416
1062.815328	0.005259
1062.980398	0.004113
1063.145449	0.003374
1063.310482	0.002070
1063.475497	0.002018
1063.640494	0.001026
1063.805473	-0.000310
1063.970433	0.000731
1064.135375	0.000922
1064.300299	0.003601
1064.465204	0.005560
1064.630092	0.006479
1064.794961	0.008371
1064.959812	0.010096
1065.124645	0.010103
1065.289459	0.010868
1065.454256	0.008536
1065.619034	0.008713
1065.783793	0.008437
1065.948535	0.007875
1066.113258	0.008778
1066.277964	0.006485
1066.442651	0.005725
1066.607319	0.005947
1066.771970	0.006550
1066.936602	0.010854
1067.101216	0.012655
1067.265812	0.011803
1067.430389	0.011091
1067.594949	0.008962
1067.759490	0.010790
1067.924013	0.011628
1068.088518	0.012150
1068.253004	0.011057
1068.417472	0.009219
1068.581922	0.008530
1068.746354	0.010186
1068.910768	0.010590
1069.075163	0.012544
1069.239540	0.012149
1069.403899	0.010567
1069.568240	0.009585
1069.732562	0.011235
1069.896866	0.010396
1070.061152	0.010561
1070.225420	0.008654
1070.389670	0.010086
1070.553901	0.008191
1070.718114	0.007929
1070.882309	0.007858
1071.046486	0.008190
1071.210644	0.006305
1071.374784	0.004321
1071.538906	0.003368
1071.703010	0.005705
1071.867096	0.004694
1072.031163	0.004201
1072.195212	0.005399
1072.359243	0.007119
1072.523256	0.006257
1072.687250	0.007072
1072.851226	0.009042
1073.015184	0.009156
1073.179124	0.007879
1073.343045	0.008709
1073.506949	0.010544
1073.670834	0.010602
1073.834701	0.009023
1073.998549	0.009729
1074.162380	0.009991
1074.326192	0.011028
1074.489986	0.011127
1074.653761	0.010208
1074.817519	0.008588
1074.981258	0.008300
1075.144979	0.005668
1075.308682	0.005038
1075.472367	0.004271
1075.636033	0.004299
1075.799681	0.004147
1075.963311	0.004269
1076.126923	0.004453
1076.290516	0.006358
1076.454092	0.004725
1076.617649	0.007479
1076.781187	0.009772
1076.944708	0.010664
1077.108210	0.011739
1077.271695	0.007445
1077.435160	0.007670
1077.598608	0.009088
1077.762038	0.007700
1077.925449	0.007322
1078.088842	0.006218
1078.252217	0.003870
1078.415573	0.001949
1078.578912	-0.002229
1078.742232	0.001964
1078.905534	0.002392
1079.068817	0.000639
1079.232083	0.000600
1079.395330	0.002178
1079.558559	0.002525
1079.721770	0.004606
1079.884962	0.005412
1080.048136	0.006887
1080.211293	0.008761
1080.374430	0.009005
1080.537550	0.010893
1080.700651	0.011376
1080.863735	0.012592
1081.026800	0.012193
1081.189846	0.011295
1081.352875	0.013817
1081.515885	0.013825
1081.678877	0.012803
1081.841851	0.011669
1082.004807	0.012552
1082.167744	0.015509
1082.330663	0.015082
1082.493564	0.015215
1082.656447	0.015376
1082.819312	0.013560
1082.982158	0.015857
1083.144986	0.014475
1083.307796	0.016056
1083.470587	0.014843
1083.633361	0.012962
1083.796116	0.012853
1083.958853	0.011669
1084.121571	0.011839
1084.284272	0.012657
1084.446954	0.010470
1084.609618	0.012167
1084.772264	0.010852
1084.934892	0.010192
1085.097501	0.010319
1085.260092	0.009425
1085.422665	0.008740
1085.585220	0.005540
1085.747756	0.006307
1085.910274	0.006919
1086.072774	0.006125
1086.235256	0.009069
1086.397720	0.009496
1086.560165	0.007106
1086.722592	0.006720
1086.885001	0.007477
1087.047392	0.010734
1087.209764	0.009419
1087.372119	0.007963
1087.534455	0.007220
1087.696772	0.004433
1087.859072	0.004139
1088.021353	0.003523
1088.183616	0.004061
1088.345861	0.005559
1088.508088	0.003444
1088.670296	0.003378
1088.832486	0.003511
1088.994658	0.004029
1089.156812	0.002815
1089.318948	0.002512
1089.481065	0.001935
1089.643164	0.002402
1089.805245	0.003521
1089.967308	0.005943
1090.129352	0.006808
1090.291378	0.008100
1090.453386	0.004004
1090.615376	0.003372
1090.777347	0.003880
1090.939301	0.004947
1091.101236	0.005753
1091.263153	0.002295
1091.425051	0.001147
1091.586932	-0.001929
1091.748794	-0.000408
1091.910638	0.003255
1092.072463	0.005955
1092.234271	0.004467
1092.396060	0.006462
1092.557831	0.007239
1092.719584	0.009102
1092.881319	0.008674
1093.043035	0.009349
1093.204733	0.008007
1093.366413	0.008106
1093.528075	0.006733
1093.689718	0.005986
1093.851343	0.004330
1094.012950	0.001494
1094.174539	0.000547
1094.336110	0.000355
1094.497662	0.004515
1094.659196	0.006137
1094.820712	0.007808
1094.982210	0.006916
1095.143689	0.006992
1095.305151	0.005030
1095.466594	0.007525
1095.628018	0.006953
1095.789425	0.006116
1095.950813	0.004519
1096.112183	0.003643
1096.273535	0.002852
1096.434869	0.001227
1096.596184	0.005025
1096.757482	0.007343
1096.918761	0.007172
1097.080021	0.008732
1097.241264	0.010199
1097.402488	0.009713
1097.563694	0.008494
1097.724882	0.006314
1097.886052	0.008187
1098.047203	0.005220
1098.208336	0.007950
1098.369451	0.005350
1098.530548	0.005649
1098.691627	0.005914
1098.852687	0.006498
1099.013729	0.003615
1099.174753	0.005525
1099.335758	0.007759
1099.496746	0.010376
1099.657715	0.006554
1099.818666	0.008798
1099.979599	0.006022
1100.140513	0.006743
1100.301409	0.005010
1100.462287	0.007670
1100.623147	0.006469
1100.783989	0.007449
1100.944812	0.012638
1101.105617	0.013492
1101.266404	0.015868
1101.427173	0.017945
1101.587923	0.016858
1101.748656	0.016775
1101.909370	0.017787
1102.070066	0.016219
1102.230743	0.014787
1102.391403	0.009102
1102.552044	0.008714
1102.712667	0.006581
1102.873271	0.006842
1103.033858	0.005024
1103.194426	0.007744
1103.354976	0.005574
1103.515508	0.006704
1103.676021	0.007926
1103.836517	0.008276
1103.996994	0.007786
1104.157453	0.005066
1104.317893	0.004034
1104.478316	0.003193
1104.638720	0.000713
1104.799106	0.001088
1104.959474	0.004165
1105.119823	0.002403
1105.280155	0.003053
1105.440468	0.004433
1105.600763	0.001592
1105.761039	0.003159
1105.921298	0.006625
1106.081538	0.008009
1106.241760	0.009622
1106.401964	0.005748
1106.562149	0.002621
1106.722316	0.001180
1106.882465	0.002469
1107.042596	0.006036
1107.202709	0.007232
1107.362803	0.008088
1107.522879	0.009562
1107.682937	0.006967
1107.842977	0.009230
1108.002999	0.010483
1108.163002	0.009761
1108.322987	0.008295
1108.482954	0.006486
1108.642902	0.006344
1108.802833	0.004388
1108.962745	0.000052
1109.122639	0.000136
1109.282515	-0.001269
1109.442372	0.000062
1109.602211	0.001584
1109.762032	0.000120
1109.921835	0.001872
1110.081620	0.004041
1110.241386	0.004328
1110.401134	0.006299
1110.560864	0.011418
1110.720576	0.012137
1110.880269	0.011878
1111.039945	0.010480
1111.199602	0.015633
1111.359240	0.017580
1111.518861	0.014352
1111.678463	0.012289
1111.838047	0.013214
1111.997613	0.009460
1112.157161	0.010084
1112.316690	0.008956
1112.476202	0.012612
1112.635695	0.007460
1112.795169	0.006599
1112.954626	0.005749
1113.114064	0.009993
1113.273484	0.010255
1113.432886	0.011383
1113.592270	0.007961
1113.751635	0.014175
1113.910983	0.009834
1114.070312	0.011687
1114.229622	0.010245
1114.388915	0.013556
1114.548189	0.009940
1114.707445	0.007221
1114.866683	0.004570
1115.025903	0.005434
1115.185104	0.000222
1115.344287	-0.001024
1115.503452	-0.002087
1115.662599	-0.002832
1115.821727	-0.004892
1115.980838	-0.004699
1116.139930	-0.002832
1116.299004	-0.003128
1116.458059	0.000544
1116.617097	0.001228
1116.776116	-0.000308
1116.935117	0.001811
1117.094099	0.004338
1117.253064	0.004347
1117.412010	0.006074
1117.570938	0.007888
1117.729848	0.008854
1117.888740	0.005187
1118.047613	0.005674
1118.206468	0.007444
1118.365305	0.007337
1118.524124	0.008227
1118.682924	0.006623
1118.841707	0.007268
1119.000471	0.003099
1119.159216	-0.000339
1119.317944	0.000752
1119.476653	-0.000689
1119.635344	0.004390
1119.794017	0.004032
1119.952672	0.001928
1120.111308	0.003392
1120.269927	0.000486
1120.428527	0.005178
1120.587108	0.010523
1120.745672	0.009999
1120.904217	0.008633
1121.062744	0.006495
1121.221253	0.003995
1121.379744	0.005377
1121.538216	0.004741
1121.696671	0.006559
1121.855107	0.002554
1122.013524	0.002517
1122.171924	0.002258
1122.330305	0.003686
1122.488668	-0.000343
1122.647013	-0.001217
1122.805340	-0.001818
1122.963648	-0.001432
1123.121938	-0.003499
1123.280210	-0.003567
1123.438464	-0.004515
1123.596700	-0.000631
1123.754917	0.001934
1123.913116	0.005896
1124.071297	0.008842
1124.229459	0.005032
1124.387604	0.004982
1124.545730	0.006499
1124.703838	0.010555
1124.861928	0.010927
1125.019999	0.006096
1125.178052	0.009664
1125.336088	0.009379
1125.494104	0.011111
1125.652103	0.015189
1125.810083	0.015336
1125.968045	0.017903
1126.125989	0.015109
1126.283915	0.012639
1126.441823	0.012851
1126.599712	0.009910
1126.757583	0.008168
1126.915436	0.008306
1127.073270	0.008127
1127.231087	0.006458
1127.388885	0.006308
1127.546665	0.008390
1127.704426	0.013810
1127.862170	0.015329
1128.019895	0.016095
1128.177602	0.015296
1128.335291	0.012707
1128.492961	0.010933
1128.650614	0.009945
1128.808248	0.005921
1128.965864	0.005401
1129.123461	-0.001537
1129.281041	-0.005108
1129.438602	-0.008963
1129.596145	-0.006922
1129.753670	-0.005178
1129.911176	-0.004541
1130.068665	0.002363
1130.226135	0.007453
1130.383587	0.011911
1130.541020	0.016129
1130.698436	0.021420
1130.855833	0.026025
1131.013212	0.022970
1131.170573	0.022394
1131.327915	0.026148
1131.485239	0.018865
1131.642545	0.022924
1131.799833	0.014148
1131.957103	0.018664
1132.114354	0.016064
1132.271588	0.010357
1132.428803	0.012120
1132.585999	0.014226
1132.743178	0.018219
1132.900338	0.023507
1133.057480	0.017199
1133.214604	0.019474
1133.371710	0.015135
1133.528797	0.016686
1133.685866	0.011763
1133.842917	0.013384
1133.999950	0.010442
1134.156964	0.005458
1134.313960	-0.004439
1134.470938	-0.005370
1134.627898	-0.001065
1134.784840	0.003279
1134.941763	0.009439
1135.098668	0.014095
1135.255555	0.010332
1135.412424	0.004797
1135.569274	0.005886
1135.726107	0.015223
1135.882921	0.014767
1136.039716	0.016626
1136.196494	0.011904
1136.353253	0.004062
1136.509995	0.009841
1136.666717	0.016915
1136.823422	0.020817
1136.980109	0.019862
1137.136777	0.010657
1137.293427	0.012611
1137.450059	0.004419
1137.606672	0.005209
1137.763267	0.005353
1137.919844	0.004555
1138.076403	0.001396
1138.232944	0.004352
1138.389466	-0.002454
1138.545971	0.004248
1138.702457	0.005847
1138.858924	0.011437
1139.015374	0.007586
1139.171805	0.010775
1139.328218	0.009880
1139.484613	0.011848
1139.640990	0.011679
1139.797348	0.020449
1139.953688	0.020490
1140.110010	0.015092
1140.266314	0.009335
1140.422600	0.008866
1140.578867	0.011885
1140.735116	0.008275
1140.891347	0.003012
1141.047559	-0.000851
1141.203754	-0.003735
1141.359930	-0.000449
1141.516088	0.004843
1141.672228	0.007590
1141.828349	0.011861
1141.984452	0.002276
1142.140537	0.003226
1142.296604	0.006880
1142.452653	0.014324
1142.608683	0.011016
1142.764695	0.010129
1142.920689	0.006509
1143.076665	0.002175
1143.232622	0.002444
1143.388562	0.008003
1143.544483	0.006583
1143.700385	0.007816
1143.856270	-0.000364
1144.012136	0.002558
1144.167985	-0.004884
1144.323814	-0.003432
1144.479626	-0.003394
1144.635420	0.000166
1144.791195	0.003607
1144.946952	0.011378
1145.102691	0.006307
1145.258411	0.008546
1145.414113	0.011305
1145.569798	0.011750
1145.725463	0.005408
1145.881111	0.008460
1146.036741	0.003142
1146.192352	0.000523
1146.347945	-0.001854
1146.503519	0.004855
1146.659076	0.005190
1146.814614	0.003320
1146.970134	0.006791
1147.125636	0.012194
1147.281120	0.016935
1147.436585	0.014830
1147.592032	0.009667
1147.747461	0.005156
1147.902872	-0.005175
1148.058265	0.003501
1148.213639	0.003191
1148.368995	0.005313
1148.524333	0.009592
1148.679653	0.009950
1148.834954	0.017914
1148.990237	0.025509
1149.145502	0.027182
1149.300749	0.031717
1149.455977	0.022144
1149.611188	0.023872
1149.766380	0.028973
1149.921553	0.019323
1150.076709	0.012795
1150.231846	0.012660
1150.386966	0.010335
1150.542066	0.007163
1150.697149	0.002663
1150.852214	0.014982
1151.007260	0.008055
1151.162288	0.003153
1151.317298	0.013957
1151.472289	0.015198
1151.627263	0.007442
1151.782218	0.005103
1151.937155	0.003677
1152.092073	0.014589
1152.246974	-0.000724
1152.401856	0.004418
1152.556720	0.013609
1152.711566	0.006688
1152.866393	0.001138
1153.021203	0.006507
1153.175994	0.006607
1153.330767	0.008483
1153.485521	0.000873
1153.640258	0.003269
1153.794976	0.004711
1153.949676	-0.006084
1154.104358	-0.003054
1154.259021	0.005275
1154.413667	0.006339
1154.568294	0.006346
1154.722903	0.019839
1154.877493	0.021816
1155.032066	0.026816
1155.186620	0.026575
1155.341156	0.025004
1155.495674	0.025389
1155.650173	0.026788
1155.804654	0.027374
1155.959118	0.030441
1156.113562	0.020686
1156.267989	0.019984
1156.422397	0.018779
1156.576788	0.012514
1156.731160	0.007042
1156.885513	0.011831
1157.039849	0.009827
1157.194166	0.012160
1157.348465	0.004569
1157.502746	0.001727
1157.657009	0.009173
1157.811253	0.009815
1157.965479	0.011364
1158.119687	0.015577
1158.273877	0.021032
1158.428048	0.024179
1158.582201	0.022039
1158.736337	0.020880
1158.890453	0.026361
1159.044552	0.016529
1159.198632	0.016457
1159.352694	0.011985
1159.506738	0.019652
1159.660764	0.000572
1159.814771	-0.000580
1159.968761	-0.003692
1160.122732	-0.000586
1160.276685	0.002559
1160.430619	0.011739
1160.584535	0.008953
1160.738434	0.019022
1160.892313	0.013841
1161.046175	0.020644
1161.200019	0.012876
1161.353844	0.008937
1161.507651	0.012817
1161.661440	0.012489
1161.815210	0.008690
1161.968962	0.015660
1162.122697	0.019678
1162.276412	0.018743
1162.430110	0.023324
1162.583789	0.029549
1162.737451	0.027336
1162.891094	0.031729
1163.044718	0.032285
1163.198325	0.034602
1163.351913	0.025508
1163.505483	0.019909
1163.659035	0.026624
1163.812569	0.019685
1163.966084	0.010053
1164.119581	0.022907
1164.273060	0.018495
1164.426521	0.017649
1164.579964	0.016117
1164.733388	0.022107
1164.886794	0.017744
1165.040182	0.016850
1165.193551	0.015656
1165.346903	0.015399
1165.500236	0.007556
1165.653551	0.010174
1165.806848	-0.000049
1165.960126	-0.003588
1166.113386	-0.008210
1166.266628	-0.001591
1166.419852	0.003528
1166.573058	0.004524
1166.726245	0.003415
1166.879414	0.009997
1167.032565	-0.001903
1167.185698	0.008808
1167.338812	0.018859
1167.491909	0.019452
1167.644987	0.018915
1167.798046	0.006024
1167.951088	0.002614
1168.104111	0.012689
1168.257117	0.004476
1168.410103	0.022492
1168.563072	0.026342
1168.716023	0.021534
1168.868955	0.025974
1169.021869	0.021101
1169.174765	0.024260
1169.327642	0.026984
1169.480501	0.019505
1169.633343	0.013282
1169.786165	0.008721
1169.938970	0.003459
1170.091757	-0.004404
1170.244525	-0.004551
1170.397275	-0.004125
1170.550007	-0.001661
1170.702720	0.002298
1170.855415	0.008039
1171.008092	0.013992
1171.160751	0.005995
1171.313392	-0.002659
1171.466014	-0.013339
1171.618619	-0.014318
1171.771205	-0.014318
1171.923772	-0.014318
