sample name	sample
index	1293
start time	 04-29-2021  03:19:51 PM
880	0.026370
Peak Time (s)	100.537
Peak Height 	0.02637
calc peak height	100,103
Baseline Time (s)	11.037
Baseline Value 	-0.004338
subtract baseline	10,4
Abs	-0.011562
Peak Time (s)	101.537
Peak Height 	-0.01156
calc peak height	100,103
Baseline Time (s)	11.534
Baseline Value 	0.0036
subtract baseline	10,3
PK_550	-0.004121
Peak Time (s)	100.036
Peak Height 	-0.004121
calc peak height	100,103
Baseline Time (s)	9.536
Baseline Value 	0.001112
subtract baseline	10,2
PK_880	-0.018918
Peak Time (s)	102.037
Peak Height 	-0.01892
calc peak height	100,103
Baseline Time (s)	10.037
Baseline Value 	0.002014
subtract baseline	10,1


Time (s)	A880-A510	A880-A775	A880-A975	A880	I510	I775	I975	I880	
0.036000	-0.000142	-0.000752	-0.002148	0.001536	6328.912024	41177.376316	3866.332339	21013.075843
0.536500	-0.003184	-0.001768	-0.010298	0.004858	6280.448904	40798.279995	3842.972117	20875.752548
1.037000	-0.005347	-0.000675	-0.005037	0.006649	6250.697605	40737.653376	3849.972906	20802.170365
1.537000	-0.000592	0.000310	-0.000746	0.001355	6326.850160	41286.692110	3869.603988	21020.561800
2.037500	0.001204	-0.000263	0.001424	0.000656	6346.027507	41297.743300	3875.563498	21049.592614
2.535000	-0.004102	-0.000772	-0.005202	0.005559	6268.232812	40823.929960	3851.847829	20846.922099
3.035500	-0.002851	-0.001346	-0.000868	0.000797	6313.837555	41190.136204	3870.508055	21043.750505
3.538000	0.000578	-0.000380	-0.005629	-0.000372	6349.137077	41378.119030	3863.092553	21092.408026
4.036000	-0.000296	-0.000379	-0.003599	-0.000712	6345.015375	41408.281405	3867.978647	21106.583883
4.536000	-0.002899	-0.001247	-0.002326	0.003839	6290.323677	40932.501461	3861.229110	20917.785829
5.036500	-0.000741	-0.000220	0.000287	-0.000373	6338.979391	41392.396324	3875.339753	21092.451644
5.536500	0.001083	-0.000959	0.001594	-0.000444	6353.586605	41333.383955	3878.215538	21095.388176
6.037000	-0.001263	-0.000801	-0.002955	-0.000911	6339.099602	41388.592573	3869.721644	21114.881445
6.534500	-0.000663	0.000600	-0.002315	0.000004	6336.673252	41431.434123	3869.152591	21076.721338
7.036500	-0.001044	-0.000232	-0.000991	-0.000519	6337.769477	41404.184446	3872.983602	21098.530123
7.535000	0.001065	-0.000767	-0.001358	-0.001292	6360.006443	41425.199666	3873.826887	21130.764588
8.035000	-0.000940	-0.000386	-0.004011	-0.000521	6338.577454	41390.738658	3866.731440	21098.589414
8.535500	0.000655	-0.000676	0.000575	-0.000509	6350.777833	41364.060512	3876.221822	21098.093479
9.036000	0.001103	0.000177	0.002304	0.000267	6348.253704	41370.922878	3878.212456	21065.784983
9.535500	-0.000677	0.000000	0.002183	0.000036	6336.320179	41375.646649	3878.443258	21075.395957
10.037000	0.000000	-0.000470	-0.000450	-0.000027	6342.015738	41339.731901	3873.084801	21078.025066
10.537000	-0.000046	-0.000123	-0.007490	-0.000265	6343.501599	41391.386344	3859.055975	21087.957356
11.037000	-0.000636	0.000007	-0.002305	0.000000	6336.916539	41379.502182	3869.182199	21076.905130
11.534500	0.001489	0.000440	0.000000	0.000432	6349.958394	41379.539005	3873.067003	21058.933309
12.035000	0.003359	0.000621	0.000977	0.001107	6359.198911	41336.011703	3873.694203	21030.879637
12.535500	-0.003560	-0.001146	-0.005090	0.004594	6279.605897	40875.484554	3854.038626	20886.658155
13.038500	0.001907	-0.000524	-0.002114	-0.000694	6361.894932	41393.824868	3871.014450	21105.826184
13.536000	0.000641	-0.000983	-0.001932	-0.000638	6351.675437	41348.394665	3871.277941	21103.498845
14.039000	-0.002542	-0.000335	-0.003040	0.002333	6304.479594	41144.022591	3862.853023	20980.034049
14.538000	-0.002984	-0.000477	0.000793	0.004987	6280.984689	40899.487198	3865.278908	20870.445327
15.036500	-0.003876	-0.000623	-0.002133	0.000609	6307.448498	41270.254742	3868.277822	21051.570417
15.538000	-0.002206	-0.001433	0.000511	-0.001408	6335.666950	41376.626105	3877.967745	21135.619151
16.037000	-0.000904	0.000492	-0.000080	-0.000221	6336.552448	41441.807305	3874.258454	21086.106407
16.535000	-0.002502	-0.000172	-0.001110	0.003923	6292.695629	41019.019050	3863.553193	20914.310645
17.037500	-0.000243	-0.000319	-0.001009	-0.001870	6354.362664	41516.008802	3875.759442	21154.944269
17.535500	0.000614	0.000264	0.001618	0.000735	6340.870352	41337.262871	3875.804078	21046.313916
18.036000	-0.001400	0.000383	-0.003402	0.001434	6320.062427	41286.176408	3863.959731	21017.319380
18.536000	0.000055	-0.000606	-0.002526	0.002893	6320.026111	41071.215891	3862.759328	20956.864506
19.036500	-0.002979	-0.001190	-0.003379	0.000105	6318.144539	41264.752200	3866.744815	21072.552016
19.537000	-0.001261	-0.000245	-0.001009	0.000521	6328.116054	41311.278041	3870.786350	21055.216127
20.037000	0.001023	0.000646	0.000390	0.001604	6337.330730	41294.364284	3871.442332	21010.228473
20.537500	-0.001741	0.000553	-0.004109	0.003031	6305.264496	41160.771497	3859.229834	20951.164770
21.037500	-0.000759	0.000310	0.002977	0.001257	6326.326480	41295.355368	3877.552790	21024.660825
21.535000	0.000497	-0.000359	0.001664	0.000373	6342.760324	41314.205589	3876.654576	21061.362411
22.035000	-0.000947	-0.000302	-0.001195	0.000821	6328.228310	41279.864699	3869.780773	21042.774508
22.538000	-0.001086	-0.000072	-0.004505	0.002963	6310.769784	41111.783438	3858.557843	20953.944067
23.035500	-0.000704	-0.000648	-0.000185	0.000523	6332.373778	41275.612923	3872.493887	21055.156568
23.536000	-0.002300	-0.000294	0.000420	0.000464	6320.591888	41311.951306	3873.872349	21057.588978
24.036500	0.000567	0.000027	0.000543	0.000687	6340.884087	41320.603340	3873.664079	21048.306788
24.537000	-0.001373	0.000125	-0.006703	0.003135	6307.278484	41114.013605	3853.724716	20946.852289
25.037500	-0.000116	-0.000204	0.001061	0.001227	6331.485414	41252.712911	3873.619375	21025.896510
25.537000	0.000773	-0.000014	0.004448	0.000947	6340.468019	41294.066369	3881.279744	21037.524025
26.038000	0.001759	-0.000193	0.001859	0.000617	6350.618392	41307.448216	3876.553668	21051.238746
26.535000	0.000861	-0.000974	-0.005166	0.000095	6347.709766	41284.553166	3863.083532	21072.931423
27.038000	0.001827	0.000182	0.000103	-0.001421	6366.913003	41520.624027	3877.143774	21136.180754
27.535500	0.001511	0.000113	-0.000847	-0.000582	6357.966664	41440.275745	3873.415392	21101.162692
28.036000	-0.000448	-0.000472	0.001879	-0.000517	6342.337091	41382.829599	3878.964078	21098.446804
28.536000	-0.000583	0.000354	-0.002275	-0.000062	6337.796849	41415.544500	3869.370483	21079.466738
29.036500	0.001530	0.000133	-0.002755	0.000856	6346.998334	41315.033982	3866.481324	21041.295083
29.536500	0.000976	0.001298	-0.000973	0.001300	6339.313047	41378.630667	3869.248386	21022.858306
30.037000	0.000442	-0.000161	0.000523	-0.000578	6349.670738	41415.680915	3876.257506	21100.971530
30.537000	-0.000573	-0.000153	-0.002796	0.004322	6304.324155	40985.779548	3859.274160	20897.840359
31.038000	-0.002183	-0.000309	-0.000257	0.000409	6321.908475	41315.564241	3872.582314	21059.905097
31.539500	0.001997	0.000539	0.000224	-0.000062	6357.701785	41431.870667	3874.559884	21079.469534
32.035000	0.002453	0.000054	0.006677	-0.000307	6363.124215	41410.699422	3888.614032	21089.682781
32.535500	0.001651	0.000854	-0.000123	0.000611	6349.828598	41400.302838	3872.439044	21051.494339
33.036000	0.000688	-0.000057	-0.003722	-0.000334	6349.685363	41403.292404	3866.943548	21090.812189
33.536500	0.001885	0.000361	0.002151	-0.000149	6357.510575	41423.909716	3878.764605	21083.121055
34.036500	0.001992	0.000580	-0.002976	0.001538	6345.300808	41294.302998	3864.621049	21012.970955
34.537000	0.000966	0.000542	-0.001198	0.001498	6337.721255	41294.588352	3868.373393	21014.663531
35.037000	0.000390	0.000207	-0.001422	0.001397	6334.063547	41273.942275	3868.118922	21018.852138
35.537000	-0.000923	0.000144	-0.003434	0.001441	6323.652593	41264.542927	3863.878740	21017.012073
36.034500	-0.003799	-0.000149	-0.002535	0.000867	6306.071979	41289.199519	3866.912667	21040.837948
36.538000	-0.000198	0.000435	0.007355	0.001665	6327.495187	41270.486793	3885.883411	21007.733014
37.035500	0.000707	-0.000022	-0.003128	0.000818	6340.956520	41304.798496	3865.791086	21042.892967
37.536000	-0.002006	-0.000834	0.005479	0.000646	6321.451990	41248.449947	3884.077911	21050.031251
38.036000	-0.001693	0.000368	0.002727	0.001519	6317.162892	41277.316915	3876.480493	21013.751965
38.536500	-0.002432	-0.000240	-0.008345	0.001050	6315.105425	41265.159173	3854.626080	21033.239734
39.037000	-0.000188	-0.000774	-0.004512	0.000844	6333.869322	41236.290961	3862.888638	21041.796287
39.537000	-0.001580	0.000010	-0.001936	0.001462	6318.467621	41250.863734	3866.921911	21016.131346
40.037000	-0.000664	0.000162	-0.001411	0.001232	6327.246218	41284.574663	3868.482631	21025.701796
40.534500	-0.002242	-0.001316	0.002925	0.002001	6309.294052	41087.132943	3875.888752	20993.768383
41.035000	-0.001576	-0.000586	-0.002604	0.000806	6323.518449	41256.175972	3866.898018	21043.375551
41.535500	0.000121	0.000187	-0.001490	0.001484	6331.331013	41264.482484	3867.798848	21015.225615
42.036000	-0.002239	-0.000066	0.002996	0.001118	6316.056488	41274.462170	3877.882847	21030.429330
42.536000	-0.001662	0.000364	-0.003688	0.002771	6307.852363	41166.952596	3860.625802	20961.917419
43.036500	-0.001636	-0.000088	-0.001902	0.001444	6318.176309	41243.803886	3867.029944	21016.883210
43.539500	0.002296	-0.000109	0.004178	-0.001085	6367.942231	41465.130001	3884.982425	21122.136409
44.037000	-0.000874	0.000001	0.000148	-0.000955	6342.429979	41463.315449	3876.263290	21116.707336
44.537500	-0.002615	-0.000391	-0.001872	0.003238	6297.045746	41059.842946	3863.394809	20942.608515
45.037000	0.001138	0.000462	-0.001689	-0.000021	6350.749572	41421.541028	3870.501755	21077.791607
45.535000	0.000922	0.000127	0.000559	-0.000429	6352.229750	41427.956870	3876.022262	21094.763518
46.038000	-0.001237	-0.000061	0.000034	-0.000973	6339.772446	41459.437193	3876.063059	21117.445245
46.535500	-0.001123	0.000258	-0.004127	0.003387	6307.260351	41103.575841	3858.464458	20936.443311
47.035500	-0.000149	0.000849	-0.003426	0.001934	6325.809865	41283.155659	3862.880376	20996.560556
47.536000	-0.003269	0.000233	-0.004625	0.001797	6303.027035	41241.033646	3860.700854	21002.235057
48.036000	-0.001569	-0.000512	-0.004833	-0.000508	6333.647330	41378.538180	3865.010235	21098.080121
48.536500	-0.002092	-0.000518	0.000052	0.003056	6302.403846	41064.636004	3867.736346	20950.129153
49.036500	0.002013	0.000338	0.000853	0.000594	6352.748045	41356.177015	3874.504060	21052.170102
49.540500	0.002061	-0.000130	0.002141	-0.003066	6381.520068	41638.909783	3884.864614	21204.994283
50.037500	-0.000355	-0.000109	-0.000488	0.011531	6251.519267	40364.838954	3849.297902	20603.127243
50.536000	-0.004742	-0.000700	-0.004774	0.014645	6195.806741	40047.824274	3834.448031	20477.333153
51.034500	-0.014481	-0.018825	0.006362	0.252539	4805.882606	23563.595360	3482.948603	13103.964487
51.536000	-0.018510	-0.024485	-0.008011	0.137413	5333.027261	29447.626327	3616.812843	16172.448784
52.035500	-0.034205	-0.034929	-0.011317	-0.123973	7109.693633	50103.936123	4141.598418	27050.651304
52.536500	-0.043654	-0.048300	-0.019772	-0.220100	8018.046827	59983.927022	4403.612167	33010.353821
53.036500	-0.025559	-0.088707	-0.009570	-0.300313	9293.415885	65450.075202	4735.352769	39099.107229
53.536500	-0.009116	-0.056694	-0.006309	-0.258945	8942.244324	64120.024747	4587.077195	35818.771662
54.037000	-0.013286	-0.023944	-0.002177	-0.153568	7616.918084	54713.733259	4250.870189	28747.058237
54.534500	-0.019423	-0.015380	-0.007200	-0.111394	7130.602400	50865.360910	4118.993434	26363.868369
55.035000	-0.014853	-0.009959	-0.009606	-0.100405	7069.966124	50256.036666	4084.104565	25779.975435
55.538000	-0.005624	-0.007191	-0.002054	-0.096998	7124.921071	50186.577579	4094.786467	25601.927209
56.034500	-0.008153	-0.006455	-0.005743	-0.081497	6957.087476	48610.602226	4046.180788	24809.290452
56.536000	-0.011521	-0.007032	-0.012144	-0.072395	6845.010134	47606.135500	4008.449669	24356.847580
57.036000	-0.016344	-0.008499	-0.013882	-0.048505	6598.862414	45078.521413	3948.958795	23213.507763
57.536500	-0.014859	-0.005835	-0.008405	-0.025172	6422.175369	43124.542630	3909.537558	22155.914097
58.036500	-0.015019	-0.008280	-0.007103	-0.026282	6429.672162	43001.490550	3914.767532	22204.926240
58.536500	-0.015780	-0.006496	-0.016992	-0.018179	6360.330364	42424.237294	3876.436994	21849.836132
59.037500	-0.015485	-0.008221	-0.003684	-0.018132	6362.253341	42263.951749	3904.535753	21847.828367
59.538000	-0.013880	-0.010343	-0.007677	-0.017227	6367.675870	41991.369688	3894.055579	21808.546528
60.037500	-0.016058	-0.007973	-0.001941	-0.005825	6263.928200	41189.629511	3882.082232	21321.051782
60.535500	-0.016031	-0.007241	-0.005043	0.012684	6127.836077	39659.513416	3837.820208	20556.430616
61.035500	-0.021159	-0.014917	-0.006227	-0.020194	6334.385097	41847.548739	3903.499828	21937.530514
61.536000	-0.026317	-0.017337	-0.010246	-0.012772	6239.115127	40977.984344	3879.236211	21616.571417
62.036000	-0.029527	-0.017219	-0.007515	0.056549	5740.534586	35389.409504	3750.023579	18869.319140
62.536500	-0.035604	-0.024083	-0.001932	0.054349	5716.152404	35043.848220	3764.123636	18949.931703
63.034000	-0.034406	-0.023113	-0.006405	0.057460	5704.207516	34886.389716	3750.381057	18836.053395
63.537000	-0.043550	-0.029082	-0.004046	0.080252	5512.314228	32845.630804	3714.528700	18026.156224
64.035000	-0.048467	-0.029146	-0.000062	0.101680	5364.295054	31406.391376	3685.226612	17302.522440
64.535000	-0.048126	-0.029691	-0.006967	0.110498	5318.547669	30801.369390	3659.806935	17014.958804
65.035000	-0.041308	-0.026996	-0.011519	0.116892	5320.812898	30565.834428	3642.643051	16810.045140
65.535500	-0.041256	-0.026402	-0.005431	0.125278	5276.656516	30076.367783	3639.094760	16545.840309
66.035500	-0.042189	-0.023417	-0.003100	0.131305	5240.425446	29887.716745	3633.429088	16359.113007
66.536000	-0.044948	-0.022309	-0.015509	0.139476	5184.679421	29454.481662	3602.735629	16110.005193
67.036000	-0.037145	-0.018424	-0.009977	0.137866	5232.599147	29790.848788	3613.222412	16158.710571
67.536500	-0.035372	-0.017137	-0.007503	0.140165	5229.895121	29728.606031	3613.481772	16089.216498
68.036500	-0.033713	-0.015365	-0.009123	0.141736	5230.350519	29740.991868	3608.772911	16041.945513
68.537000	-0.037806	-0.015851	-0.006474	0.144193	5196.929753	29560.631686	3609.056388	15968.349230
69.034500	-0.031322	-0.012614	-0.010393	0.138859	5257.600071	30089.337364	3611.140785	16128.673230
69.540000	-0.034373	-0.011620	-0.007056	0.133480	5269.744570	30489.191055	3624.131208	16292.334945
70.035000	-0.032800	-0.010015	-0.011760	0.129126	5300.968636	30868.434831	3623.605810	16426.328652
70.536000	-0.036119	-0.010379	-0.013392	0.126329	5298.202454	31024.762907	3625.359548	16513.099292
71.038500	-0.029641	-0.008617	-0.009574	0.114389	5397.872395	31921.845982	3649.566515	16889.912966
71.535500	-0.025907	-0.007707	-0.013219	0.106568	5462.591094	32508.380921	3656.129644	17142.403021
72.036500	-0.029051	-0.007876	-0.012389	0.098344	5491.594251	33060.107571	3670.578779	17412.864623
72.537000	-0.031064	-0.008324	-0.013171	0.096826	5488.752227	33134.154014	3671.764584	17463.324785
73.036000	-0.026470	-0.008113	-0.014516	0.085637	5580.952302	33934.619273	3687.847770	17840.933643
73.537500	-0.027183	-0.007739	-0.015630	0.080312	5608.533582	34342.794618	3694.839005	18024.090649
74.035000	-0.028727	-0.008525	-0.006426	0.075261	5629.705697	34651.727147	3719.017862	18199.902201
74.535000	-0.031668	-0.008870	-0.013367	0.074910	5614.054779	34652.130934	3707.740846	18212.186859
75.035500	-0.028561	-0.007109	-0.010859	0.067642	5677.310246	35316.275079	3724.529367	18468.977719
75.535500	-0.029871	-0.008782	-0.025739	0.063262	5696.322766	35518.158091	3706.512506	18625.858209
76.035500	-0.029808	-0.009247	-0.016459	0.060404	5714.535018	35697.533855	3727.379674	18729.045680
76.536500	-0.035777	-0.010018	-0.016678	0.063647	5657.514157	35397.094404	3721.368695	18612.000184
77.036500	-0.031107	-0.010234	-0.015569	0.054935	5740.754849	36036.388083	3738.548054	18928.449801
77.537000	-0.032940	-0.010852	-0.017738	0.052007	5747.674502	36212.358098	3739.891658	19036.213894
78.037500	-0.032248	-0.010725	-0.017832	0.050396	5762.295254	36345.418996	3742.584855	19095.840796
78.537500	-0.036839	-0.010802	-0.020160	0.054337	5708.515587	36038.641194	3731.516694	18950.405473
79.037500	-0.036354	-0.010822	-0.021150	0.047032	5757.572497	36596.832466	3742.665399	19221.022592
79.535000	-0.033734	-0.010994	-0.019140	0.046274	5779.128219	36642.176481	3747.604012	19249.380410
80.038500	-0.032292	-0.010859	-0.014049	0.046168	5789.057787	36660.843265	3756.962674	19253.338001
80.536000	-0.036332	-0.010590	-0.025650	0.052100	5725.694658	36225.272015	3725.835100	19032.787347
81.036000	-0.032352	-0.010185	-0.018408	0.046125	5788.950867	36716.414489	3749.183444	19254.952276
81.536500	-0.032149	-0.009356	-0.021745	0.046914	5785.182830	36719.489969	3741.818051	19225.427177
82.036500	-0.031587	-0.009522	-0.023148	0.047066	5787.818919	36694.817429	3739.060611	19219.748078
82.536500	-0.029631	-0.008183	-0.011370	0.047827	5795.509295	36739.623439	3758.812586	19191.350820
83.037000	-0.030815	-0.009854	-0.020435	0.046207	5798.323008	36735.693565	3745.409686	19251.889318
83.535000	-0.030912	-0.010261	-0.024621	0.045787	5800.404240	36736.712188	3738.717627	19267.621908
84.038000	-0.031632	-0.009660	-0.016328	0.045207	5799.500905	36828.515503	3754.579616	19289.364544
84.535000	-0.035521	-0.008577	-0.025563	0.051081	5737.211423	36457.800419	3727.761338	19070.458553
85.035500	-0.031879	-0.008605	-0.021003	0.043694	5807.678597	37028.886253	3748.888624	19346.230319
85.536000	-0.031682	-0.008178	-0.020633	0.043561	5809.814574	37072.719326	3749.790970	19351.243798
86.039000	-0.027721	-0.008058	-0.020019	0.042742	5840.939033	37146.410651	3752.368163	19382.121560
86.537000	-0.033335	-0.008432	-0.023833	0.046376	5781.031482	36833.127157	3739.070148	19245.574944
87.039000	-0.028522	-0.007879	-0.016225	0.040105	5852.987877	37368.294856	3764.035657	19481.906764
87.537000	-0.029488	-0.007639	-0.014363	0.038978	5854.044377	37476.492399	3769.516125	19524.751176
88.034500	-0.027077	-0.007040	-0.016470	0.038463	5873.349989	37564.978221	3766.591815	19544.350234
88.540000	-0.033369	-0.008187	-0.016928	0.042160	5807.965265	37182.047626	3759.011095	19404.091728
89.034500	-0.027086	-0.006032	-0.020311	0.036024	5889.490545	37840.135935	3764.025363	19637.567486
89.535500	-0.026217	-0.006976	-0.021418	0.034579	5904.946497	37880.343200	3764.644611	19693.047834
90.036000	-0.024122	-0.007523	-0.021756	0.032811	5930.918049	37978.398513	3767.264857	19761.163794
90.536000	-0.028147	-0.007226	-0.017046	0.038085	5868.779016	37580.257805	3766.230051	19558.786924
91.036500	-0.025862	-0.006495	-0.018390	0.031135	5930.490913	38196.666048	3776.571378	19825.990824
91.537000	-0.024103	-0.005592	-0.011889	0.030893	5944.027149	38289.361513	3789.187108	19835.339942
92.036500	-0.021951	-0.006500	-0.016602	0.029472	5968.374844	38331.037112	3783.002270	19890.548756
92.537000	-0.025376	-0.006098	-0.023432	0.035142	5906.798572	37905.520987	3759.944391	19671.391137
93.037500	-0.024731	-0.005390	-0.014983	0.029111	5951.871531	38450.828866	3786.718482	19904.613731
93.535500	-0.022421	-0.007289	-0.017303	0.026652	5984.487830	38496.503059	3786.977618	20000.603452
94.037000	-0.022308	-0.005904	-0.019189	0.027161	5981.772934	38568.177298	3782.487010	19980.710864
94.535500	-0.024509	-0.004917	-0.020529	0.033400	5924.330668	38141.008415	3768.435273	19738.410984
95.036000	-0.020235	-0.004557	-0.014686	0.027483	5993.827904	38652.087447	3790.343702	19968.108435
95.536500	-0.021291	-0.005334	-0.011017	0.026014	5996.674721	38708.886494	3800.104098	20025.613267
96.036000	-0.020588	-0.005236	-0.018633	0.025700	6003.709941	38742.780695	3786.267756	20037.948493
96.537000	-0.019619	-0.004815	-0.017397	0.025801	6009.722060	38769.019000	3788.403710	20033.966690
97.036500	-0.021390	-0.004839	-0.012401	0.025841	5997.187037	38763.750212	3797.792409	20032.406382
97.534000	-0.021092	-0.004046	-0.018857	0.025100	6004.376312	38890.240891	3786.974606	20061.507640
98.037500	-0.019528	-0.005028	-0.014720	0.023618	6025.534790	38931.494630	3797.610977	20119.836595
98.535000	-0.019567	-0.003970	-0.011853	0.023881	6023.427767	38997.204202	3802.584982	20109.453875
99.035500	-0.019307	-0.003972	-0.013885	0.023045	6031.069377	39066.306890	3800.295911	20142.422095
99.535500	-0.021792	-0.004034	-0.010284	0.022299	6018.953288	39123.169365	3808.646002	20171.907036
100.036000	-0.019534	-0.004121	-0.016648	0.021597	6039.613136	39174.270459	3797.787091	20199.709384
100.536500	-0.023872	-0.005163	-0.018148	0.026370	5976.461229	38693.679952	3785.921398	20011.671892
101.036500	-0.019371	-0.004435	-0.016910	0.019724	6053.910163	39304.260785	3800.861659	20274.068789
101.537000	-0.020222	-0.004713	-0.011562	0.018875	6053.897515	39351.965668	3812.799254	20307.865578
102.037000	-0.018918	-0.004418	-0.013698	0.018201	6067.848436	39433.078751	3809.967279	20334.763943
102.540500	-0.022576	-0.005762	-0.021432	0.023281	6006.691593	38898.736588	3785.555124	20133.139119
103.040000	-0.020249	-0.004300	-0.015509	0.016503	6070.439118	39585.539959	3809.748268	20402.676858
103.535000	-0.018510	-0.004347	-0.011528	0.015288	6091.419578	39684.029913	3819.853749	20451.459727
104.036000	-0.020249	-0.003330	-0.010098	0.015669	6076.357757	39737.783931	3821.907955	20436.174825
104.535500	-0.020790	-0.004411	-0.017429	0.020046	6041.686166	39279.366007	3799.255545	20261.262351
105.036500	-0.020735	-0.004146	-0.011675	0.013867	6085.694521	39821.149556	3822.349505	20508.681951
105.539000	-0.020372	-0.004998	-0.018859	0.012218	6100.030433	39888.621257	3811.558365	20575.279230
106.036500	-0.021545	-0.003710	-0.017056	0.012323	6090.919416	39989.185499	3814.853975	20571.035785
106.534500	-0.023882	-0.004631	-0.022465	0.015850	6049.430249	39612.706744	3797.653805	20428.885537
107.037000	-0.020756	-0.004226	-0.017313	0.010657	6108.457786	40087.173483	3817.598350	20638.600454
107.535000	-0.022493	-0.004007	-0.012625	0.010180	6099.445240	40146.661618	3827.737707	20658.004928
108.035000	-0.022450	-0.003916	-0.016091	0.009752	6102.808819	40190.990836	3821.760088	20675.411053
