sample name	sample
index	596
start time	 03-16-2021  04:47:38 PM
880	-0.022498
Peak Time (s)	90.035
Peak Height 	-0.0225
calc peak height	90,93
Baseline Time (s)	11.04
Baseline Value 	-0.003183
subtract baseline	10,4
Abs	-0.008952
Peak Time (s)	91.036
Peak Height 	-0.008952
calc peak height	90,93
Baseline Time (s)	10.537
Baseline Value 	0.002686
subtract baseline	10,3
PK_550	0.005182
Peak Time (s)	91.537
Peak Height 	0.005182
calc peak height	90,93
Baseline Time (s)	9.036
Baseline Value 	7.4684E-4
subtract baseline	10,2
PK_880	-0.005507
Peak Time (s)	92.537
Peak Height 	-0.005507
calc peak height	90,93
Baseline Time (s)	10.537
Baseline Value 	0.001291
subtract baseline	10,1


Time (s)	A880-A510	A880-A775	A880-A975	A880	I510	I775	I975	I880	
0.036500	-0.001936	-0.001082	-0.003360	0.001550	5588.133425	33774.048485	3646.317262	18348.859305
0.536500	-0.002776	-0.001054	-0.001817	0.006071	5555.051057	33456.570124	3640.968720	18188.710283
1.037000	-0.002141	0.000082	0.003887	0.004520	5568.488229	33646.010096	3654.063423	18243.457959
1.537500	-0.000153	-0.000283	-0.008303	0.001620	5598.790532	33825.834434	3637.333877	18346.350610
2.037500	-0.000184	-0.000334	-0.007246	0.001079	5601.969768	33860.731529	3640.185390	18365.637586
2.537000	-0.003543	-0.001843	-0.005678	0.004220	5561.705882	33531.311164	3637.378357	18254.078346
3.035500	0.000903	-0.001360	0.003564	-0.001725	5626.361090	33987.601258	3664.913916	18465.894818
3.535500	0.000430	-0.000786	0.000747	0.000208	5611.257420	33890.631732	3656.198085	18396.716982
4.036000	-0.001488	-0.000285	-0.003296	0.000732	5596.001128	33888.924041	3647.905559	18377.987339
4.536000	0.001018	-0.000916	-0.002214	0.000319	5614.241345	33873.405742	3650.610410	18392.732804
5.036500	-0.000244	0.000458	0.001064	0.000876	5602.859070	33931.618830	3655.556460	18372.847824
5.536500	0.000985	-0.001732	-0.000864	-0.000613	5619.885421	33881.719449	3654.758705	18426.065958
6.037000	-0.001900	-0.000708	-0.000817	-0.000368	5600.288744	33937.245720	3654.396630	18417.288974
6.540000	0.000750	0.000177	0.002340	0.000236	5613.079555	33957.284597	3659.058911	18395.695625
7.035000	0.000435	-0.000339	0.001376	0.000364	5610.306407	33911.334005	3657.061442	18391.130077
7.538000	0.000281	-0.001000	-0.002009	-0.000398	5614.118565	33918.520140	3652.283605	18418.353347
8.035500	-0.000719	-0.000237	0.004895	0.000034	5605.153895	33942.180558	3664.126077	18402.932693
8.536000	0.000666	-0.000188	-0.003883	0.000152	5613.083804	33937.213274	3647.893991	18398.703209
9.036000	-0.000166	0.000000	0.002774	0.000242	5607.310130	33944.243128	3659.844272	18395.486804
9.536500	-0.000736	0.000323	0.003259	0.000177	5604.152633	33971.937388	3660.852483	18397.801931
10.036500	0.000127	-0.000526	-0.002375	-0.000402	5613.179607	33952.675488	3651.626126	18418.507719
10.536500	0.000000	0.000101	0.000000	-0.000100	5610.490156	33975.891414	3655.397336	18407.710941
11.040000	0.000776	0.000308	0.005094	0.000000	5614.726635	33983.580746	3664.555096	18404.138866
11.534500	-0.002214	-0.000685	-0.003511	-0.000388	5598.454900	33940.288992	3649.542399	18417.994424
12.035000	0.001022	-0.000167	-0.006055	0.000267	5614.597333	33930.527459	3643.775976	18394.606284
12.535000	-0.001037	-0.000836	-0.004321	-0.000464	5606.281446	33934.980049	3648.216164	18420.733867
13.035500	-0.002222	0.000287	0.001260	-0.000066	5596.401485	33986.767463	3657.635229	18406.482359
13.536500	0.000363	-0.001116	-0.003348	-0.000493	5615.227933	33917.053529	3650.027380	18421.763466
14.036000	-0.001443	0.000164	0.000028	0.002667	5584.257678	33783.150265	3650.419200	18309.115848
14.537000	-0.003682	-0.000736	0.001143	0.001815	5575.675726	33779.808897	3653.992571	18339.424668
15.037000	0.001612	0.000321	-0.007437	0.000613	5616.122325	33940.664471	3640.677428	18382.242845
15.537000	-0.000293	0.000039	-0.002949	0.000049	5607.728619	33960.872593	3649.770343	18402.400832
16.037000	-0.003739	-0.001016	-0.004893	-0.000074	5587.015707	33894.297695	3646.479914	18406.767281
16.541500	0.000581	0.000187	0.003253	0.000874	5608.034952	33912.472984	3659.563808	18372.942577
17.035000	0.000637	-0.000178	0.003686	-0.003250	5634.303795	34181.866972	3667.958447	18520.722476
17.535500	-0.002445	-0.000859	-0.002382	0.000487	5591.572550	33865.477346	3650.001903	18386.733429
18.035500	0.000308	0.000875	-0.001426	0.002051	5598.975863	33877.561991	3648.901444	18331.003232
18.536000	0.001153	0.001080	0.002079	0.002204	5603.291889	33881.343494	3654.987631	18325.572295
19.036000	0.000227	-0.000667	0.002587	0.001022	5604.895736	33841.121196	3658.073922	18367.675703
19.536500	0.000173	-0.000559	-0.002517	0.000903	5605.298662	33857.292638	3649.006104	18371.919325
20.037000	-0.003112	0.000515	-0.004656	0.001583	5580.635939	33885.306804	3643.924513	18347.668262
20.543000	-0.000027	-0.000266	-0.001190	0.001450	5600.633961	33839.210275	3650.418597	18352.419679
21.036500	-0.002681	-0.000465	-0.000254	0.001187	5585.758064	33843.716716	3652.593677	18361.782064
21.537500	-0.000863	0.000238	-0.001456	0.001962	5592.239761	33838.621623	3649.009633	18334.192982
22.035500	-0.001170	-0.000484	0.004758	0.001449	5593.516081	33823.720576	3661.269090	18352.434206
22.535500	-0.002042	-0.000229	-0.004708	0.001673	5586.704631	33825.864482	3643.668235	18344.452522
23.036000	-0.000584	0.000296	-0.000936	0.001922	5594.217335	33845.519091	3650.022491	18335.591371
23.536500	0.000180	0.000140	-0.003200	0.001477	5601.759831	33866.126057	3646.737174	18351.451655
24.061000	0.000447	0.000517	-0.003455	0.002848	5594.873331	33795.382879	3643.809026	18302.679616
24.539000	-0.001323	-0.000024	0.002889	0.001573	5591.793060	33847.640548	3657.616673	18348.020808
25.037000	0.002087	-0.001104	0.005995	0.000468	5620.017984	33849.417050	3665.353901	18387.424206
25.537500	-0.000409	0.000059	0.002124	0.001144	5600.157268	33884.085408	3657.003363	18363.307031
26.037500	-0.000327	-0.000696	0.000378	0.001318	5599.586156	33817.955807	3653.503770	18357.119327
26.535000	-0.001807	0.000099	0.002708	0.001334	5590.277949	33873.464501	3657.724035	18356.552248
27.035500	0.004850	-0.000442	0.000951	-0.001604	5650.564808	34044.682106	3659.885447	18461.569223
27.535500	-0.000760	-0.000616	-0.004142	-0.001532	5614.703808	34027.054727	3650.471409	18458.982739
28.036000	-0.000991	-0.000487	-0.003353	-0.000810	5608.731067	33984.647398	3650.593575	18433.126002
28.536000	-0.002103	-0.000576	-0.002789	0.005520	5562.558128	33528.894832	3640.213259	18208.108799
29.036500	0.000272	0.000442	0.001404	0.000096	5610.966701	33986.278000	3657.602471	18400.709402
29.537000	0.000599	-0.000289	0.000843	-0.000235	5615.087959	33957.685876	3657.181130	18412.526338
30.039500	-0.002254	0.000266	0.002558	-0.000216	5597.133323	33996.003021	3660.286959	18411.843809
30.537500	0.001176	0.000769	0.001363	0.003643	5594.463586	33756.829471	3651.069846	18274.489375
31.037500	-0.001524	-0.000852	0.000939	0.000580	5596.725258	33859.368611	3655.869613	18383.423990
31.535000	-0.001929	-0.000147	-0.001832	-0.000153	5598.770225	33962.005401	3652.162421	18409.624939
32.035500	0.000496	-0.000254	0.001188	-0.000225	5614.380331	33959.530841	3657.795937	18412.192894
32.535000	0.000049	0.000292	-0.000687	0.004867	5579.875197	33636.346104	3645.156003	18231.189364
33.036500	0.000780	-0.000336	0.001824	-0.002262	5628.976329	34099.486736	3662.698040	18485.187209
33.536500	0.000481	0.000224	0.007748	0.001661	5602.484505	33859.009026	3666.388173	18344.887187
34.036500	0.001200	0.000405	-0.000433	0.002503	5601.722775	33811.973269	3649.882147	18314.963762
34.537500	0.000364	0.000085	-0.003887	0.002233	5598.190713	33808.461134	3644.139393	18324.555512
35.037000	-0.001569	-0.000314	0.000665	0.002104	5586.965557	33789.210972	3652.595864	18329.120816
35.535000	0.000769	0.000709	-0.004697	0.002645	5598.145652	33823.508868	3641.944086	18309.892168
36.035000	-0.001888	-0.000481	-0.001294	0.001925	5586.102243	33790.100120	3649.368987	18335.502454
36.535000	-0.000058	-0.000420	0.000266	0.002196	5595.796132	33775.151648	3651.705395	18325.868108
37.035500	-0.000938	0.000829	-0.002466	0.002958	5585.582565	33809.724077	3645.389078	18298.785256
37.535500	-0.001219	-0.000688	-0.003192	0.001604	5592.250779	33798.224055	3646.522518	18346.940312
38.036000	-0.001305	0.000087	0.000348	0.002158	5588.275869	33813.875455	3651.923046	18327.212110
38.536500	-0.003774	-0.000773	0.001121	0.001669	5576.007702	33787.550981	3654.217297	18344.627232
39.036500	-0.001895	-0.000152	0.004936	0.002353	5583.400787	33782.972340	3659.936985	18320.262285
39.539500	0.001117	0.000425	-0.001558	0.002490	5601.281557	33814.256794	3647.870477	18315.394845
40.037500	-0.001272	-0.000240	-0.000472	0.001945	5589.799972	33805.783198	3650.821606	18334.775947
40.537500	-0.003888	-0.000721	-0.004951	0.001393	5577.006098	33810.797595	3643.734955	18354.427078
41.035000	-0.001883	0.000160	0.003785	0.002556	5582.219974	33790.806381	3657.458444	18313.071538
41.535500	-0.002745	-0.000527	0.001972	0.002321	5578.336421	33758.695127	3654.579062	18321.408418
42.035500	0.000525	-0.000307	-0.003892	0.001847	5601.607011	33808.041435	3644.823399	18338.291289
42.535500	-0.001365	-0.000423	-0.001805	0.002565	5585.376581	33748.750708	3647.289478	18312.750460
43.036500	0.001409	0.000336	0.000345	0.002587	5602.504417	33801.101047	3651.140766	18311.978410
43.536500	0.000982	-0.000232	0.005124	-0.003369	5637.241671	34186.565053	3670.847365	18525.009625
44.039500	-0.001016	0.000317	0.006004	0.000877	5598.039770	33921.540468	3664.615946	18372.838078
44.537000	0.000403	-0.000259	-0.004653	0.000904	5606.729333	33878.548552	3645.149772	18371.860126
45.034500	0.002364	0.000462	0.006412	0.001099	5617.799495	33916.096374	3664.959826	18364.927233
45.535000	0.004887	-0.000020	0.006586	0.000921	5634.800696	33894.345870	3665.608974	18371.256287
46.035500	-0.000169	0.000151	0.006036	0.001173	5601.480723	33888.581266	3664.129089	18362.284888
46.535000	-0.000715	-0.000314	0.001848	0.000802	5600.382867	33881.884867	3657.123429	18375.490078
47.036000	-0.001603	-0.000645	-0.000110	0.002379	5585.048608	33746.190143	3650.691022	18319.340163
47.536500	-0.001847	-0.001244	0.002761	0.000414	5595.752159	33843.278890	3659.505953	18389.361546
48.036500	-0.001504	-0.000078	-0.002294	0.000424	5597.826474	33925.741286	3650.278098	18389.011680
48.536500	-0.000458	0.000193	0.002178	0.001216	5599.406556	33888.532706	3656.969848	18360.736610
49.037000	0.002801	0.001061	0.001798	-0.000447	5630.271127	34069.526126	3659.318426	18420.126148
49.537000	0.002159	0.000497	0.002737	-0.001653	5633.830017	34115.613225	3663.258606	18463.330774
50.035000	0.000862	-0.001132	-0.000447	0.014571	5525.395956	32859.416768	3628.310987	17892.079526
50.535000	0.018465	0.009680	0.000987	-0.013409	5816.891939	35656.265376	3681.894113	18890.792739
51.035000	-0.000934	-0.007539	-0.010470	0.148081	4820.269508	24614.549254	3413.099274	13920.084137
51.535500	-0.019959	-0.019388	-0.013020	-0.132608	6414.915686	43205.534221	3906.157255	23946.192714
52.036000	-0.032441	-0.059490	-0.016136	-0.344418	8467.211653	62739.282699	4549.340808	37185.482307
52.536000	-0.018635	-0.101279	-0.004330	-0.406046	9524.899225	65535.000000	4859.889074	42415.226294
53.036500	-0.012042	-0.105232	-0.004898	-0.409999	9687.963076	65535.000000	4875.513409	42776.742950
53.539500	-0.007947	-0.069147	-0.004152	-0.369729	9144.764529	64934.679098	4700.498982	39243.997821
54.037000	-0.008724	-0.025606	-0.004231	-0.292462	8116.187922	60301.357556	4400.836464	33317.866065
54.534500	-0.014344	-0.016130	-0.011353	-0.251325	7582.888309	56267.220225	4239.166477	30567.420036
55.034000	-0.011488	-0.013073	-0.014147	-0.258263	7689.898864	57509.140304	4252.353602	31013.236330
55.535000	-0.006680	-0.007718	-0.013617	-0.241966	7564.619830	56151.118439	4202.841086	29977.245339
56.035000	-0.004992	-0.003381	-0.015157	-0.237882	7538.899816	56182.031533	4185.608605	29723.648110
56.535500	-0.004553	-0.002574	-0.013422	-0.210305	7257.374014	52998.389271	4109.241971	28072.379475
57.036000	-0.002118	0.000569	-0.011708	-0.151024	6721.703041	46926.593576	3954.604171	24858.485395
57.536500	-0.005397	0.001446	-0.004916	-0.129352	6507.842855	44869.311732	3917.857059	23788.831175
58.036500	-0.005510	-0.002230	-0.009731	-0.168827	6850.945473	48473.348475	4005.445040	25778.020255
58.537000	-0.009372	-0.001696	-0.013728	-0.124387	6434.165812	44093.623456	3884.942008	23551.228293
59.036500	-0.008134	-0.001823	-0.008987	-0.111221	6338.180753	42852.493630	3865.318654	22934.060563
59.534500	-0.008433	-0.003001	-0.013267	-0.108455	6313.939731	42491.614548	3849.196702	22806.773636
60.035000	-0.009707	-0.002503	-0.007818	-0.106788	6290.847851	42385.243093	3857.818615	22730.482728
60.535500	-0.009444	-0.002075	-0.010498	-0.100803	6246.343188	41883.577214	3838.180010	22458.846534
61.035500	-0.008990	-0.000509	-0.011972	-0.104597	6279.323923	42367.366213	3843.400224	22630.611944
61.536500	-0.011716	0.007329	-0.018150	-0.113910	6331.097903	43956.138826	3850.497323	23058.612859
62.036000	-0.011044	0.003012	-0.018146	-0.118506	6373.083773	43982.607644	3861.007242	23273.263229
62.536500	-0.012847	0.003678	-0.012608	-0.119304	6365.034543	44121.174418	3875.662908	23310.747001
63.102000	-0.010725	0.003049	-0.013676	-0.114550	6344.049934	43613.760140	3862.188778	23088.385433
63.537000	-0.011332	0.003716	-0.014409	-0.109382	6298.430813	43194.194912	3848.709398	22849.357758
64.037000	-0.011254	0.003964	-0.015303	-0.102351	6244.317788	42570.132733	3830.897639	22528.722779
64.535000	-0.010974	0.003891	-0.016748	-0.096463	6201.305358	42029.696172	3814.702667	22264.215758
65.035500	-0.009677	0.004478	-0.018706	-0.091331	6172.203583	41622.579056	3799.300784	22036.531096
65.535000	-0.012352	0.003803	-0.019927	-0.087378	6122.515825	41212.376097	3788.220160	21863.001248
66.036000	-0.013476	0.003789	-0.015169	-0.083412	6084.860704	40863.087144	3789.908985	21690.475733
66.536000	-0.014005	0.003603	-0.017669	-0.079704	6053.864065	40524.487049	3776.762812	21530.602758
67.036500	-0.013935	0.003870	-0.017593	-0.076159	6028.657108	40241.755819	3769.496587	21379.011045
67.537000	-0.015418	0.003989	-0.015260	-0.073762	6000.745088	40046.524930	3769.363456	21277.194858
68.037000	-0.012432	0.003244	-0.017509	-0.070676	6000.029604	39720.476751	3758.304091	21146.954612
68.537000	-0.013736	0.003439	-0.010142	-0.068828	5977.557553	39580.708724	3769.748442	21069.434219
69.038000	-0.013329	0.004008	-0.009679	-0.068113	5975.364509	39568.366777	3769.222131	21039.523366
69.534500	-0.013659	0.003163	-0.018749	-0.066634	5962.546277	39372.795566	3747.491158	20977.797285
70.035500	-0.012248	0.003128	-0.015461	-0.064168	5955.094396	39163.567007	3749.164061	20875.343538
70.535000	-0.014982	0.002727	-0.015564	-0.063288	5929.701910	39056.772044	3747.160946	20838.910574
71.036000	-0.016165	0.002255	-0.020908	-0.062955	5919.114172	38989.834832	3735.688365	20825.158705
71.536000	-0.014981	0.001735	-0.011415	-0.061910	5920.082479	38860.126655	3752.817684	20782.035779
72.036500	-0.012467	0.002735	-0.013239	-0.059392	5920.056342	38734.696494	3743.971424	20678.552854
72.539500	-0.011893	0.001715	-0.016962	-0.057952	5914.025547	38532.504270	3733.568421	20619.673181
73.037000	-0.010968	0.002532	-0.014539	-0.055928	5906.386704	38433.627027	3734.367673	20537.200373
73.537000	-0.012354	0.001560	-0.014452	-0.055045	5890.672247	38282.260889	3732.772766	20501.335992
74.035000	-0.014342	0.001167	-0.010568	-0.053957	5869.503343	38161.953378	3738.386968	20457.268865
74.535000	-0.012092	0.001378	-0.014249	-0.051010	5864.728906	37940.593224	3725.137495	20338.404421
75.038000	-0.010718	0.001298	-0.009544	-0.050028	5867.416330	37855.138478	3732.555407	20299.008246
75.536000	-0.013786	0.001584	-0.014205	-0.048246	5834.363262	37735.060803	3719.759724	20227.705064
76.036000	-0.012823	0.001818	-0.016120	-0.045344	5821.256138	37521.859046	3710.316164	20112.194402
76.536000	-0.014717	0.001679	-0.013533	-0.045327	5808.385533	37509.352632	3715.340657	20111.497163
77.039500	-0.015475	0.002018	-0.011298	-0.043691	5792.352046	37406.271643	3716.516701	20046.734114
77.537000	-0.015115	0.002166	-0.011519	-0.041438	5779.734214	37239.563499	3711.672006	19957.943320
78.036500	-0.016602	0.001922	-0.015954	-0.039306	5755.761134	37052.235060	3698.944025	19874.299259
78.537500	-0.014362	0.001997	-0.012490	-0.038770	5767.028139	37016.128270	3704.596097	19853.367144
79.035000	-0.013885	0.001365	-0.016903	-0.038222	5766.553768	36923.625286	3695.042541	19831.965139
79.538000	-0.012986	0.002471	-0.014817	-0.035621	5755.307713	36806.707027	3694.056726	19730.745749
80.035000	-0.013630	0.001286	-0.012051	-0.033891	5739.698842	36580.129447	3696.041576	19663.802637
80.536000	-0.013564	0.001605	-0.014000	-0.033601	5738.227211	36582.367396	3691.760443	19652.585240
81.036500	-0.015147	0.001322	-0.012965	-0.032363	5719.795190	36464.679320	3691.373891	19604.858984
81.536500	-0.011848	0.001439	-0.011428	-0.031434	5735.277625	36402.094775	3692.535063	19569.142537
82.037000	-0.012396	0.001754	-0.013504	-0.028991	5715.756543	36238.422652	3683.953723	19475.544411
82.537000	-0.009673	0.002570	-0.009546	-0.027952	5726.729518	36221.306581	3689.484903	19435.885601
83.034000	-0.012322	0.002369	-0.014033	-0.028007	5709.845168	36210.138568	3681.100265	19437.989922
83.534500	-0.010113	0.002381	-0.009760	-0.027179	5718.817496	36147.573288	3687.609290	19406.441598
84.035000	-0.009691	0.003421	-0.011511	-0.024844	5706.396606	36048.746510	3679.895663	19317.875808
84.535500	-0.012309	0.002439	-0.006009	-0.025718	5695.110085	36040.462411	3691.966836	19350.974243
85.035500	-0.007895	0.003165	-0.010688	-0.025359	5721.412428	36068.432357	3682.412522	19337.360775
85.536000	-0.009833	0.002923	-0.018552	-0.025096	5707.108236	36029.968176	3667.233042	19327.397079
86.036500	-0.010974	0.003763	-0.007916	-0.022703	5684.289634	35911.806622	3682.631912	19237.050240
86.539000	-0.008288	0.003494	-0.008291	-0.023466	5706.556986	35949.331574	3683.364530	19265.809850
87.037000	-0.009377	0.002910	-0.008561	-0.023838	5701.906613	35933.143781	3683.555069	19279.818099
87.537500	-0.008157	0.004085	-0.009968	-0.023071	5704.845230	35964.191514	3679.461170	19250.898008
88.037500	-0.006845	0.003051	-0.009410	-0.022242	5707.976590	35822.804621	3678.953278	19219.705933
88.535000	-0.008160	0.002739	-0.007770	-0.023888	5710.117903	35924.021950	3685.145622	19281.718831
89.035500	-0.007821	0.003792	-0.008715	-0.023326	5708.679524	35961.396499	3682.300805	19260.531543
89.535500	-0.004660	0.003812	-0.007310	-0.023358	5729.462843	35965.292370	3685.013609	19261.711122
90.035500	-0.006343	0.003571	-0.012275	-0.022498	5712.896239	35881.657486	3674.069645	19229.334559
90.536000	-0.006087	0.003703	-0.010195	-0.023920	5723.817780	35999.772147	3680.631052	19282.935292
91.036000	-0.007690	0.004167	-0.008952	-0.024210	5715.266758	36057.237720	3683.520504	19293.870777
91.536500	-0.007513	0.005182	-0.012068	-0.024108	5715.755901	36126.978444	3677.467368	19290.034562
92.037500	-0.005694	0.004019	-0.010727	-0.023325	5722.499908	35978.534122	3678.513362	19260.481005
92.537000	-0.005507	0.004955	-0.009529	-0.024595	5732.009800	36146.839981	3683.156484	19308.418488
93.056000	-0.005594	0.004623	-0.008381	-0.025451	5737.054897	36186.973015	3686.949779	19340.858191
93.535000	-0.005243	0.005144	-0.001880	-0.025802	5741.653539	36253.865513	3700.041402	19354.155691
94.035500	-0.005805	0.003801	-0.010181	-0.024438	5729.040945	36046.756981	3681.633324	19302.517271
94.536000	-0.006693	0.004825	-0.009045	-0.026130	5734.296423	36254.514644	3686.976306	19366.588258
95.035500	-0.007206	0.003620	0.000395	-0.027523	5740.061500	36268.880965	3707.772778	19419.529169
95.536000	-0.005209	0.004489	-0.007054	-0.027114	5750.496120	36304.272412	3692.635591	19403.971229
96.039500	-0.006478	0.003328	-0.008334	-0.025333	5730.486142	36078.913187	3686.812654	19336.354578
