sample name	sample
index	937
start time	 04-12-2021  01:59:23 PM
880	-0.064478
Peak Time (s)	121.035
Peak Height 	-0.06448
calc peak height	120,123
Baseline Time (s)	11.036
Baseline Value 	-0.004369
subtract baseline	10,4
Abs	-0.003499
Peak Time (s)	122.036
Peak Height 	-0.003499
calc peak height	120,123
Baseline Time (s)	9.037
Baseline Value 	0.005441
subtract baseline	10,3
PK_550	-0.005523
Peak Time (s)	121.035
Peak Height 	-0.005523
calc peak height	120,123
Baseline Time (s)	10.536
Baseline Value 	4.282E-4
subtract baseline	10,2
PK_880	-0.015175
Peak Time (s)	122.539
Peak Height 	-0.01517
calc peak height	120,123
Baseline Time (s)	9.037
Baseline Value 	0.001939
subtract baseline	10,1


Time (s)	A880-A510	A880-A775	A880-A975	A880	I510	I775	I975	I880	
0.037000	-0.001957	-0.000158	-0.006766	0.005837	7100.180430	43002.092770	3913.940324	23079.014777
0.537500	-0.002438	-0.001083	-0.004312	0.005338	7100.340662	42962.735632	3921.213985	23102.187932
1.035500	-0.002928	-0.000658	-0.007496	0.003729	7111.201677	43150.456890	3917.326771	23177.202218
1.539000	-0.000908	-0.000490	-0.003313	0.001719	7150.549235	43352.464562	3932.689131	23271.307476
2.036000	-0.001097	0.000230	-0.003414	0.005133	7115.357422	43102.729961	3923.944003	23111.736667
2.536000	-0.000126	0.000336	-0.002202	0.001812	7157.311374	43420.622656	3935.236201	23266.942837
3.036500	-0.000744	-0.000406	-0.003412	-0.000650	7175.469277	43581.257587	3938.376148	23382.810953
3.536500	0.001257	-0.000267	-0.002955	0.000225	7186.597098	43512.441773	3937.327743	23341.551189
4.037000	-0.001267	0.000025	-0.000591	0.000992	7154.166230	43468.152160	3941.342304	23305.477928
4.537000	0.000867	-0.000232	-0.000619	0.000443	7180.580383	43495.365783	3942.653511	23331.285510
5.035000	0.001114	0.000341	-0.002618	0.000634	7181.131386	43530.980730	3937.144038	23322.277504
5.538000	0.000372	-0.000937	0.002190	-0.000669	7186.679412	43533.287491	3952.583636	23383.668698
6.035000	0.001186	-0.000490	-0.000094	-0.000185	7189.940568	43529.909446	3945.564377	23360.853296
6.536000	-0.000561	0.000130	-0.000097	0.000222	7168.677887	43549.747619	3944.529881	23341.689286
7.036000	0.002043	-0.000169	-0.002365	0.000223	7194.387378	43521.771246	3938.812431	23341.622930
7.535500	0.000054	-0.000100	-0.003666	-0.000183	7178.735077	43566.112642	3936.568151	23360.769909
8.036500	0.000510	-0.000133	-0.001242	-0.000243	7183.829138	43568.650520	3942.811293	23363.585100
8.537000	-0.000615	-0.000097	-0.002422	0.000282	7167.559972	43522.990628	3938.522499	23338.880661
9.037000	0.000000	-0.000609	0.000000	-0.000350	7179.848101	43534.169517	3946.218707	23368.624265
9.540500	0.000921	0.000073	0.000613	-0.000431	7189.757559	43605.538462	3947.977782	23372.469622
10.034500	0.000209	0.000919	0.000880	0.000813	7170.447896	43568.345958	3945.504645	23313.894637
10.535500	0.001785	0.000000	0.000249	0.000324	7190.838813	43528.118149	3945.145359	23336.889561
11.036000	-0.000070	0.000167	-0.004196	0.000000	7175.705795	43574.021445	3934.780002	23352.143058
11.536000	-0.000016	-0.000330	-0.001732	-0.000278	7178.982761	43553.479500	3941.665888	23365.226627
12.036500	-0.000919	-0.000113	-0.004725	-0.000290	7170.192899	43574.918064	3934.182392	23365.816237
12.536500	-0.000738	-0.000033	0.003614	-0.000356	7172.625672	43588.534049	3955.414698	23368.921010
13.036500	0.001714	0.000433	0.003796	-0.000890	7202.166689	43682.209374	3957.242233	23394.117986
13.537500	-0.000647	-0.000942	0.000024	-0.000511	7175.054295	43518.059507	3946.687455	23376.213276
14.054000	0.001336	0.000496	0.001738	0.000281	7186.819485	43578.494286	3949.024379	23338.925448
14.535000	-0.000342	0.000593	-0.005248	0.002403	7149.396980	43389.593124	3926.167558	23239.241137
15.040500	-0.003637	-0.001133	0.001060	0.003781	7103.816596	43101.702585	3938.479000	23174.771252
15.547000	-0.000259	-0.000240	0.000522	-0.000494	7178.713288	43582.079919	3947.903556	23375.412379
16.035500	0.000223	-0.000975	-0.002953	-0.000715	7185.662389	43534.081497	3939.693294	23385.875653
16.536000	0.000446	0.000412	0.001801	-0.000081	7181.598296	43604.493673	3950.101858	23355.957338
17.036500	-0.003209	-0.000056	-0.004915	0.004305	7102.889199	43152.962103	3922.280120	23150.355858
17.536500	0.002602	0.000763	-0.001346	-0.002643	7228.459150	43877.904182	3948.617239	23477.020404
18.036500	0.001902	-0.000130	-0.003118	-0.001622	7211.310464	43698.005703	3941.559507	23428.707852
18.540000	-0.001758	-0.000675	-0.003601	0.000448	7154.683042	43453.505229	3935.147998	23331.025914
19.037000	-0.001499	0.000022	-0.005431	0.002209	7139.964165	43354.569740	3926.195047	23248.358996
19.535000	0.001649	0.000276	-0.003643	0.001362	7179.225554	43456.951005	3932.755852	23288.061722
20.035500	-0.002675	-0.000969	-0.002609	-0.000023	7150.307232	43470.040320	3938.818593	23353.234384
20.535500	-0.001676	-0.000769	-0.007344	0.000518	7154.796978	43438.231468	3925.643346	23327.749172
21.036000	-0.002125	0.000015	-0.001938	0.002401	7131.963504	43336.023733	3934.421164	23239.323227
21.536000	-0.000781	0.000092	-0.004518	0.001102	7157.846468	43464.035865	3931.221572	23300.272416
22.036500	-0.001940	0.000337	-0.001769	0.001385	7143.714514	43460.526806	3937.391985	23287.001595
22.537500	-0.000192	-0.000163	0.000401	0.000789	7166.731392	43469.536576	3944.354146	23315.021699
23.039500	-0.001807	-0.000310	0.000710	0.002371	7135.369871	43308.705372	3941.146807	23240.770856
23.538000	-0.000957	-0.000622	-0.002630	0.000229	7164.710734	43478.930723	3938.131505	23341.354703
24.035000	-0.000904	0.000276	-0.003867	0.001308	7154.617724	43462.036906	3932.333237	23290.599325
24.535000	-0.000611	-0.000513	-0.001032	0.000478	7165.665108	43465.891066	3941.525252	23329.625302
25.035500	-0.001180	-0.000041	-0.001879	0.002940	7135.936685	43280.800851	3933.222948	23214.110517
25.535500	0.000637	0.000412	-0.003995	0.001286	7169.994524	43476.836219	3932.068317	23291.661505
26.036500	-0.001351	0.000466	-0.003918	0.001237	7150.930964	43486.349697	3932.381986	23293.952444
26.536000	-0.000637	0.000142	-0.002189	0.001349	7156.840364	43445.751261	3936.429907	23288.689206
27.036500	-0.000015	0.000630	-0.001587	0.001424	7162.223315	43484.224944	3937.751942	23285.174108
27.537000	-0.000955	-0.000065	0.001154	0.001018	7156.979843	43457.302809	3945.678952	23304.262308
28.037000	-0.001211	0.000010	-0.002791	0.004148	7123.839322	43173.499341	3927.935342	23157.638470
28.537500	-0.001202	0.000186	-0.004602	-0.000438	7168.872260	43616.740258	3934.860993	23372.808207
29.062500	-0.002244	0.000671	-0.006935	0.005409	7101.541584	43118.079876	3914.576097	23098.912931
29.535500	0.002255	0.000282	-0.001027	0.000189	7196.833491	43567.047878	3942.267338	23343.254412
30.035500	-0.002782	0.000280	-0.004566	0.005368	7096.724161	43085.717253	3920.511646	23100.798418
30.535000	0.000097	0.000120	0.000127	-0.000834	7185.589906	43647.586683	3947.765157	23391.458952
31.036500	-0.002587	0.000231	0.003523	0.005500	7097.333120	43068.966022	3940.348674	23094.666751
31.536500	0.000218	0.000674	-0.003258	0.002232	7156.570445	43413.043738	3931.548392	23247.270350
32.037000	-0.002147	-0.000957	-0.004600	0.003204	7123.917289	43171.354539	3925.787305	23201.736309
32.536500	0.000435	0.001159	0.005832	0.000240	7178.320688	43644.319106	3959.557364	23340.833764
33.064500	-0.002463	-0.000589	-0.003093	0.005209	7101.353931	43020.161271	3924.551908	23108.212328
33.538500	0.000744	-0.000536	-0.000133	-0.000330	7187.006793	43539.170016	3945.833497	23367.700066
34.035000	-0.003641	-0.000240	-0.002433	0.004999	7091.982185	43071.773067	3926.710755	23117.992561
34.535000	0.000316	-0.001035	-0.002127	-0.000976	7189.156900	43552.821854	3942.427219	23398.156644
35.035500	-0.001716	-0.000188	-0.002373	0.004270	7117.730214	43143.879219	3928.673073	23151.947846
35.541500	0.000536	-0.000962	-0.000959	0.000857	7173.225886	43388.731277	3940.753782	23311.790981
36.036500	-0.000139	-0.000673	-0.006074	0.002070	7154.645442	43302.790621	3924.942815	23254.838755
36.537000	0.000925	-0.000361	-0.003660	0.001237	7173.313240	43409.290141	3933.028277	23293.945524
37.039500	-0.002343	0.000193	-0.002159	0.003662	7117.548045	43235.486023	3930.721408	23180.343958
37.537000	0.000208	0.000315	0.004176	0.001868	7160.052456	43413.497660	3951.184518	23264.338037
38.034500	-0.002348	-0.000235	-0.000307	0.001327	7140.280281	43412.609574	3941.212547	23289.709571
38.535000	0.000531	-0.000092	0.002393	0.001868	7163.221564	43375.692518	3946.662667	23264.342940
39.035500	-0.000524	0.000021	0.000704	0.001493	7156.537539	43421.040542	3943.342406	23281.934660
39.535500	-0.000540	-0.000598	-0.007566	0.001061	7160.624260	43403.623297	3923.746630	23302.204011
40.035500	-0.002719	-0.000815	-0.001589	0.000971	7140.140060	43391.832136	3938.884419	23306.467131
40.536500	0.000174	0.000393	-0.002147	0.002254	7155.916376	43384.878912	3934.268495	23246.233588
41.036500	-0.002521	-0.000051	-0.005086	0.002899	7123.249928	43283.643144	3925.337785	23216.028877
41.539000	-0.000979	-0.000630	-0.000386	0.000746	7159.406737	43430.054908	3942.478602	23317.034903
42.037000	-0.001623	0.000128	-0.000991	0.001355	7147.104082	43443.873995	3939.420783	23288.390506
42.537000	-0.001116	0.000679	-0.001184	0.002242	7143.383033	43412.514376	3936.709253	23246.776845
43.037500	-0.001324	-0.000135	-0.003042	0.003122	7132.751421	43255.222774	3929.866400	23205.603173
43.535500	0.001750	0.000130	-0.000112	0.001868	7175.239429	43396.367379	3940.342132	23264.352595
44.035000	-0.001763	0.000080	-0.006412	0.001676	7142.590818	43409.475133	3925.081885	23273.339903
44.535500	-0.001562	-0.000075	-0.004838	0.001265	7148.595970	43433.332537	3930.018243	23292.645652
45.035500	0.000638	0.000714	-0.000511	0.003893	7144.389483	43262.341563	3934.259630	23169.545255
45.536500	-0.000015	0.000726	-0.000817	0.000303	7173.256618	43597.876212	3942.506781	23337.858249
46.039000	-0.001525	0.000070	-0.001417	0.003612	7126.007167	43228.707740	3932.696723	23182.676591
46.587000	-0.001503	0.000128	-0.001405	-0.000508	7166.589293	43617.796875	3943.069516	23376.068467
47.037000	-0.000843	0.000185	0.000125	0.004981	7119.318992	43112.738962	3933.131061	23118.848418
47.535000	0.000661	-0.000433	-0.001625	-0.000407	7186.955803	43555.992110	3942.261623	23371.344065
48.035000	-0.001171	-0.000253	-0.004906	0.003590	7129.667197	43200.814204	3924.070524	23183.698582
48.535000	-0.000140	0.000527	-0.001210	0.000406	7171.008632	43569.713949	3941.258301	23333.028593
49.035500	-0.002233	-0.000673	-0.000216	0.004052	7114.826380	43119.290706	3934.602683	23162.155075
49.536000	-0.000176	-0.000158	-0.001906	0.002055	7154.443016	43352.156082	3935.369109	23255.568180
50.036000	-0.000013	0.000141	-0.000299	0.002425	7152.408030	43345.558597	3938.473888	23238.239813
50.536000	-0.000390	-0.000637	-0.006023	-0.000546	7177.935401	43549.800812	3931.577621	23377.863349
51.036500	-0.001585	-0.000214	-0.000987	0.003649	7125.058772	43199.006702	3933.680060	23180.975109
51.537000	0.002143	0.000642	0.000243	-0.000023	7197.824427	43620.574166	3946.007132	23353.226410
52.037000	0.001001	0.000226	0.002819	0.001205	7174.385996	43466.981632	3949.420330	23295.444142
52.534500	0.000630	0.000620	-0.002055	0.001725	7165.605423	43455.250383	3935.822916	23271.029290
53.035000	-0.043445	-0.007760	-0.000412	0.286871	4893.933458	23568.207143	3414.178629	13461.219383
53.535500	-0.064960	-0.016722	-0.005926	-0.015403	6714.251308	43435.329170	3969.550147	24090.815798
54.035500	-0.056801	-0.026206	-0.008738	-0.153336	8243.139975	57359.727201	4378.975510	32015.478839
54.536000	-0.149891	-0.298017	-0.101970	-0.485968	12182.195462	65535.000000	5505.056943	65535.000000
55.036000	-0.038630	-0.150056	0.004999	-0.338007	11429.299045	65535.000000	5265.715278	47448.661600
55.536500	-0.035489	-0.102150	0.004259	-0.290101	10593.044492	65535.000000	5009.487645	42795.106147
56.036500	-0.036985	-0.064415	-0.005157	-0.246379	9831.459747	64678.612042	4760.528492	38973.602216
56.537500	-0.030791	-0.062358	-0.007804	-0.244239	9896.540412	64666.622540	4739.556664	38796.176656
57.037000	-0.019010	-0.057769	-0.009742	-0.239097	10004.469173	64588.295555	4708.971617	38373.628690
57.534500	-0.012368	-0.045628	-0.011875	-0.222018	9835.538859	63891.595298	4628.425359	37005.339202
58.035000	-0.005677	-0.028420	-0.011693	-0.193310	9492.246761	62299.739807	4515.222049	34823.301770
58.534500	-0.007675	-0.021556	-0.018203	-0.174752	9187.081583	60723.715528	4421.698830	33487.626061
59.035500	-0.009107	-0.018029	-0.016313	-0.162219	8987.848819	59538.529694	4383.595342	32617.291132
59.536000	-0.007552	-0.015220	-0.013282	-0.151052	8854.397776	58460.443092	4355.088685	31862.728330
60.039000	-0.009102	-0.012006	-0.013597	-0.135869	8628.978235	56952.080449	4302.245992	30867.363150
60.536500	-0.003617	-0.012016	-0.016008	-0.139869	8755.684827	57450.289546	4307.577631	31126.259414
61.036500	-0.003778	-0.011014	-0.013075	-0.132195	8650.836287	56619.786259	4291.727948	30631.733082
61.537000	-0.008378	-0.010255	-0.015447	-0.122152	8459.859972	55485.169465	4251.035165	29997.623879
62.037000	-0.009068	-0.009704	-0.019248	-0.116896	8384.140086	54919.355458	4222.070519	29671.566540
62.538000	-0.013013	-0.011501	-0.017630	-0.125265	8440.389534	55711.416977	4254.043564	30192.621820
63.035500	-0.017623	-0.012014	-0.018700	-0.121725	8337.212186	55221.630188	4239.195035	29971.005593
63.536000	-0.017973	-0.014403	-0.013757	-0.130698	8446.430458	56019.635628	4284.501557	30536.297838
64.035500	-0.017411	-0.014852	-0.020050	-0.138556	8555.199262	56932.352579	4289.689684	31041.043551
64.540000	-0.010189	-0.014665	-0.016452	-0.147479	8769.726907	58076.151042	4331.867688	31625.356830
65.036500	-0.007426	-0.015120	-0.021111	-0.150971	8855.007031	58462.810498	4327.882872	31857.291344
65.536500	-0.004239	-0.016082	-0.018892	-0.156332	8973.553274	59027.642100	4353.943590	32217.036673
66.036500	-0.001921	-0.015642	-0.019324	-0.158117	9031.303453	59315.577592	4358.646221	32337.869655
66.537000	-0.002096	-0.016152	-0.022460	-0.158562	9035.111165	59307.069389	4349.308663	32368.012999
67.037500	-0.004185	-0.014689	-0.021006	-0.152622	8922.567506	58729.457244	4333.881011	31967.639996
67.535000	-0.000932	-0.016111	-0.015215	-0.157459	9035.971268	59169.596844	4370.697030	32293.266939
68.035500	0.001714	-0.016027	-0.019336	-0.156696	9062.682712	59081.747866	4353.665829	32241.654961
68.535500	0.000801	-0.014794	-0.011880	-0.155175	9028.194180	59044.601964	4374.387318	32139.065852
69.036500	-0.003302	-0.014887	-0.018900	-0.149307	8888.881911	58280.252027	4329.746160	31746.509745
69.536000	-0.001195	-0.015100	-0.014988	-0.154154	8985.694808	58873.461794	4359.942021	32070.373968
70.036500	-0.000339	-0.014738	-0.012665	-0.152113	8969.096533	58657.831820	4360.924394	31933.577167
70.537000	-0.000239	-0.015001	-0.015285	-0.152205	8971.784105	58635.938108	4352.142806	31939.745264
71.037000	-0.004714	-0.014597	-0.018402	-0.145582	8818.348332	57844.458082	4318.777116	31500.087650
71.537000	-0.002599	-0.014422	-0.013390	-0.149129	8896.145052	58316.862067	4348.057927	31734.725183
72.035000	-0.002239	-0.014296	-0.015999	-0.147248	8875.140877	58093.619558	4332.624199	31610.050901
72.535000	-0.002298	-0.014261	-0.014917	-0.146370	8862.252781	57986.726413	4333.323457	31552.078287
73.035500	-0.004947	-0.013641	-0.018838	-0.140567	8747.159102	57334.155111	4300.427186	31171.648043
73.535000	-0.001142	-0.013260	-0.013394	-0.143894	8844.123140	57800.154223	4330.064959	31389.109687
74.036000	0.000528	-0.012770	-0.013423	-0.141776	8837.992193	57595.101560	4322.754856	31250.491685
74.539000	-0.000531	-0.012761	-0.011723	-0.142205	8829.366614	57650.272073	4330.004470	31278.541538
75.036500	-0.005175	-0.012721	-0.019708	-0.136290	8686.719324	56915.531474	4283.311224	30894.500030
75.536500	-0.002608	-0.013041	-0.012010	-0.141185	8787.166509	57486.731677	4325.550166	31211.913792
76.037500	-0.002330	-0.013322	-0.014802	-0.140642	8783.585286	57383.457291	4314.248053	31176.574048
76.534500	-0.001238	-0.013487	-0.011079	-0.140266	8793.292910	57315.750371	4325.589086	31152.053522
77.035000	-0.005071	-0.012738	-0.016418	-0.133810	8655.097618	56606.311156	4285.992785	30735.063828
77.535500	0.000029	-0.013376	-0.014885	-0.138493	8786.430719	57108.237119	4306.730730	31036.957700
78.035500	0.000098	-0.012910	-0.012695	-0.136576	8761.383351	56927.623462	4307.644867	30912.974018
78.538500	0.000527	-0.013263	-0.012915	-0.136121	8761.041296	56827.345086	4305.378795	30883.645191
79.036500	-0.002719	-0.011986	-0.017467	-0.129366	8627.399388	56152.319125	4267.917243	30451.596232
79.539500	0.001024	-0.012117	-0.014423	-0.132866	8723.876061	56566.330284	4289.478488	30674.592831
80.036000	0.001296	-0.011016	-0.014804	-0.130273	8692.784014	56382.618020	4279.639356	30509.224189
80.537000	0.000224	-0.012056	-0.012721	-0.130427	8680.540550	56273.833255	4287.033599	30519.034713
81.037000	0.000646	-0.011229	-0.013516	-0.128824	8664.814433	56178.657736	4279.109068	30417.251856
81.535000	0.000398	-0.011967	-0.013745	-0.128133	8652.343394	56003.874730	4276.080770	30373.501086
82.035000	-0.001793	-0.011627	-0.012670	-0.126694	8604.388637	55869.912213	4274.881659	30282.574389
82.535500	0.000529	-0.010748	-0.012490	-0.124476	8605.753990	55706.965669	4268.201701	30143.027345
83.039000	-0.000902	-0.010859	-0.010613	-0.123158	8569.703162	55533.772432	4270.031094	30060.484149
83.536000	-0.001185	-0.010419	-0.015528	-0.120695	8533.895474	55289.492162	4246.071248	29906.822737
84.036000	-0.003339	-0.009599	-0.014321	-0.117919	8470.207979	55054.527284	4241.029473	29734.730925
84.537000	-0.002411	-0.009948	-0.009363	-0.116632	8465.597775	54858.639372	4252.857518	29655.269758
85.037000	-0.003630	-0.009889	-0.008161	-0.114503	8422.794245	54612.026211	4249.862581	29524.432532
85.537000	-0.002519	-0.008949	-0.010779	-0.111409	8397.586794	54356.479710	4231.539780	29335.331897
86.038000	-0.004060	-0.008803	-0.012659	-0.108984	8347.535587	54087.537775	4217.891343	29188.113186
86.535000	-0.005722	-0.008781	-0.015415	-0.107035	8302.341084	53861.253917	4203.125767	29070.357062
87.035500	-0.005748	-0.008221	-0.014912	-0.104854	8274.925371	53671.807171	4197.899839	28939.249624
87.538500	-0.006251	-0.008182	-0.008499	-0.102281	8236.920291	53376.828147	4209.891519	28785.388626
88.038500	-0.006842	-0.008527	-0.011840	-0.100314	8205.534362	53109.234959	4193.345902	28668.381241
88.536000	-0.008127	-0.008247	-0.012116	-0.098058	8162.370645	52881.638170	4185.521589	28534.819641
89.036500	-0.009451	-0.008081	-0.010417	-0.095818	8119.296060	52643.940570	4183.859066	28402.918256
89.536500	-0.010628	-0.007994	-0.008169	-0.094095	8084.489584	52457.092896	4185.471859	28301.877639
90.037000	-0.010767	-0.008759	-0.011596	-0.092648	8065.564665	52205.716780	4170.543320	28217.381997
90.534500	-0.009906	-0.007370	-0.007219	-0.090663	8052.176604	52138.128037	4177.847037	28101.865287
91.037500	-0.015516	-0.008702	-0.015689	-0.084465	7913.739804	51293.086310	4133.674111	27744.654284
91.535000	-0.013853	-0.008883	-0.012280	-0.089309	7989.574762	51814.703613	4158.347123	28023.412936
92.035500	-0.014268	-0.008778	-0.011727	-0.088277	7972.604243	51710.536800	4156.899996	27963.750773
92.536000	-0.013481	-0.009004	-0.010338	-0.087890	7977.290734	51641.799978	4159.924834	27941.404749
93.036000	-0.016180	-0.008386	-0.014284	-0.080739	7863.222478	50915.234804	4126.820896	27532.347048
93.536000	-0.015096	-0.008935	-0.008835	-0.086045	7936.933317	51443.268791	4158.891078	27835.238272
94.036500	-0.015817	-0.008457	-0.008618	-0.084953	7915.910070	51374.780683	4156.253998	27772.617595
94.536500	-0.013664	-0.008678	-0.011076	-0.084876	7939.994319	51341.588495	4148.638196	27768.203082
95.037500	-0.016638	-0.008483	-0.012117	-0.078154	7828.507803	50620.090655	4125.588270	27386.095033
95.537500	-0.016444	-0.008881	-0.008252	-0.083449	7891.311183	51160.390966	4152.828182	27686.577372
96.035000	-0.014407	-0.008703	-0.011915	-0.083316	7913.278823	51165.299344	4141.472344	27678.984542
96.535000	-0.014685	-0.009467	-0.007083	-0.082811	7904.238559	51024.772194	4154.424828	27650.172537
97.035500	-0.019685	-0.008701	-0.011105	-0.076208	7772.069566	50383.257337	4122.845703	27276.610303
97.536000	-0.019083	-0.008245	-0.011914	-0.079921	7820.807545	50840.523519	4131.397969	27485.951168
98.036000	-0.017173	-0.007930	-0.006525	-0.080005	7843.500699	50884.576228	4147.681455	27490.755582
98.536500	-0.016208	-0.008374	-0.009881	-0.080400	7859.032493	50879.113292	4138.844955	27513.119569
99.037000	-0.022548	-0.009244	-0.011836	-0.074850	7724.857666	50176.276413	4116.727275	27200.506915
99.537000	-0.016850	-0.008980	-0.011636	-0.077829	7822.401956	50529.998565	4126.049582	27367.783963
100.037000	-0.017724	-0.008124	-0.007835	-0.078113	7815.713386	50654.933367	4138.130893	27383.802078
100.534500	-0.016880	-0.008295	-0.008111	-0.078220	7826.508342	50648.012370	4137.630059	27389.851083
101.035000	-0.022808	-0.007891	-0.009531	-0.071783	7687.974553	49990.368663	4114.502688	27029.440882
101.538000	-0.017862	-0.007557	-0.011591	-0.074973	7778.680960	50373.295211	4117.800399	27207.358107
102.035500	-0.017252	-0.007787	-0.009517	-0.075750	7794.317500	50433.019132	4126.166274	27250.899606
102.536000	-0.017149	-0.007563	-0.009882	-0.075168	7788.913550	50393.996440	4123.383203	27218.304659
103.036000	-0.016840	-0.006570	-0.007753	-0.074398	7783.706838	50418.276436	4127.380395	27175.180771
103.536500	-0.019760	-0.007502	-0.005063	-0.072272	7727.199972	50085.415860	4129.041954	27056.611812
104.036500	-0.017837	-0.007124	-0.007298	-0.074368	7772.152375	50354.543025	4128.630907	27173.489249
104.537000	-0.017264	-0.007566	-0.003576	-0.073716	7771.268161	50235.322711	4137.718193	27137.070149
105.036500	-0.017841	-0.006831	-0.009483	-0.073319	7760.335849	50272.189962	4119.130920	27114.953460
105.535000	-0.019004	-0.007270	-0.011219	-0.070259	7713.218665	49892.618003	4105.165888	26944.848021
106.038000	-0.017594	-0.007202	-0.007811	-0.072733	7756.541922	50168.031426	4122.312558	27082.275126
106.535500	-0.018103	-0.007124	-0.009631	-0.072404	7747.154860	50140.753917	4116.020134	27063.938699
107.036000	-0.016173	-0.006352	-0.007785	-0.071637	7760.174827	50141.348244	4119.177879	27021.295585
107.536000	-0.018088	-0.006970	-0.006463	-0.068697	7706.046385	49756.452950	4114.449033	26858.506752
108.036500	-0.016763	-0.007539	-0.009011	-0.071878	7756.268249	50038.661557	4116.295416	27034.684445
108.536500	-0.016744	-0.006931	-0.004792	-0.071358	7750.663898	50048.241814	4127.149301	27005.831679
109.036500	-0.019961	-0.007249	-0.010777	-0.066345	7659.436527	49473.943279	4095.156047	26729.079464
109.537000	-0.017391	-0.007169	-0.009556	-0.071495	7744.952824	50037.227520	4113.586744	27013.401351
110.037500	-0.017772	-0.006557	-0.005189	-0.071319	7738.737438	50084.532645	4125.862347	27003.640969
110.535500	-0.016269	-0.007658	-0.009848	-0.072222	7765.668701	50063.037373	4114.857601	27053.823274
111.035000	-0.017796	-0.007442	-0.008811	-0.071697	7742.682012	50029.522478	4116.349967	27024.613662
111.538500	-0.017616	-0.007218	-0.006914	-0.071487	7742.356262	50031.148228	4121.288804	27012.980853
112.036000	-0.016221	-0.006875	-0.006548	-0.071134	7754.008208	50030.021956	4121.326227	26993.360701
112.536000	-0.016320	-0.006756	-0.006176	-0.071262	7754.325558	50056.778801	4122.795663	27000.476637
113.036500	-0.017392	-0.005963	-0.006352	-0.070604	7734.987732	50071.430072	4120.348742	26963.955956
113.536500	-0.018614	-0.007085	-0.009950	-0.067626	7688.375502	49628.879249	4101.223969	26799.477068
114.036500	-0.016804	-0.006636	-0.005720	-0.071004	7746.028594	50041.847835	4123.376885	26986.166709
114.537000	-0.016326	-0.006813	-0.004936	-0.071039	7751.765904	50026.437312	4125.783078	26988.078332
115.035000	-0.015804	-0.007292	-0.006595	-0.071520	7763.000150	50026.711203	4122.321647	27014.803468
115.535500	-0.020379	-0.005532	-0.012932	-0.065778	7648.630602	49597.277490	4087.361634	26697.998143
116.035500	-0.016540	-0.006181	-0.012613	-0.070652	7745.047491	50053.074514	4102.274095	26966.659181
116.536000	-0.016337	-0.005587	-0.005458	-0.070307	7743.455748	50080.048964	4122.098126	26947.513975
117.036500	-0.019510	-0.006275	-0.007779	-0.064785	7647.267077	49411.272144	4099.290811	26643.595977
117.536500	-0.019763	-0.005570	-0.010463	-0.065261	7649.719021	49537.714831	4092.946315	26669.654432
118.036500	-0.017486	-0.006341	-0.010188	-0.070890	7737.144609	50061.517477	4109.989840	26979.846469
118.537000	-0.016501	-0.005982	-0.009897	-0.070485	7743.614695	50056.435201	4109.656031	26957.360417
119.034000	-0.020380	-0.006852	-0.011258	-0.065616	7646.847253	49438.407214	4091.684322	26689.099515
119.534500	-0.020587	-0.006195	-0.011229	-0.065702	7645.524490	49518.077324	4092.015497	26693.831525
120.037500	-0.016632	-0.006311	-0.005032	-0.070280	7739.854613	49998.596877	4123.268921	26946.020382
120.535500	-0.017263	-0.006357	-0.007781	-0.070505	7735.321437	50018.021303	4115.877087	26958.469852
121.035500	-0.019221	-0.005523	-0.008156	-0.064478	7647.075965	49458.949964	4097.323243	26626.838661
121.536000	-0.019766	-0.005799	-0.007000	-0.064784	7644.450697	49461.994536	4101.533593	26643.528415
122.036000	-0.015585	-0.006421	-0.003499	-0.070109	7749.660511	49968.250791	4127.277698	26936.578917
122.539000	-0.015175	-0.005568	-0.006511	-0.069690	7749.551763	50015.162402	4117.208727	26913.360188
123.036500	-0.015524	-0.005349	-0.001365	-0.069675	7745.477492	50037.229460	4132.294531	26912.520911
123.537000	-0.019406	-0.005395	-0.010376	-0.064222	7642.242386	49445.180627	4090.217123	26612.811341
124.034500	-0.014825	-0.006150	-0.005771	-0.070029	7757.271438	49988.923254	4120.367833	26932.148579
124.537500	-0.016619	-0.005736	-0.004302	-0.070555	7743.087309	50090.843310	4126.226591	26961.288802
125.035000	-0.015545	-0.005488	-0.004110	-0.069817	7746.825207	50037.643301	4124.619427	26920.385068
125.535000	-0.019522	-0.006250	-0.009395	-0.065140	7651.022564	49451.859759	4095.662286	26663.005987
126.100000	-0.014483	-0.005140	-0.002936	-0.069421	7754.279065	50032.393244	4126.907223	26898.486251
126.535500	-0.015968	-0.005800	-0.008150	-0.070353	7748.099945	50061.978906	4114.360829	26950.091431
127.063500	-0.014865	-0.005461	-0.010340	-0.070126	7757.906386	50074.100758	4107.330674	26937.515024
127.536000	-0.014898	-0.005395	-0.007272	-0.070128	7757.557266	50081.450170	4116.263640	26937.612846
128.034000	-0.016359	-0.005789	-0.007437	-0.070710	7747.713719	50101.732689	4117.482891	26969.831785
128.536500	-0.015855	-0.005324	-0.011886	-0.070350	7749.331994	50113.247085	4103.502298	26949.921058
129.098000	-0.014621	-0.005853	-0.006842	-0.070136	7760.750930	50032.678525	4117.545704	26938.076870
129.544500	-0.019753	-0.006079	-0.012620	-0.065021	7647.192273	49457.482895	4086.091671	26656.503185
