sample name	sample
index	289
start time	 02-25-2021  12:42:39 PM
880	0.030759
Peak Time (s)	92.036
Peak Height 	0.03076
calc peak height	90,93
Baseline Time (s)	8.534
Baseline Value 	-0.00421
subtract baseline	10,4
Abs	0.029379
Peak Time (s)	92.537
Peak Height 	0.02938
calc peak height	90,93
Baseline Time (s)	11.537
Baseline Value 	3.7911E-4
subtract baseline	10,3
PK_550	0.013421
Peak Time (s)	90.535
Peak Height 	0.01342
calc peak height	90,93
Baseline Time (s)	9.035
Baseline Value 	-1.0225E-4
subtract baseline	10,2
PK_880	0.026540
Peak Time (s)	91.035
Peak Height 	0.02654
calc peak height	90,93
Baseline Time (s)	11.037
Baseline Value 	0.001151
subtract baseline	10,1


Time (s)	A880-A510	A880-A775	A880-A975	A880	I510	I775	I975	I880	
0.035500	-0.000979	-0.000269	-0.005294	0.002134	6863.704464	45743.346880	3993.764103	24207.838343
0.535500	-0.004533	-0.000472	-0.001788	0.003981	6815.395696	45541.902428	3997.853423	24117.610749
1.036000	-0.000923	0.000620	-0.004498	0.004073	6846.793730	45640.063063	3990.956107	24113.102568
1.536500	0.001966	0.000332	0.001910	0.001487	6896.163594	45866.322111	4013.245149	24239.530933
2.036500	0.001272	0.000696	0.004927	0.002839	6877.646393	45768.972766	4017.423431	24173.361010
2.537000	-0.000521	-0.000151	0.002414	0.000943	6878.575470	45872.403966	4015.874725	24266.244666
3.037500	0.002090	-0.000455	0.000953	-0.001674	6926.100323	46101.579098	4018.779876	24395.156224
3.534500	0.001768	0.000978	-0.004512	0.000847	6900.179859	45993.574075	3998.863958	24270.958184
4.035000	0.000387	0.000732	0.000772	0.000702	6888.968933	45983.601603	4012.362875	24278.097278
4.536000	0.000650	0.000518	-0.001772	0.000225	6895.678205	46009.605074	4007.202617	24301.523530
5.035500	-0.000361	0.000174	0.002488	0.000183	6886.902819	45979.813124	4017.969486	24303.622313
5.535500	0.000631	-0.000661	-0.001067	-0.000234	6899.671742	45938.334310	4010.106563	24324.117363
6.036000	0.000200	0.000581	0.001359	0.000432	6889.729625	45995.487009	4014.510757	24291.376401
6.536500	0.000072	0.000416	0.003267	-0.000007	6892.538397	46022.516537	4020.406938	24312.926102
7.037000	0.001649	0.001102	-0.003083	0.000486	6902.381796	46041.715467	4003.297605	24288.705934
7.537000	0.001129	0.000909	0.004510	0.000464	6897.866604	46024.806526	4022.357379	24289.807846
8.037000	-0.000575	-0.000107	0.002492	-0.000322	6889.533523	46001.972652	4019.251034	24328.452881
8.534500	0.000677	-0.000028	0.001607	0.000000	6897.965372	45977.861883	4016.216194	24312.605742
9.035000	-0.002010	0.000000	-0.002127	-0.000146	6874.968010	45995.097999	4007.244016	24319.785780
9.535500	0.002806	0.000973	0.003980	0.000918	6908.974267	45986.060434	4019.874396	24267.475898
10.035000	-0.000549	0.000197	-0.004281	0.000114	6885.819687	45988.939276	4001.249562	24307.015018
10.536000	-0.000842	0.000195	0.001076	-0.000222	6886.213028	46021.988292	4015.440301	24323.542280
11.036500	0.000000	-0.000096	-0.002023	0.000086	6891.046212	45962.591967	4006.924322	24308.372317
11.536500	0.000085	-0.000275	0.000000	-0.000286	6895.185998	45981.664040	4012.902854	24326.670845
12.037000	-0.000745	-0.000030	0.002727	-0.000176	6886.670254	45995.110176	4019.473195	24321.270650
12.537000	-0.001606	-0.000197	0.002219	-0.000643	6883.100147	46024.799403	4019.371238	24344.260671
13.035000	0.000287	0.000195	0.001008	-0.001539	6908.412443	46152.695610	4018.576185	24388.453117
13.535000	0.000254	0.000537	0.005297	0.000250	6891.857894	46009.066520	4024.887855	24300.304572
14.035000	-0.000638	0.000063	0.001841	0.000151	6884.683836	45971.900622	4016.422811	24305.181154
14.535500	-0.001264	0.000262	-0.002046	0.002939	6853.911758	45716.403010	3999.789662	24168.481548
15.036000	0.000119	0.000080	0.002100	0.000796	6885.691621	45909.762840	4015.454347	24273.464680
15.538500	0.002358	-0.000201	0.002069	0.000310	6910.439129	45930.109025	4016.598013	24297.379595
16.036500	0.001457	0.000204	0.000291	0.000554	6900.020171	45945.918978	4011.527921	24285.341083
16.537000	0.000099	0.000631	0.005453	0.000431	6888.818484	46000.386947	4024.823303	24291.390928
17.037000	-0.000196	-0.000146	0.003983	0.000521	6885.331927	45914.672958	4020.883278	24286.986435
17.537000	0.001848	0.001296	0.005821	-0.001869	6925.662169	46295.185482	4031.595837	24404.761685
18.037500	-0.002286	0.000523	0.003859	0.003153	6842.824798	45720.951455	4013.955011	24157.993483
18.538000	0.000392	0.000516	0.003570	0.001693	6880.045420	45864.230738	4016.893367	24229.437741
19.035500	-0.001390	-0.000216	-0.002699	0.001524	6865.497892	45808.601030	4001.672780	24237.717285
19.536000	-0.000007	0.000943	0.002865	0.002590	6868.357110	45817.829849	4012.877377	24185.546676
20.036000	-0.002985	-0.000339	-0.005365	0.001511	6851.280413	45797.795806	3995.122424	24238.373915
20.536500	-0.000238	0.000404	0.003317	0.002118	6870.521299	45811.207243	4015.190719	24208.626309
21.036500	-0.001059	-0.000141	-0.001947	0.001533	6868.401331	45815.192654	4003.518492	24237.311949
21.536000	-0.002279	0.000333	0.001949	0.001491	6857.797733	45866.114523	4013.333731	24239.337846
22.037000	-0.001773	0.000466	-0.001148	0.001884	6858.812336	45840.389777	4004.628350	24220.075929
22.537500	0.001338	0.000156	0.003638	0.001866	6887.045758	45811.594807	4016.629050	24220.978919
23.038000	0.000766	0.000789	0.001495	0.002278	6878.143343	45833.443420	4010.229934	24200.800867
23.535000	0.000094	0.000445	-0.004850	0.002030	6874.308407	45823.885356	3995.110409	24212.922064
24.035500	-0.000451	0.000283	0.004119	0.001525	6873.949109	45857.811783	4018.694823	24237.679204
24.535000	0.001420	0.000784	0.001970	0.002013	6886.451918	45859.023657	4012.079244	24213.758485
25.036000	-0.001955	-0.000009	0.001621	0.001725	6858.603338	45809.246389	4011.929053	24227.888348
25.536000	-0.001798	0.000406	-0.000319	0.002038	6857.201126	45819.279378	4006.308310	24212.548943
26.036500	-0.002050	0.000241	0.000117	0.002135	6854.071743	45793.471776	4007.150701	24207.783718
26.537000	-0.001640	-0.000686	-0.001905	0.001459	6863.830802	45768.726799	4003.804826	24240.916239
27.037000	0.000137	0.000473	0.002108	0.002186	6873.300821	45811.401172	4011.993674	24205.324179
27.537000	0.000095	-0.000628	-0.000006	0.001810	6876.312562	45739.903027	4007.655288	24223.715231
28.038000	0.001323	0.000592	0.002729	-0.001177	6914.552975	46156.223821	4022.001932	24370.605644
28.535000	0.000517	0.000547	-0.001721	0.000659	6890.538985	45969.562769	4006.250007	24280.207525
29.037000	0.001561	0.001028	0.000760	0.001036	6896.582775	45979.868806	4011.497573	24261.668411
29.535500	-0.000095	-0.000204	0.001654	0.000312	6888.139711	45929.597462	4015.551571	24297.276503
30.036500	-0.003302	-0.000070	-0.005174	0.006204	6806.587652	45363.747858	3984.095214	24009.489726
30.536500	0.001644	0.001141	0.002548	0.001165	6896.170066	45978.258858	4015.652857	24255.334935
31.037000	-0.000872	0.000368	0.004481	0.000576	6878.720088	45959.981524	4021.998627	24284.262634
31.537000	-0.000843	0.000143	-0.001647	0.002166	6864.639074	45780.741497	4002.691353	24206.280983
32.037500	-0.002103	0.000640	-0.001675	0.004498	6832.439290	45600.256967	3996.852649	24092.377105
32.600500	0.000848	0.000814	0.005847	0.000790	6892.353510	45983.076160	4024.914071	24273.788561
33.035000	0.001015	0.000475	-0.003091	0.001789	6884.810619	45850.664924	4000.047215	24224.735358
33.535500	0.000793	0.000793	-0.002136	0.000534	6894.173125	46006.243050	4005.528285	24286.330378
34.036000	-0.003336	0.000037	-0.005093	0.005423	6813.217426	45450.548403	3986.195553	24047.390474
34.536000	0.001748	-0.000698	-0.002443	-0.000319	6910.610032	45943.118927	4006.887502	24328.308133
35.036500	0.000269	0.001053	0.002473	0.003274	6864.678206	45761.240313	4010.185006	24152.102524
35.536500	0.000127	0.000790	0.002411	0.003062	6865.307670	45756.244007	4010.561420	24162.459344
36.037000	-0.001025	0.000564	-0.000295	0.004259	6844.214905	45616.238930	4000.854816	24104.032834
36.540000	-0.001739	-0.000381	0.001747	0.002118	6857.013028	45733.808921	4011.258577	24208.621589
37.040000	-0.000975	0.000444	0.000452	0.002460	6860.808783	45781.485167	4007.177296	24191.899796
37.535000	-0.001885	0.000702	0.002516	0.002644	6850.982381	45788.805282	4011.866998	24182.896754
38.035500	-0.001948	0.000796	-0.000932	0.004046	6837.862708	45660.037725	3999.806790	24114.430958
38.535500	-0.000456	0.000000	-0.000655	0.001985	6869.762089	45784.575845	4005.603716	24215.168636
39.035500	-0.002316	0.000476	0.002899	0.002841	6845.351497	45747.066859	4012.333112	24173.265898
39.536000	-0.000853	0.001258	0.001419	0.002963	6857.379096	45812.104064	4008.331703	24167.273115
40.036500	-0.000196	-0.000074	0.000156	0.002104	6871.027340	45765.478961	4007.325162	24209.312840
40.536500	-0.000484	0.000063	0.000742	0.002199	6867.579174	45769.586998	4008.547787	24204.648057
41.037000	-0.002574	-0.000253	-0.002272	0.001774	6852.608166	45780.432870	4002.114864	24225.500068
41.539500	-0.001149	0.000255	0.002835	0.002319	6860.512135	45776.733436	4013.478964	24198.798395
42.035000	-0.000268	0.000016	0.002983	0.002483	6866.965323	45736.963320	4013.438546	24190.744276
42.535000	-0.001568	-0.000437	-0.008586	0.001763	6861.747198	45763.302755	3986.606600	24226.033336
43.035500	-0.002697	0.000307	0.000145	0.002548	6844.564272	45759.268528	4006.193580	24187.603200
43.535500	-0.000364	0.000329	0.000494	0.002614	6864.922136	45754.956949	4006.897951	24184.369740
44.036000	-0.000769	-0.000389	0.004651	0.002014	6866.677717	45743.335161	4018.805335	24213.722145
44.536500	-0.000728	0.000920	0.001236	0.003177	6856.586633	45757.759234	4007.343787	24156.857966
45.036500	0.001766	0.000372	0.000366	-0.000340	6910.961672	46051.258589	4013.955390	24329.350249
45.534500	0.000882	0.000672	-0.002426	0.001028	6890.506277	45945.428764	4003.580926	24262.080034
46.037500	0.001876	0.000379	0.007741	0.001270	6897.330177	45892.491549	4028.498495	24250.219333
46.534500	-0.000043	0.000227	0.001303	0.001081	6881.649219	45896.144841	4012.743420	24259.455262
47.035000	0.000412	0.000872	0.005655	0.002003	6877.429589	45868.702243	4021.360822	24214.244979
47.535000	0.001430	0.000833	0.001036	0.001315	6892.866271	45932.936560	4011.488777	24247.976971
48.035500	-0.003657	-0.000382	-0.002923	0.005483	6809.839024	45403.685901	3991.362042	24044.490343
48.547000	-0.000864	0.000563	0.002066	0.000813	6876.653333	45955.828973	4015.326931	24272.612557
49.036500	-0.002224	0.000948	0.001817	0.003763	6837.926691	45702.834907	4007.330722	24128.240041
49.536500	-0.000794	0.000281	0.003351	0.001779	6868.567788	45832.586297	4016.127457	24225.248470
50.042000	-0.003108	0.001260	-0.001899	0.006224	6808.132950	45491.867913	3992.056789	24008.501218
50.536500	0.002136	0.000531	0.002560	0.000994	6902.198688	45934.812562	4016.113566	24263.761481
51.037500	0.000667	0.001216	0.004236	0.001353	6885.612271	45967.040912	4019.423309	24246.122232
51.537500	0.001339	0.000169	0.005345	-0.002434	6926.181847	46239.288987	4031.824316	24432.736100
52.035000	0.000054	0.000221	0.003601	0.001352	6880.078425	45868.784714	4017.828539	24246.201075
52.535500	-0.003110	-0.005464	0.000743	-0.015437	7005.172770	46979.742280	4053.426133	25085.911874
53.035000	-0.018992	-0.014203	-0.013403	0.171734	5492.540966	31000.916270	3635.117174	17332.376653
53.536000	-0.026900	-0.025130	-0.017286	-0.091794	7526.327588	53116.538795	4215.519785	29342.694856
54.036000	-0.039274	-0.155522	-0.014515	-0.318276	10439.354858	65535.000000	5112.320398	47415.800352
54.536500	-0.029233	-0.163701	-0.000862	-0.326455	10760.046345	65535.000000	5225.051500	48261.358796
55.036500	-0.048327	-0.160984	-0.005499	-0.323738	10377.735107	65535.000000	5186.440498	47978.710573
55.539500	-0.024592	-0.135313	-0.000920	-0.298068	10344.721565	65535.000000	5079.273645	45393.736477
56.037500	-0.035731	-0.082248	-0.006304	-0.240731	9266.770302	64922.628456	4789.680459	40143.222873
56.535000	-0.023618	-0.096319	-0.010168	-0.259073	9725.274807	65535.000000	4852.864323	41748.068048
57.035000	-0.016547	-0.102460	-0.002736	-0.265215	9934.420192	65535.000000	4914.047414	42300.778555
57.535500	-0.014546	-0.072580	0.000823	-0.231703	9445.946891	65014.072442	4781.538862	39377.853066
58.036000	-0.015720	-0.043887	-0.000036	-0.187222	8798.219921	62799.021818	4597.565098	35830.646950
58.536000	-0.008985	-0.027433	0.003006	-0.150696	8410.829939	60096.816767	4473.514531	33177.628464
59.036500	-0.009486	-0.018416	0.004621	-0.111017	7928.705970	56202.608671	4343.638481	30537.558880
59.537000	-0.007394	-0.015043	0.001608	-0.081131	7620.366645	53050.063232	4240.197307	28702.362364
60.039500	-0.007144	-0.011082	0.004816	-0.055339	7353.878553	50594.785737	4173.589641	27216.931810
60.537000	-0.002459	-0.008192	0.002462	-0.033804	7186.473329	48593.413369	4106.804226	26042.536273
61.035000	-0.004753	-0.009016	-0.001613	-0.018163	7015.289891	46896.190343	4054.388125	25225.388140
61.534500	-0.002571	0.000831	-0.003091	0.022438	6671.523225	43893.194972	3950.167218	23236.482593
62.035500	-0.007549	-0.005757	-0.001064	0.010319	6733.139171	44417.644406	3984.083199	23810.790275
62.535500	0.003381	-0.002779	0.003187	0.001716	6906.954202	45537.765258	4015.874949	24228.344247
63.035500	-0.000637	-0.003582	0.005624	0.014829	6754.086329	44195.384759	3989.401376	23595.176694
63.536500	0.003488	0.003998	0.003216	0.003757	6889.388065	46004.517397	4010.833776	24128.509565
64.061500	0.005916	0.003630	0.002350	0.004489	6904.779341	45895.611908	4006.849047	24092.822570
64.540000	0.005240	0.001683	0.003991	-0.005354	6989.043381	46683.283790	4035.819494	24577.711791
65.037000	0.009714	0.002719	0.005350	-0.009105	7066.172741	47167.713790	4048.956871	24765.377880
65.543000	0.009769	0.004470	0.009040	-0.009510	7070.529529	47387.733987	4059.598870	24785.764873
66.038000	0.009182	0.004415	0.008731	-0.006882	7040.177324	47114.126931	4051.954132	24653.955956
66.535000	0.013285	0.006388	0.006875	-0.009046	7099.556352	47536.716203	4052.754676	24762.446976
67.035000	0.012687	0.006574	0.013370	-0.006430	7068.987343	47287.938372	4062.863617	24631.356081
67.535500	0.015236	0.006510	0.007538	-0.006138	7090.424929	47251.597864	4046.941964	24616.785985
68.036000	0.014969	0.006487	0.013559	-0.004583	7073.119520	47091.093892	4058.533493	24539.326442
68.536000	0.016549	0.006976	0.015269	-0.002897	7072.120679	46969.703908	4058.596685	24455.666563
69.036500	0.014704	0.007436	0.011016	-0.001611	7042.537072	46886.053533	4044.240418	24392.044439
69.537000	0.014394	0.007551	0.010638	-0.000336	7027.645661	46768.953742	4039.991147	24329.157399
70.037000	0.015491	0.007945	0.010525	0.001449	7021.201712	46628.773816	4035.129996	24241.416054
70.534500	0.015277	0.007810	0.011508	0.003150	7003.302067	46444.638576	4033.297590	24158.144067
71.035000	0.017195	0.009032	0.012410	0.006335	6991.517064	46248.552084	4027.490526	24003.113052
71.535000	0.017477	0.009225	0.012402	0.007823	6980.314587	46119.687462	4023.702256	23931.059181
72.036000	0.016413	0.009246	0.015071	0.008467	6964.515148	46057.803851	4028.834714	23899.963242
72.535500	0.019362	0.010709	0.013315	0.011305	6965.552824	45921.667235	4017.229655	23763.487312
73.036500	0.019719	0.010074	0.016605	0.012357	6959.131158	45755.120500	4022.867905	23713.087220
73.536500	0.018929	0.011782	0.015332	0.014601	6931.261086	45702.332847	4014.017824	23606.038178
74.036500	0.017514	0.010985	0.015889	0.014709	6917.334572	45613.389147	4015.144139	23600.896646
74.536500	0.020360	0.012315	0.014723	0.016068	6930.923132	45610.511935	4008.828406	23536.328487
75.037500	0.020186	0.011541	0.016376	0.016099	6929.049415	45531.547098	4012.881440	23534.868736
75.534500	0.019312	0.012281	0.013467	0.017582	6907.534653	45458.818494	4001.941452	23464.668221
76.034500	0.020889	0.013109	0.012507	0.020504	6895.321180	45254.484067	3992.367016	23327.057889
76.535000	0.021197	0.013777	0.017020	0.019101	6910.873676	45456.596987	4006.995037	23393.024949
77.036000	0.021509	0.012843	0.015314	0.019027	6914.393929	45372.515194	4002.938611	23396.499353
77.536000	0.022913	0.014052	0.018207	0.020355	6915.078632	45360.918529	4006.828683	23334.043336
78.036500	0.021087	0.013013	0.012555	0.021085	6891.835957	45188.611126	3991.056704	23299.773228
78.539500	0.024287	0.014219	0.017536	0.021334	6918.685201	45281.777927	4002.728397	23288.136868
79.037000	0.024360	0.014245	0.017060	0.021964	6913.607347	45222.997354	3999.989738	23258.654004
79.537000	0.024412	0.014500	0.019588	0.023070	6904.003085	45140.229590	4003.511950	23206.936558
80.035000	0.023856	0.014476	0.022563	0.025015	6881.332461	44949.485055	4006.072619	23116.406981
80.535000	0.025282	0.013787	0.022897	0.023680	6906.379928	45011.999744	4010.232947	23178.528653
81.035500	0.026040	0.015485	0.021538	0.025853	6893.516240	44965.967852	4001.446935	23077.488396
81.535500	0.023279	0.014493	0.018371	0.024575	6880.091716	44993.704337	3996.777597	23136.849958
82.036000	0.025606	0.014878	0.021310	0.025408	6893.622764	44950.357724	4001.983609	23098.148282
82.536500	0.024686	0.014482	0.023345	0.025825	6881.514136	44871.812878	4006.002301	23078.817359
83.039500	0.024234	0.015041	0.023346	0.026473	6871.587187	44863.278564	4004.394827	23048.784318
83.537000	0.025712	0.015629	0.022132	0.026542	6884.307196	44913.373559	4001.211399	23045.583678
84.036500	0.025583	0.016310	0.023530	0.027498	6874.505053	44886.707425	4002.307124	23001.359382
84.537000	0.025946	0.015356	0.024865	0.027287	6879.692051	44815.212356	4006.145950	23011.144067
85.035000	0.026225	0.015455	0.025373	0.027238	6882.654187	44829.334906	4007.531245	23013.382397
85.535000	0.025371	0.015917	0.024081	0.028022	6867.859517	44798.314859	4002.371590	22977.166495
86.035500	0.026011	0.015238	0.026910	0.027803	6875.616644	44754.116818	4009.955770	22987.299249
86.535500	0.025740	0.015372	0.026052	0.028230	6869.319191	44725.893672	4006.752271	22967.584070
87.036000	0.023982	0.014751	0.020488	0.028668	6849.568459	44624.210191	3991.915843	22947.386551
87.536500	0.025673	0.015311	0.022244	0.029009	6861.700210	44645.248391	3995.396278	22931.704529
88.037000	0.025682	0.015382	0.028401	0.030204	6851.041720	44537.474155	4007.685946	22876.766562
88.536500	0.023729	0.013454	0.027243	0.028238	6851.163216	44541.150554	4009.700920	22967.232609
89.037000	0.025834	0.013565	0.030700	0.028714	6865.801408	44506.116697	4017.166773	22945.263312
89.537500	0.024347	0.012878	0.021943	0.028805	6851.620985	44431.889711	3995.156611	22941.094708
90.035000	0.023142	0.012621	0.023018	0.029258	6836.764407	44364.111233	3996.688636	22920.223808
90.535500	0.024850	0.013421	0.021052	0.029839	6846.860085	44385.048322	3990.426869	22893.542047
91.035500	0.026540	0.012838	0.019758	0.029842	6862.010397	44329.185427	3987.252823	22893.399918
91.536000	0.025746	0.012118	0.024641	0.029642	6856.665637	44279.729127	3999.750139	22902.590358
92.036000	0.024617	0.012597	0.023547	0.030759	6836.546318	44219.050468	3994.297093	22851.329512
92.536500	0.023960	0.011861	0.029379	0.030009	6837.372180	44220.440578	4010.614386	22885.739733
93.036500	0.024792	0.011360	0.027072	0.029743	6847.199324	44198.090931	4005.527683	22897.962396
93.537000	0.023587	0.012022	0.021879	0.030487	6829.770937	44190.297796	3990.864891	22863.782594
94.037000	0.023656	0.011060	0.024155	0.030491	6830.348423	44098.688556	3996.453324	22863.604905
94.534500	0.023194	0.010520	0.026524	0.029291	6836.942228	44161.267552	4005.289668	22918.734906
95.035000	0.023715	0.010267	0.027527	0.030116	6834.220564	44059.087668	4005.729119	22880.798872
95.596500	0.022744	0.009406	0.024437	0.033277	6797.491457	43680.263370	3990.295459	22736.185984
96.035000	0.023629	0.009513	0.027281	0.031062	6825.013644	43898.574832	4002.770020	22837.416801
96.541500	0.024613	0.009864	0.028071	0.031198	6832.586231	43918.899228	4004.393709	22831.203015
97.039000	0.023063	0.009683	0.028862	0.032217	6809.719900	43805.872921	4003.827806	22784.597864
97.536500	0.025158	0.010008	0.027550	0.032295	6827.658775	43829.173241	4000.383434	22781.039598
98.036500	0.024812	0.010707	0.024583	0.032993	6818.362278	43829.252874	3991.352798	22749.165384
98.541500	0.025902	0.009889	0.024659	0.032635	6831.268359	43785.930011	3992.417504	22765.505540
99.037000	0.024938	0.010524	0.026584	0.033397	6815.890571	43773.989837	3995.279000	22730.743011
