sample name	sample
index	955
start time	 04-12-2021  03:49:01 PM


Wavelength (nm)	Absorbance
494.344910	-0.260285
494.563924	-0.260285
494.782919	-0.260285
495.001897	0.063704
495.220856	-0.058109
495.439797	-0.045428
495.658719	-0.021699
495.877624	0.001527
496.096510	-0.021316
496.315378	-0.027118
496.534227	-0.025518
496.753059	0.004336
496.971872	0.042249
497.190667	-0.001722
497.409444	-0.005242
497.628203	-0.004294
497.846943	-0.004742
498.065665	-0.003092
498.284369	-0.003378
498.503055	-0.003930
498.721723	-0.002841
498.940372	-0.002995
499.159003	-0.002954
499.377616	-0.002706
499.596210	-0.002175
499.814787	-0.001933
500.033345	-0.002047
500.251885	-0.001695
500.470406	-0.001364
500.688910	-0.002784
500.907395	-0.003012
501.125862	-0.003437
501.344311	-0.003262
501.562742	-0.004251
501.781154	-0.003514
501.999548	-0.003752
502.217924	-0.003648
502.436282	-0.003669
502.654621	-0.003353
502.872942	-0.002983
503.091245	-0.002058
503.309530	-0.001711
503.527797	-0.001654
503.746045	-0.002589
503.964275	-0.001418
504.182487	-0.000931
504.400681	-0.000988
504.618856	-0.001210
504.837013	-0.001441
505.055152	-0.001695
505.273273	-0.001915
505.491376	-0.001715
505.709460	-0.001130
505.927526	-0.002530
506.145574	-0.003506
506.363604	-0.003594
506.581615	-0.004065
506.799608	-0.004116
507.017583	-0.004577
507.235540	-0.004621
507.453478	-0.004072
507.671399	-0.003974
507.889301	-0.002852
508.107185	-0.002346
508.325050	-0.001993
508.542898	-0.001955
508.760727	-0.001995
508.978538	-0.001353
509.196330	-0.001436
509.414105	-0.001324
509.631861	-0.002014
509.849599	-0.002375
510.067319	-0.003097
510.285021	-0.003017
510.502704	-0.002224
510.720369	-0.002051
510.938016	-0.002586
511.155645	-0.002085
511.373255	-0.002281
511.590848	-0.001514
511.808422	-0.001726
512.025977	-0.001520
512.243515	-0.001566
512.461034	-0.001584
512.678536	-0.001523
512.896018	-0.000997
513.113483	-0.001200
513.330930	-0.001083
513.548358	-0.001216
513.765768	-0.001318
513.983160	-0.000778
514.200533	-0.000233
514.417889	-0.000569
514.635226	-0.000472
514.852545	-0.000830
515.069845	-0.000541
515.287128	-0.000974
515.504392	-0.000941
515.721638	-0.000846
515.938866	-0.001182
516.156075	-0.001922
516.373267	-0.001298
516.590440	-0.001039
516.807594	-0.000707
517.024731	-0.001397
517.241850	-0.001385
517.458950	-0.001283
517.676032	-0.001129
517.893095	-0.000811
518.110141	-0.000081
518.327168	-0.000715
518.544177	-0.001337
518.761168	-0.001206
518.978141	-0.000335
519.195095	-0.000094
519.412031	-0.000778
519.628949	-0.001410
519.845849	-0.002052
520.062731	-0.002637
520.279594	-0.002190
520.496439	-0.002170
520.713266	-0.002000
520.930074	-0.002374
521.146865	-0.001859
521.363637	-0.001662
521.580391	-0.000966
521.797127	-0.000840
522.013844	-0.000984
522.230543	-0.001165
522.447224	-0.000968
522.663887	-0.001369
522.880532	-0.001023
523.097158	-0.001504
523.313766	-0.001288
523.530356	-0.001420
523.746928	-0.001110
523.963481	-0.000756
524.180017	-0.000334
524.396534	-0.000241
524.613032	-0.000319
524.829513	-0.000977
525.045975	-0.001279
525.262420	-0.000278
525.478845	-0.000350
525.695253	-0.000421
525.911643	-0.000555
526.128014	-0.001008
526.344367	-0.000233
526.560702	-0.000192
526.777018	0.000619
526.993316	0.001228
527.209597	0.000342
527.425858	0.000734
527.642102	0.001243
527.858328	0.001393
528.074535	0.001850
528.290724	0.001054
528.506894	0.001328
528.723047	0.001116
528.939181	0.000897
529.155297	0.000971
529.371395	0.000741
529.587475	0.000301
529.803536	0.000503
530.019579	0.000634
530.235604	0.001018
530.451611	0.000738
530.667600	0.000397
530.883570	0.000890
531.099522	0.001550
531.315456	0.001828
531.531372	0.002383
531.747269	0.002527
531.963148	0.002325
532.179009	0.001809
532.394852	0.001913
532.610676	0.002291
532.826482	0.002191
533.042271	0.001932
533.258040	0.001922
533.473792	0.001806
533.689525	0.001419
533.905240	0.001711
534.120937	0.002258
534.336616	0.002408
534.552277	0.002693
534.767919	0.002599
534.983543	0.002420
535.199149	0.002115
535.414736	0.002109
535.630306	0.002583
535.845857	0.002507
536.061390	0.002146
536.276904	0.001935
536.492401	0.001579
536.707879	0.001388
536.923339	0.001326
537.138781	0.001659
537.354204	0.001574
537.569610	0.001326
537.784997	0.001467
538.000366	0.001501
538.215716	0.001831
538.431049	0.002526
538.646363	0.002618
538.861659	0.002902
539.076937	0.003023
539.292196	0.003540
539.507438	0.003819
539.722661	0.003824
539.937866	0.004105
540.153052	0.004067
540.368221	0.003675
540.583371	0.003937
540.798503	0.003907
541.013617	0.003752
541.228712	0.003232
541.443789	0.003190
541.658848	0.003010
541.873889	0.002553
542.088912	0.002691
542.303916	0.002725
542.518902	0.002532
542.733870	0.002585
542.948820	0.002676
543.163752	0.002932
543.378665	0.003092
543.593560	0.003588
543.808437	0.004579
544.023295	0.004812
544.238136	0.004871
544.452958	0.005223
544.667762	0.005504
544.882548	0.005480
545.097315	0.005305
545.312064	0.005013
545.526795	0.004740
545.741508	0.004344
545.956203	0.004179
546.170879	0.004176
546.385537	0.003817
546.600177	0.003638
546.814799	0.003937
547.029402	0.004073
547.243988	0.004245
547.458555	0.003988
547.673103	0.004167
547.887634	0.004314
548.102146	0.004040
548.316640	0.004176
548.531116	0.003974
548.745574	0.003847
548.960013	0.003684
549.174435	0.003659
549.388838	0.003942
549.603222	0.003955
549.817589	0.003712
550.031937	0.003751
550.246267	0.004116
550.460579	0.004086
550.674873	0.004100
550.889148	0.004423
551.103405	0.004614
551.317644	0.004255
551.531865	0.004065
551.746068	0.003906
551.960252	0.003927
552.174418	0.003604
552.388566	0.003481
552.602696	0.003290
552.816807	0.002862
553.030900	0.002511
553.244975	0.002929
553.459032	0.003233
553.673070	0.003336
553.887091	0.003516
554.101093	0.003460
554.315077	0.003701
554.529042	0.004045
554.742990	0.004469
554.956919	0.004841
555.170830	0.004647
555.384722	0.004350
555.598597	0.004762
555.812453	0.005140
556.026291	0.005423
556.240111	0.005588
556.453913	0.005414
556.667696	0.005432
556.881461	0.005281
557.095208	0.005346
557.308937	0.005726
557.522647	0.005826
557.736339	0.005641
557.950013	0.005612
558.163669	0.005675
558.377307	0.005839
558.590926	0.005958
558.804527	0.005984
559.018110	0.006067
559.231675	0.005811
559.445221	0.005651
559.658749	0.005715
559.872259	0.005690
560.085751	0.005548
560.299225	0.005436
560.512680	0.005353
560.726117	0.005666
560.939536	0.005520
561.152937	0.005926
561.366319	0.006074
561.579683	0.005980
561.793029	0.005932
562.006357	0.006135
562.219667	0.005948
562.432958	0.005722
562.646231	0.005480
562.859486	0.005149
563.072723	0.004625
563.285941	0.004482
563.499141	0.004217
563.712323	0.004203
563.925487	0.003952
564.138632	0.004145
564.351760	0.004342
564.564869	0.004402
564.777960	0.004656
564.991032	0.005027
565.204087	0.005056
565.417123	0.005366
565.630141	0.005400
565.843140	0.005600
566.056122	0.005646
566.269085	0.005784
566.482030	0.005899
566.694957	0.006046
566.907866	0.006036
567.120756	0.006227
567.333628	0.006333
567.546482	0.006551
567.759318	0.006476
567.972135	0.006436
568.184935	0.006705
568.397716	0.006794
568.610478	0.006911
568.823223	0.007086
569.035949	0.007027
569.248657	0.006898
569.461347	0.006846
569.674019	0.006932
569.886672	0.007027
570.099308	0.006722
570.311925	0.006419
570.524523	0.006680
570.737104	0.006377
570.949666	0.006240
571.162210	0.006246
571.374736	0.006012
571.587244	0.005949
571.799733	0.005887
572.012205	0.005934
572.224658	0.005853
572.437092	0.005718
572.649509	0.005833
572.861907	0.005789
573.074287	0.005955
573.286649	0.006167
573.498993	0.006232
573.711318	0.006063
573.923625	0.005736
574.135914	0.005949
574.348185	0.005615
574.560438	0.005326
574.772672	0.005215
574.984888	0.005379
575.197086	0.005492
575.409266	0.005483
575.621427	0.005538
575.833570	0.005782
576.045695	0.005578
576.257802	0.005796
576.469890	0.006184
576.681961	0.006664
576.894013	0.006592
577.106046	0.006434
577.318062	0.006260
577.530059	0.006460
577.742039	0.006574
577.954000	0.006452
578.165942	0.006687
578.377867	0.006741
578.589773	0.006487
578.801661	0.006229
579.013531	0.006502
579.225382	0.006780
579.437216	0.006913
579.649031	0.006625
579.860828	0.006889
580.072606	0.006868
580.284367	0.006648
580.496109	0.006679
580.707833	0.006631
580.919539	0.006404
581.131227	0.006486
581.342896	0.006353
581.554547	0.006441
581.766180	0.006461
581.977795	0.006097
582.189391	0.005982
582.400969	0.005873
582.612529	0.005962
582.824071	0.006034
583.035595	0.006017
583.247100	0.006011
583.458587	0.006457
583.670056	0.006593
583.881506	0.006911
584.092939	0.007121
584.304353	0.007397
584.515749	0.007595
584.727127	0.007352
584.938486	0.007115
585.149828	0.007504
585.361151	0.007245
585.572456	0.007456
585.783742	0.007325
585.995011	0.007122
586.206261	0.007089
586.417493	0.007220
586.628706	0.007475
586.839902	0.007648
587.051079	0.007422
587.262238	0.007269
587.473379	0.007143
587.684502	0.007563
587.895606	0.007989
588.106692	0.007935
588.317760	0.007586
588.528810	0.007691
588.739841	0.007639
588.950855	0.007650
589.161850	0.007986
589.372827	0.008067
589.583785	0.007891
589.794726	0.007422
590.005648	0.007496
590.216552	0.007623
590.427437	0.007674
590.638305	0.007766
590.849154	0.007631
591.059985	0.007557
591.270798	0.007397
591.481592	0.007243
591.692369	0.007587
591.903127	0.007555
592.113867	0.007417
592.324588	0.007560
592.535292	0.007493
592.745977	0.007634
592.956644	0.007595
593.167293	0.007761
593.377923	0.007857
593.588536	0.007724
593.799130	0.007710
594.009706	0.008038
594.220263	0.007610
594.430803	0.007780
594.641324	0.007601
594.851827	0.007641
595.062312	0.007545
595.272778	0.007493
595.483227	0.007497
595.693657	0.007466
595.904069	0.007244
596.114462	0.007522
596.324838	0.007386
596.535195	0.007846
596.745534	0.007898
596.955855	0.007905
597.166157	0.008086
597.376441	0.008260
597.586707	0.008293
597.796955	0.008447
598.007185	0.008594
598.217396	0.008806
598.427589	0.008484
598.637764	0.008454
598.847921	0.008360
599.058060	0.008525
599.268180	0.008753
599.478282	0.008637
599.688366	0.008673
599.898431	0.008570
600.108479	0.008662
600.318508	0.008700
600.528519	0.008922
600.738511	0.008996
600.948486	0.008894
601.158442	0.008780
601.368380	0.009293
601.578300	0.009293
601.788202	0.009293
601.998085	0.009227
602.207950	0.009032
602.417797	0.008893
602.627626	0.009147
602.837436	0.008989
603.047228	0.008993
603.257002	0.008535
603.466758	0.008537
603.676496	0.008566
603.886215	0.008462
604.095916	0.008979
604.305599	0.009023
604.515264	0.008833
604.724910	0.008824
604.934538	0.008658
605.144148	0.008799
605.353740	0.008834
605.563314	0.008952
605.772869	0.009101
605.982406	0.008938
606.191925	0.008852
606.401425	0.009338
606.610908	0.009491
606.820372	0.009421
607.029818	0.009350
607.239246	0.009475
607.448655	0.009249
607.658047	0.009279
607.867420	0.009226
608.076775	0.009275
608.286111	0.009054
608.495430	0.009117
608.704730	0.009265
608.914012	0.009272
609.123275	0.009168
609.332521	0.009204
609.541748	0.009127
609.750957	0.009209
609.960148	0.009198
610.169321	0.009132
610.378475	0.009014
610.587611	0.009171
610.796729	0.009368
611.005829	0.009409
611.214910	0.009576
611.423974	0.009476
611.633019	0.009604
611.842045	0.009750
612.051054	0.009686
612.260044	0.009870
612.469017	0.009813
612.677970	0.009603
612.886906	0.009824
613.095824	0.009823
613.304723	0.009906
613.513604	0.009855
613.722467	0.009823
613.931311	0.009849
614.140138	0.009585
614.348946	0.009670
614.557736	0.010175
614.766507	0.009841
614.975261	0.009744
615.183996	0.009799
615.392713	0.009630
615.601412	0.009720
615.810092	0.009838
616.018754	0.010190
616.227399	0.010035
616.436024	0.009920
616.644632	0.010198
616.853222	0.010438
617.061793	0.010540
617.270346	0.010769
617.478880	0.010713
617.687397	0.010475
617.895895	0.010439
618.104375	0.010597
618.312837	0.010479
618.521281	0.010479
618.729706	0.010304
618.938113	0.010228
619.146502	0.010014
619.354873	0.010035
619.563226	0.010139
619.771560	0.009888
619.979876	0.009773
620.188174	0.009831
620.396453	0.009657
620.604715	0.009715
620.812958	0.009821
621.021183	0.009786
621.229390	0.009709
621.437578	0.009465
621.645748	0.009522
621.853900	0.009536
622.062034	0.009413
622.270150	0.009500
622.478247	0.009612
622.686326	0.009452
622.894387	0.009507
623.102430	0.009554
623.310454	0.009814
623.518461	0.009754
623.726449	0.009672
623.934418	0.009697
624.142370	0.009766
624.350303	0.009717
624.558218	0.009719
624.766115	0.009806
624.973994	0.009922
625.181855	0.009968
625.389697	0.010188
625.597521	0.010369
625.805327	0.010271
626.013114	0.010254
626.220883	0.010109
626.428634	0.010374
626.636367	0.010344
626.844082	0.010129
627.051778	0.010113
627.259457	0.010289
627.467117	0.010128
627.674758	0.010305
627.882382	0.010185
628.089987	0.010345
628.297574	0.009929
628.505143	0.010181
628.712694	0.010110
628.920226	0.010196
629.127740	0.010004
629.335236	0.010242
629.542714	0.010188
629.750174	0.010150
629.957615	0.009989
630.165038	0.010241
630.372443	0.009973
630.579829	0.010230
630.787198	0.010383
630.994548	0.010154
631.201880	0.010251
631.409194	0.010348
631.616489	0.010407
631.823766	0.010623
632.031025	0.010602
632.238266	0.010738
632.445489	0.010722
632.652693	0.010566
632.859879	0.010823
633.067047	0.010744
633.274197	0.010844
633.481329	0.011209
633.688442	0.011248
633.895537	0.011287
634.102614	0.011431
634.309672	0.011518
634.516713	0.011714
634.723735	0.011875
634.930739	0.012036
635.137724	0.011930
635.344692	0.011718
635.551641	0.011638
635.758572	0.011692
635.965485	0.011681
636.172379	0.011681
636.379256	0.011749
636.586114	0.011798
636.792954	0.011657
636.999775	0.011677
637.206579	0.011675
637.413364	0.011875
637.620131	0.011954
637.826880	0.011949
638.033610	0.011886
638.240323	0.011581
638.447017	0.011413
638.653692	0.011295
638.860350	0.011279
639.066990	0.011199
639.273611	0.011089
639.480214	0.011157
639.686798	0.011003
639.893365	0.011088
640.099913	0.011191
640.306443	0.011124
640.512955	0.011415
640.719449	0.011541
640.925924	0.011725
641.132381	0.011648
641.338820	0.011433
641.545241	0.011798
641.751644	0.011717
641.958028	0.011815
642.164394	0.012089
642.370742	0.011974
642.577071	0.011966
642.783383	0.011882
642.989676	0.012066
643.195951	0.012423
643.402207	0.012128
643.608446	0.012376
643.814666	0.012466
644.020868	0.012218
644.227052	0.012304
644.433218	0.012200
644.639365	0.012374
644.845494	0.012243
645.051605	0.011985
645.257698	0.012135
645.463772	0.012062
645.669828	0.012097
645.875866	0.012407
646.081886	0.012416
646.287888	0.012583
646.493871	0.012604
646.699836	0.012795
646.905783	0.012966
647.111712	0.012997
647.317622	0.013093
647.523514	0.013140
647.729388	0.013082
647.935244	0.013026
648.141082	0.013047
648.346901	0.012952
648.552702	0.013025
648.758485	0.012903
648.964250	0.012714
649.169996	0.012647
649.375724	0.012563
649.581434	0.012689
649.787126	0.012886
649.992800	0.012916
650.198455	0.013109
650.404092	0.013016
650.609711	0.013317
650.815311	0.013709
651.020894	0.013915
651.226458	0.014085
651.432004	0.014067
651.637532	0.014050
651.843041	0.014303
652.048532	0.014278
652.254006	0.014362
652.459460	0.014296
652.664897	0.014434
652.870315	0.014396
653.075716	0.014330
653.281097	0.014435
653.486461	0.014459
653.691807	0.014364
653.897134	0.014602
654.102443	0.014684
654.307734	0.014744
654.513006	0.014582
654.718261	0.014552
654.923497	0.014667
655.128715	0.014604
655.333915	0.014681
655.539096	0.014729
655.744259	0.014601
655.949404	0.014520
656.154531	0.014456
656.359640	0.014561
656.564730	0.014654
656.769802	0.014573
656.974856	0.014507
657.179892	0.014428
657.384909	0.014367
657.589908	0.014334
657.794889	0.014514
657.999852	0.014567
658.204797	0.014598
658.409723	0.014612
658.614631	0.014731
658.819521	0.014726
659.024393	0.014850
659.229246	0.014955
659.434081	0.015064
659.638898	0.014993
659.843697	0.015037
660.048478	0.014916
660.253240	0.014971
660.457984	0.014977
660.662710	0.015217
660.867417	0.015264
661.072107	0.015272
661.276778	0.015281
661.481431	0.015447
661.686066	0.015608
661.890682	0.015827
662.095281	0.015850
662.299861	0.015928
662.504422	0.015791
662.708966	0.015697
662.913491	0.015621
663.117999	0.015569
663.322488	0.015451
663.526958	0.015525
663.731411	0.015316
663.935845	0.015313
664.140261	0.015386
664.344659	0.015478
664.549038	0.015562
664.753400	0.015642
664.957743	0.015761
665.162068	0.015847
665.366375	0.015793
665.570663	0.016162
665.774933	0.016194
665.979185	0.016139
666.183419	0.016287
666.387635	0.016239
666.591832	0.016331
666.796011	0.016421
667.000172	0.016329
667.204315	0.016397
667.408439	0.016105
667.612545	0.016327
667.816634	0.016374
668.020703	0.016399
668.224755	0.016746
668.428788	0.016784
668.632803	0.016832
668.836800	0.016958
669.040779	0.016857
669.244739	0.016858
669.448681	0.016638
669.652605	0.016629
669.856511	0.016468
670.060399	0.016263
670.264268	0.016309
670.468119	0.016218
670.671952	0.016184
670.875767	0.016199
671.079563	0.016193
671.283341	0.016286
671.487101	0.016211
671.690843	0.016494
671.894567	0.016653
672.098272	0.016564
672.301959	0.016501
672.505628	0.016524
672.709278	0.016568
672.912911	0.016660
673.116525	0.016609
673.320121	0.016694
673.523699	0.016490
673.727258	0.016341
673.930799	0.016423
674.134322	0.016553
674.337827	0.016633
674.541314	0.016812
674.744782	0.016702
674.948232	0.016816
675.151664	0.016889
675.355078	0.017000
675.558474	0.017076
675.761851	0.017249
675.965210	0.017263
676.168551	0.017313
676.371873	0.017246
676.575178	0.017569
676.778464	0.017611
676.981732	0.017648
677.184981	0.017702
677.388213	0.017819
677.591426	0.017841
677.794621	0.017789
677.997798	0.017865
678.200956	0.018023
678.404097	0.018010
678.607219	0.018014
678.810323	0.017964
679.013408	0.017870
679.216476	0.017867
679.419525	0.017844
679.622556	0.018063
679.825569	0.018140
680.028563	0.018001
680.231540	0.017838
680.434498	0.017729
680.637438	0.017763
680.840359	0.017854
681.043263	0.017823
681.246148	0.017862
681.449015	0.017821
681.651864	0.017751
681.854694	0.017827
682.057506	0.017940
682.260301	0.018192
682.463076	0.018254
682.665834	0.018463
682.868573	0.018580
683.071295	0.018452
683.273998	0.018399
683.476682	0.018550
683.679349	0.018289
683.881997	0.018446
684.084627	0.018392
684.287239	0.018477
684.489833	0.018315
684.692408	0.018296
684.894965	0.018398
685.097504	0.018474
685.300025	0.018379
685.502527	0.018599
685.705012	0.018664
685.907478	0.018664
686.109925	0.018648
686.312355	0.018603
686.514766	0.018479
686.717159	0.018618
686.919534	0.018669
687.121891	0.018558
687.324230	0.018611
687.526550	0.018509
687.728852	0.018449
687.931136	0.018424
688.133401	0.018569
688.335649	0.018757
688.537878	0.018560
688.740089	0.018568
688.942281	0.018587
689.144456	0.018625
689.346612	0.018700
689.548750	0.018762
689.750870	0.018828
689.952971	0.018890
690.155055	0.018782
690.357120	0.018913
690.559167	0.018880
690.761195	0.019106
690.963206	0.019145
691.165198	0.019088
691.367172	0.018968
691.569128	0.018952
691.771065	0.018815
691.972984	0.018850
692.174885	0.018955
692.376768	0.019029
692.578633	0.018831
692.780479	0.018839
692.982308	0.018845
693.184118	0.019056
693.385909	0.019194
693.587683	0.019239
693.789438	0.019332
693.991175	0.019168
694.192894	0.019153
694.394595	0.019280
694.596277	0.019387
694.797941	0.019417
694.999587	0.019371
695.201215	0.019471
695.402824	0.019596
695.604416	0.019604
695.805989	0.019727
696.007543	0.019717
696.209080	0.019740
696.410598	0.019700
696.612099	0.019874
696.813580	0.020048
697.015044	0.019842
697.216490	0.019824
697.417917	0.019827
697.619326	0.019897
697.820717	0.019994
698.022089	0.019983
698.223444	0.020103
698.424780	0.020122
698.626098	0.020134
698.827397	0.020157
699.028679	0.020123
699.229942	0.019948
699.431187	0.019851
699.632414	0.019740
699.833622	0.019760
700.034813	0.019647
700.235985	0.019546
700.437139	0.019316
700.638274	0.019346
700.839392	0.019259
701.040491	0.019454
701.241572	0.019429
701.442635	0.019557
701.643679	0.019556
701.844706	0.019412
702.045714	0.019292
702.246704	0.019313
702.447675	0.019540
702.648629	0.019705
702.849564	0.019665
703.050481	0.019624
703.251380	0.019510
703.452260	0.019548
703.653122	0.019687
703.853966	0.019793
704.054792	0.019955
704.255600	0.019650
704.456389	0.019534
704.657160	0.019703
704.857913	0.019989
705.058648	0.019914
705.259365	0.019834
705.460063	0.019746
705.660743	0.019635
705.861405	0.019460
706.062048	0.019468
706.262674	0.019476
706.463281	0.019380
706.663870	0.019136
706.864441	0.019345
707.064993	0.019451
707.265527	0.019498
707.466043	0.019726
707.666541	0.019800
707.867021	0.020032
708.067482	0.020070
708.267925	0.020071
708.468350	0.020220
708.668757	0.020178
708.869145	0.020222
709.069516	0.020329
709.269868	0.020289
709.470201	0.020374
709.670517	0.020279
709.870814	0.020226
710.071093	0.020286
710.271354	0.020224
710.471597	0.020214
710.671821	0.020323
710.872028	0.020231
711.072216	0.019844
711.272385	0.019829
711.472537	0.019774
711.672670	0.019877
711.872785	0.019857
712.072882	0.019667
712.272961	0.019615
712.473021	0.019454
712.673063	0.019602
712.873087	0.019916
713.073093	0.019951
713.273081	0.019960
713.473050	0.019954
713.673001	0.019900
713.872934	0.019949
714.072849	0.019955
714.272745	0.019833
714.472623	0.019694
714.672483	0.019588
714.872325	0.019506
715.072148	0.019455
715.271954	0.019369
715.471741	0.019269
715.671509	0.019321
715.871260	0.019229
716.070992	0.019279
716.270707	0.019176
716.470403	0.019171
716.670080	0.019137
716.869740	0.019129
717.069381	0.019236
717.269004	0.019235
717.468609	0.019311
717.668195	0.019386
717.867764	0.019350
718.067314	0.019427
718.266846	0.019635
718.466360	0.019695
718.665855	0.019741
718.865332	0.019672
719.064791	0.019668
719.264232	0.019675
719.463655	0.019666
719.663059	0.019719
719.862445	0.019839
720.061813	0.019536
720.261163	0.019545
720.460494	0.019428
720.659807	0.019501
720.859102	0.019497
721.058379	0.019286
721.257638	0.019137
721.456878	0.018981
721.656100	0.018825
721.855304	0.018914
722.054490	0.018730
722.253657	0.018782
722.452806	0.018694
722.651937	0.018764
722.851050	0.018781
723.050145	0.018848
723.249221	0.019017
723.448279	0.019143
723.647319	0.019096
723.846340	0.019253
724.045344	0.019339
724.244329	0.019258
724.443296	0.019196
724.642245	0.019412
724.841175	0.019471
725.040088	0.019337
725.238982	0.019128
725.437857	0.019101
725.636715	0.018982
725.835554	0.018761
726.034376	0.018503
726.233179	0.018352
726.431963	0.018116
726.630730	0.017892
726.829478	0.017950
727.028208	0.017969
727.226920	0.017977
727.425614	0.017938
727.624289	0.018045
727.822946	0.018164
728.021585	0.018310
728.220206	0.018172
728.418808	0.018216
728.617392	0.018054
728.815958	0.017814
729.014506	0.017840
729.213036	0.017857
729.411547	0.017800
729.610040	0.018018
729.808515	0.017844
730.006972	0.018041
730.205410	0.018069
730.403831	0.018004
730.602233	0.018163
730.800616	0.017992
730.998982	0.017797
731.197329	0.017655
731.395658	0.017325
731.593969	0.017338
731.792262	0.017208
731.990536	0.017141
732.188793	0.017151
732.387031	0.017163
732.585250	0.017220
732.783452	0.017266
732.981635	0.017193
733.179800	0.017161
733.377947	0.016991
733.576076	0.016933
733.774186	0.017037
733.972278	0.017035
734.170352	0.017018
734.368408	0.016956
734.566446	0.017076
734.764465	0.017160
734.962466	0.017205
735.160449	0.017136
735.358413	0.017283
735.556360	0.017235
735.754288	0.017089
735.952198	0.016919
736.150090	0.016993
736.347963	0.016773
736.545818	0.016727
736.743655	0.016900
736.941474	0.017021
737.139275	0.016843
737.337057	0.016790
737.534821	0.017035
737.732567	0.017155
737.930295	0.017122
738.128005	0.017128
738.325696	0.016988
738.523369	0.016801
738.721024	0.016647
738.918660	0.016643
739.116279	0.016640
739.313879	0.016417
739.511461	0.016209
739.709024	0.016125
739.906570	0.016118
740.104097	0.016295
740.301606	0.016388
740.499097	0.016591
740.696569	0.016528
740.894024	0.016360
741.091460	0.016293
741.288878	0.016324
741.486277	0.016350
741.683659	0.016430
741.881022	0.016293
742.078367	0.016333
742.275694	0.016252
742.473002	0.016274
742.670293	0.016254
742.867565	0.016264
743.064819	0.016269
743.262054	0.016128
743.459272	0.016027
743.656471	0.016132
743.853652	0.015858
744.050815	0.015817
744.247959	0.015833
744.445085	0.015885
744.642194	0.016061
744.839283	0.016024
745.036355	0.016168
745.233408	0.015942
745.430444	0.015904
745.627461	0.015928
745.824459	0.015903
746.021440	0.015937
746.218402	0.015921
746.415346	0.015818
746.612272	0.016018
746.809180	0.015864
747.006069	0.016243
747.202940	0.016080
747.399793	0.016229
747.596628	0.016257
747.793444	0.016175
747.990243	0.016122
748.187023	0.016078
748.383784	0.015901
748.580528	0.015886
748.777253	0.015658
748.973960	0.015797
749.170649	0.015674
749.367320	0.015636
749.563973	0.015526
749.760607	0.015703
749.957223	0.015776
750.153821	0.015638
750.350400	0.015485
750.546962	0.015485
750.743505	0.015422
750.940030	0.015256
751.136536	0.015201
751.333025	0.015397
751.529495	0.015200
751.725947	0.015042
751.922381	0.015238
752.118796	0.015467
752.315194	0.015466
752.511573	0.015413
752.707934	0.015517
752.904276	0.015597
753.100601	0.015388
753.296907	0.015356
753.493195	0.015524
753.689465	0.015351
753.885716	0.015222
754.081949	0.015128
754.278164	0.015028
754.474361	0.015009
754.670540	0.014872
754.866700	0.014915
755.062843	0.014919
755.258967	0.014872
755.455072	0.014951
755.651160	0.015033
755.847229	0.015169
756.043280	0.015254
756.239313	0.015440
756.435328	0.015688
756.631324	0.015720
756.827302	0.015615
757.023262	0.015566
757.219204	0.015564
757.415127	0.015441
757.611033	0.015438
757.806920	0.015606
758.002788	0.015240
758.198639	0.014849
758.394471	0.014768
758.590286	0.014682
758.786081	0.014516
758.981859	0.014293
759.177619	0.014126
759.373360	0.013842
759.569083	0.013629
759.764788	0.013785
759.960474	0.014004
760.156143	0.013740
760.351793	0.013848
760.547425	0.013953
760.743038	0.014160
760.938634	0.014440
761.134211	0.014653
761.329770	0.014646
761.525311	0.014555
761.720833	0.014453
761.916338	0.014721
762.111824	0.014822
762.307292	0.014785
762.502741	0.014596
762.698173	0.014421
762.893586	0.014348
763.088981	0.014423
763.284358	0.014337
763.479716	0.014249
763.675057	0.014328
763.870379	0.014212
764.065683	0.014071
764.260968	0.014186
764.456236	0.014273
764.651485	0.014356
764.846716	0.014327
765.041929	0.014576
765.237123	0.014707
765.432299	0.014642
765.627457	0.014803
765.822597	0.014997
766.017719	0.015016
766.212822	0.015115
766.407907	0.015101
766.602974	0.015118
766.798023	0.014983
766.993054	0.014998
767.188066	0.015025
767.383060	0.014930
767.578036	0.014896
767.772993	0.014909
767.967933	0.014944
768.162854	0.015111
768.357757	0.015073
768.552642	0.014921
768.747508	0.014857
768.942356	0.014750
769.137186	0.014706
769.331998	0.014571
769.526792	0.014385
769.721567	0.014258
769.916324	0.014245
770.111063	0.014098
770.305784	0.014315
770.500486	0.014358
770.695171	0.014350
770.889837	0.014362
771.084484	0.014341
771.279114	0.014402
771.473725	0.014307
771.668318	0.013974
771.862893	0.014099
772.057450	0.014028
772.251988	0.013973
772.446509	0.013968
772.641011	0.013888
772.835494	0.014000
773.029960	0.013868
773.224407	0.013966
773.418836	0.014115
773.613247	0.014117
773.807640	0.014030
774.002014	0.014078
774.196370	0.014073
774.390708	0.014200
774.585028	0.014117
774.779330	0.014432
774.973613	0.014385
775.167878	0.014352
775.362125	0.014403
775.556354	0.014674
775.750564	0.014733
775.944756	0.014683
776.138930	0.014780
776.333086	0.014946
776.527223	0.014943
776.721343	0.015103
776.915444	0.015069
777.109526	0.015047
777.303591	0.015049
777.497637	0.015021
777.691666	0.015290
777.885676	0.015139
778.079667	0.015056
778.273641	0.014973
778.467596	0.014865
778.661533	0.014996
778.855452	0.015000
779.049352	0.014935
779.243235	0.015048
779.437099	0.014885
779.630945	0.015097
779.824773	0.015230
780.018582	0.015183
780.212373	0.015253
780.406146	0.015240
780.599901	0.015219
780.793638	0.015179
780.987356	0.015023
781.181056	0.014977
781.374738	0.014654
781.568402	0.014509
781.762047	0.014401
781.955674	0.014132
782.149283	0.013865
782.342874	0.013785
782.536447	0.013663
782.730001	0.013648
782.923537	0.013726
783.117055	0.013840
783.310555	0.013827
783.504036	0.013748
783.697499	0.013975
783.890944	0.014025
784.084371	0.014102
784.277780	0.014217
784.471170	0.014389
784.664542	0.014413
784.857896	0.014354
785.051231	0.014309
785.244549	0.014438
785.437848	0.014390
785.631129	0.014505
785.824392	0.014421
786.017636	0.014591
786.210863	0.014608
786.404071	0.014581
786.597260	0.014548
786.790432	0.014584
786.983585	0.014571
787.176721	0.014722
787.369838	0.014727
787.562936	0.014804
787.756017	0.014651
787.949079	0.014546
788.142123	0.014648
788.335149	0.014866
788.528156	0.014994
788.721146	0.015043
788.914117	0.014862
789.107070	0.015048
789.300005	0.015130
789.492921	0.015318
789.685819	0.015201
789.878699	0.014909
790.071561	0.014731
790.264405	0.014741
790.457230	0.014683
790.650037	0.014720
790.842826	0.014490
791.035597	0.014421
791.228349	0.014254
791.421084	0.014282
791.613800	0.014559
791.806497	0.014752
791.999177	0.014601
792.191838	0.014735
792.384481	0.014804
792.577106	0.014936
792.769713	0.015152
792.962301	0.015176
793.154871	0.015269
793.347423	0.015131
793.539957	0.015055
793.732473	0.015169
793.924970	0.015326
794.117449	0.015451
794.309910	0.015378
794.502353	0.015370
794.694777	0.015314
794.887183	0.015097
795.079571	0.015161
795.271941	0.015176
795.464293	0.015222
795.656626	0.015193
795.848941	0.015161
796.041238	0.015203
796.233516	0.015040
796.425777	0.015099
796.618019	0.015476
796.810243	0.015551
797.002449	0.015427
797.194636	0.015530
797.386805	0.015511
797.578956	0.015335
797.771089	0.015300
797.963204	0.015179
798.155300	0.015078
798.347378	0.014892
798.539438	0.014797
798.731480	0.014986
798.923503	0.014595
799.115509	0.014412
799.307496	0.014442
799.499465	0.014640
799.691415	0.014959
799.883348	0.015090
800.075262	0.015131
800.267158	0.015294
800.459035	0.015353
800.650895	0.015580
800.842736	0.015659
801.034559	0.015828
801.226364	0.015741
801.418150	0.015879
801.609919	0.015803
801.801669	0.015814
801.993401	0.015673
802.185114	0.015699
802.376810	0.015742
802.568487	0.015873
802.760146	0.015789
802.951787	0.015908
803.143409	0.015639
803.335014	0.015734
803.526600	0.015806
803.718168	0.016114
803.909717	0.016174
804.101249	0.016293
804.292762	0.016358
804.484257	0.016426
804.675734	0.016248
804.867192	0.016363
805.058632	0.016374
805.250054	0.016528
805.441458	0.016430
805.632844	0.016392
805.824211	0.016376
806.015561	0.016432
806.206891	0.016442
806.398204	0.016786
806.589499	0.016747
806.780775	0.016711
806.972033	0.016492
807.163273	0.016647
807.354495	0.016656
807.545698	0.016847
807.736883	0.016626
807.928050	0.016645
808.119199	0.016713
808.310329	0.016859
808.501441	0.016990
808.692535	0.017290
808.883611	0.017244
809.074669	0.017224
809.265708	0.017230
809.456729	0.017401
809.647732	0.017457
809.838717	0.017170
810.029683	0.017012
810.220632	0.017007
810.411562	0.016907
810.602474	0.016820
810.793367	0.016654
810.984242	0.016560
811.175100	0.016534
811.365938	0.016490
811.556759	0.016573
811.747562	0.016399
811.938346	0.016398
812.129112	0.016332
812.319860	0.016389
812.510589	0.016425
812.701300	0.016420
812.891994	0.016282
813.082668	0.016295
813.273325	0.016213
813.463964	0.016502
813.654584	0.016632
813.845186	0.016664
814.035769	0.016714
814.226335	0.016847
814.416882	0.016709
814.607411	0.016939
814.797922	0.017076
814.988415	0.017287
815.178889	0.017263
815.369345	0.017244
815.559783	0.017350
815.750203	0.017262
815.940605	0.017385
816.130988	0.017558
816.321353	0.017631
816.511700	0.017575
816.702028	0.017597
816.892339	0.017770
817.082631	0.017688
817.272905	0.017661
817.463161	0.017964
817.653398	0.017948
817.843617	0.018161
818.033819	0.018290
818.224001	0.018471
818.414166	0.018542
818.604312	0.018449
818.794440	0.018624
818.984550	0.018674
819.174642	0.018295
819.364716	0.018265
819.554771	0.018079
819.744808	0.017977
819.934827	0.017773
820.124827	0.017769
820.314810	0.017765
820.504774	0.017625
820.694720	0.017505
820.884647	0.017722
821.074557	0.017963
821.264448	0.017964
821.454321	0.017993
821.644176	0.018243
821.834012	0.018083
822.023831	0.018145
822.213631	0.018363
822.403413	0.018650
822.593176	0.018653
822.782922	0.018387
822.972649	0.018542
823.162358	0.018666
823.352049	0.018603
823.541721	0.018781
823.731376	0.018789
823.921012	0.018646
824.110629	0.018509
824.300229	0.018564
824.489811	0.018661
824.679374	0.018668
824.868919	0.018566
825.058445	0.018657
825.247954	0.018776
825.437444	0.018869
825.626916	0.018755
825.816370	0.018747
826.005806	0.018733
826.195223	0.018815
826.384622	0.018692
826.574003	0.018817
826.763366	0.018697
826.952711	0.018350
827.142037	0.018276
827.331345	0.018522
827.520635	0.018685
827.709906	0.018855
827.899160	0.018885
828.088395	0.019156
828.277612	0.019083
828.466810	0.019050
828.655991	0.019098
828.845153	0.019232
829.034297	0.019162
829.223423	0.019158
829.412531	0.018986
829.601620	0.019089
829.790691	0.019090
829.979744	0.019170
830.168779	0.019366
830.357795	0.019613
830.546793	0.019800
830.735773	0.020022
830.924735	0.020057
831.113679	0.020033
831.302604	0.020229
831.491511	0.020254
831.680400	0.020305
831.869271	0.020225
832.058123	0.020419
832.246957	0.020453
832.435773	0.020317
832.624571	0.020413
832.813351	0.020516
833.002112	0.020413
833.190855	0.020409
833.379580	0.020512
833.568287	0.020804
833.756975	0.020979
833.945645	0.020847
834.134297	0.021128
834.322931	0.021110
834.511547	0.021177
834.700144	0.021284
834.888723	0.021375
835.077284	0.021436
835.265826	0.021431
835.454351	0.021254
835.642857	0.021364
835.831345	0.021374
836.019815	0.021494
836.208266	0.021711
836.396699	0.022106
836.585114	0.022403
836.773511	0.022491
836.961890	0.022610
837.150250	0.022889
837.338592	0.022938
837.526916	0.022917
837.715222	0.023144
837.903510	0.023245
838.091779	0.022798
838.280030	0.022659
838.468263	0.022648
838.656477	0.022465
838.844674	0.022207
839.032852	0.022315
839.221012	0.022459
839.409153	0.022367
839.597277	0.022283
839.785382	0.022363
839.973469	0.022379
840.161538	0.022399
840.349589	0.022629
840.537621	0.022864
840.725635	0.022986
840.913631	0.023151
841.101609	0.023371
841.289568	0.023630
841.477509	0.023912
841.665432	0.024284
841.853337	0.024451
842.041224	0.024597
842.229092	0.024609
842.416942	0.024759
842.604774	0.024674
842.792588	0.024573
842.980383	0.024563
843.168160	0.024789
843.355919	0.024665
843.543660	0.024878
843.731382	0.024724
843.919087	0.024921
844.106773	0.024810
844.294441	0.025049
844.482090	0.025290
844.669722	0.025388
844.857335	0.025104
845.044930	0.025229
845.232507	0.025292
845.420065	0.025569
845.607605	0.025554
845.795127	0.025644
845.982631	0.025736
846.170117	0.025777
846.357584	0.025875
846.545033	0.026270
846.732464	0.026382
846.919877	0.026395
847.107272	0.026213
847.294648	0.026331
847.482006	0.026339
847.669346	0.026231
847.856667	0.026323
848.043971	0.026206
848.231256	0.025879
848.418523	0.025957
848.605771	0.025863
848.793002	0.026071
848.980214	0.026103
849.167408	0.026158
849.354584	0.026329
849.541742	0.026653
849.728881	0.027056
849.916002	0.027356
850.103105	0.027695
850.290190	0.027938
850.477256	0.028328
850.664304	0.028715
850.851334	0.029208
851.038346	0.029317
851.225340	0.029067
851.412315	0.029169
851.599272	0.029483
851.786211	0.029275
851.973132	0.029379
852.160034	0.029298
852.346918	0.029317
852.533784	0.029247
852.720632	0.029319
852.907462	0.029674
853.094273	0.029594
853.281066	0.029606
853.467841	0.029692
853.654598	0.029836
853.841336	0.029970
854.028056	0.030064
854.214758	0.029985
854.401442	0.030420
854.588107	0.030407
854.774755	0.030290
854.961384	0.030201
855.147995	0.030173
855.334587	0.030242
855.521162	0.030438
855.707718	0.030435
855.894256	0.030566
856.080775	0.030283
856.267277	0.030225
856.453760	0.030565
856.640225	0.030727
856.826672	0.030858
857.013101	0.030812
857.199511	0.030852
857.385903	0.030780
857.572277	0.030927
857.758633	0.031010
857.944970	0.031235
858.131290	0.031514
858.317591	0.031923
858.503873	0.032074
858.690138	0.032233
858.876384	0.032280
859.062612	0.032567
859.248822	0.032689
859.435014	0.032789
859.621188	0.032743
859.807343	0.032667
859.993480	0.032486
860.179599	0.032509
860.365699	0.032706
860.551781	0.032708
860.737846	0.032811
860.923891	0.032715
861.109919	0.033012
861.295929	0.033191
861.481920	0.033213
861.667893	0.033395
861.853848	0.033681
862.039784	0.033594
862.225702	0.033873
862.411603	0.033757
862.597484	0.033839
862.783348	0.033792
862.969193	0.033910
863.155021	0.033996
863.340830	0.034090
863.526620	0.033999
863.712393	0.034086
863.898147	0.034004
864.083883	0.034335
864.269601	0.034314
864.455301	0.034368
864.640982	0.034106
864.826645	0.034128
865.012290	0.033889
865.197917	0.033712
865.383526	0.033570
865.569116	0.033432
865.754688	0.033009
865.940242	0.033195
866.125777	0.033417
866.311295	0.033650
866.496794	0.033724
866.682275	0.033840
866.867737	0.034048
867.053182	0.034103
867.238608	0.034184
867.424016	0.034334
867.609406	0.034324
867.794778	0.034517
867.980131	0.034300
868.165466	0.034123
868.350783	0.034175
868.536082	0.033961
868.721362	0.034279
868.906625	0.034581
869.091869	0.034832
869.277094	0.035166
869.462302	0.034894
869.647491	0.035102
869.832662	0.035271
870.017815	0.035349
870.202950	0.035656
870.388066	0.035915
870.573165	0.035977
870.758245	0.036029
870.943306	0.035899
871.128350	0.036220
871.313375	0.036245
871.498382	0.036597
871.683371	0.036668
871.868342	0.036790
872.053294	0.036673
872.238229	0.036776
872.423144	0.036926
872.608042	0.036905
872.792922	0.036757
872.977783	0.037168
873.162626	0.037141
873.347451	0.037351
873.532258	0.037380
873.717046	0.037536
873.901816	0.037569
874.086568	0.037631
874.271302	0.037933
874.456017	0.037808
874.640715	0.037388
874.825394	0.037364
875.010055	0.037294
875.194697	0.037391
875.379322	0.037270
875.563928	0.037050
875.748516	0.036825
875.933085	0.036328
876.117637	0.036273
876.302170	0.036584
876.486685	0.036475
876.671182	0.036253
876.855661	0.035998
877.040121	0.036011
877.224563	0.035944
877.408987	0.035978
877.593393	0.036169
877.777780	0.036199
877.962150	0.036339
878.146501	0.036378
878.330833	0.036687
878.515148	0.037073
878.699444	0.036942
878.883722	0.037258
879.067982	0.037394
879.252224	0.037668
879.436447	0.037918
879.620653	0.037819
879.804840	0.037921
879.989008	0.037981
880.173159	0.037940
880.357291	0.038050
880.541405	0.037933
880.725501	0.038006
880.909579	0.038338
881.093638	0.038315
881.277680	0.038451
881.461703	0.038512
881.645707	0.038703
881.829694	0.038653
882.013662	0.038718
882.197612	0.038800
882.381544	0.038965
882.565458	0.038766
882.749353	0.038733
882.933230	0.038385
883.117089	0.038135
883.300930	0.037659
883.484753	0.037626
883.668557	0.037565
883.852343	0.037506
884.036111	0.037147
884.219861	0.036847
884.403592	0.036853
884.587305	0.037110
884.771000	0.037260
884.954677	0.037371
885.138335	0.037520
885.321976	0.037372
885.505598	0.037160
885.689201	0.037025
885.872787	0.037115
886.056354	0.037043
886.239904	0.036974
886.423434	0.036643
886.606947	0.036641
886.790442	0.036536
886.973918	0.036725
887.157376	0.036851
887.340816	0.037100
887.524237	0.037165
887.707641	0.037291
887.891026	0.037239
888.074393	0.037643
888.257741	0.037752
888.441072	0.037819
888.624384	0.037923
888.807678	0.037977
888.990954	0.037648
889.174211	0.037544
889.357451	0.037561
889.540672	0.037301
889.723875	0.037129
889.907059	0.036942
890.090226	0.036782
890.273374	0.036567
890.456504	0.036298
890.639616	0.036641
890.822709	0.036616
891.005785	0.036334
891.188842	0.036253
891.371881	0.036320
891.554901	0.036326
891.737904	0.036064
891.920888	0.036115
892.103854	0.036500
892.286802	0.036263
892.469731	0.036498
892.652643	0.036718
892.835536	0.037055
893.018410	0.037186
893.201267	0.037225
893.384106	0.037523
893.566926	0.037609
893.749728	0.037591
893.932511	0.037885
894.115277	0.037639
894.298024	0.037408
894.480753	0.037244
894.663464	0.037036
894.846157	0.036774
895.028831	0.036487
895.211487	0.036243
895.394125	0.035915
895.576745	0.035478
895.759346	0.035460
895.941930	0.035479
896.124495	0.035459
896.307041	0.035304
896.489570	0.035492
896.672080	0.035454
896.854573	0.035378
897.037046	0.035674
897.219502	0.035767
897.401940	0.035958
897.584359	0.035837
897.766760	0.035792
897.949143	0.036013
898.131507	0.035824
898.313854	0.035722
898.496182	0.036006
898.678492	0.035778
898.860783	0.036280
899.043057	0.036008
899.225312	0.036115
899.407549	0.036451
899.589768	0.036331
899.771968	0.036677
899.954151	0.036918
900.136315	0.036963
900.318461	0.036902
900.500588	0.036596
900.682698	0.036638
900.864789	0.036766
901.046862	0.036599
901.228917	0.036585
901.410953	0.036259
901.592971	0.036117
901.774972	0.035687
901.956953	0.035420
902.138917	0.035332
902.320862	0.035126
902.502790	0.034535
902.684699	0.034519
902.866589	0.034280
903.048462	0.034347
903.230316	0.034489
903.412152	0.034496
903.593970	0.034442
903.775770	0.034154
903.957551	0.034085
904.139314	0.034249
904.321059	0.033909
904.502786	0.033948
904.684494	0.034104
904.866185	0.033999
905.047857	0.033894
905.229510	0.033773
905.411146	0.033768
905.592763	0.033418
905.774363	0.033582
905.955943	0.033238
906.137506	0.033399
906.319051	0.032732
906.500577	0.032781
906.682085	0.032798
906.863575	0.032872
907.045046	0.032744
907.226500	0.033131
907.407935	0.032890
907.589352	0.033084
907.770750	0.032869
907.952131	0.032882
908.133493	0.032362
908.314837	0.032102
908.496163	0.031785
908.677470	0.031631
908.858760	0.031388
909.040031	0.031251
909.221284	0.031139
909.402518	0.030851
909.583735	0.030953
909.764933	0.030781
909.946113	0.030685
910.127275	0.030633
910.308418	0.030341
910.489544	0.030004
910.670651	0.030055
910.851740	0.029522
911.032810	0.029408
911.213863	0.029223
911.394897	0.029258
911.575913	0.029441
911.756911	0.029531
911.937890	0.029614
912.118851	0.029853
912.299794	0.029649
912.480719	0.030211
912.661626	0.030341
912.842514	0.030528
913.023384	0.030483
913.204236	0.030192
913.385070	0.030283
913.565886	0.030373
913.746683	0.029842
913.927462	0.029770
914.108223	0.029413
914.288965	0.029509
914.469690	0.029077
914.650396	0.028649
914.831084	0.028644
915.011754	0.028410
915.192405	0.028117
915.373038	0.028385
915.553653	0.028319
915.734250	0.028534
915.914829	0.027706
916.095389	0.027437
916.275931	0.027849
916.456455	0.027418
916.636961	0.027553
916.817448	0.027671
916.997917	0.027430
917.178368	0.027217
917.358801	0.026667
917.539216	0.026695
917.719612	0.026502
917.899990	0.026024
918.080350	0.025648
918.260692	0.024740
918.441015	0.024029
918.621320	0.023590
918.801607	0.023254
918.981876	0.023346
919.162127	0.023167
919.342359	0.022871
919.522573	0.022697
919.702769	0.023097
919.882947	0.023542
920.063106	0.023731
920.243247	0.023884
920.423370	0.023637
920.603475	0.023431
920.783562	0.023430
920.963630	0.023722
921.143680	0.023135
921.323712	0.022796
921.503725	0.022467
921.683721	0.022464
921.863698	0.022467
922.043657	0.022263
922.223598	0.021604
922.403520	0.021496
922.583424	0.021078
922.763311	0.021290
922.943178	0.021054
923.123028	0.020791
923.302859	0.020626
923.482673	0.020143
923.662467	0.020027
923.842244	0.020253
924.022003	0.020143
924.201743	0.020239
924.381465	0.019873
924.561169	0.019476
924.740854	0.018936
924.920522	0.018608
925.100171	0.018554
925.279802	0.018311
925.459414	0.018289
925.639009	0.018071
925.818585	0.017548
925.998143	0.017531
926.177683	0.017794
926.357205	0.018006
926.536708	0.017918
926.716193	0.017792
926.895660	0.017776
927.075109	0.016711
927.254539	0.015832
927.433951	0.015677
927.613345	0.015618
927.792721	0.015145
927.972079	0.014833
928.151418	0.014124
928.330739	0.013348
928.510042	0.012798
928.689327	0.012915
928.868593	0.013387
929.047841	0.013176
929.227071	0.012464
929.406283	0.011925
929.585476	0.011664
929.764652	0.011788
929.943809	0.011898
930.122948	0.012056
930.302068	0.011696
930.481171	0.010848
930.660255	0.010685
930.839321	0.010884
931.018369	0.010630
931.197398	0.010228
931.376409	0.009290
931.555402	0.009081
931.734377	0.008428
931.913334	0.008054
932.092272	0.007985
932.271192	0.007705
932.450094	0.006953
932.628978	0.007131
932.807844	0.006792
932.986691	0.006908
933.165520	0.006454
933.344331	0.006091
933.523123	0.005997
933.701898	0.005704
933.880654	0.006039
934.059392	0.005701
934.238111	0.004899
934.416813	0.004800
934.595496	0.004279
934.774161	0.004018
934.952808	0.004122
935.131437	0.003685
935.310047	0.002953
935.488639	0.001872
935.667213	0.002248
935.845769	0.002189
936.024306	0.001720
936.202825	0.001114
936.381326	0.000813
936.559809	0.000006
936.738274	0.000357
936.916720	0.000619
937.095148	0.000655
937.273558	0.000105
937.451950	-0.000273
937.630323	-0.000784
937.808678	-0.000709
937.987015	-0.001015
938.165334	-0.000326
938.343635	-0.000979
938.521917	-0.001088
938.700181	-0.001227
938.878427	-0.001291
939.056655	-0.001822
939.234864	-0.001254
939.413055	-0.001186
939.591228	-0.001459
939.769383	-0.001870
939.947519	-0.001619
940.125638	-0.002593
940.303738	-0.003696
940.481820	-0.004323
940.659883	-0.003760
940.837929	-0.004059
941.015956	-0.004659
941.193965	-0.005034
941.371955	-0.005652
941.549928	-0.007213
941.727882	-0.007036
941.905818	-0.006981
942.083736	-0.006906
942.261636	-0.007930
942.439517	-0.008215
942.617380	-0.007365
942.795225	-0.007027
942.973052	-0.007571
943.150860	-0.006623
943.328651	-0.006738
943.506423	-0.006902
943.684176	-0.007454
943.861912	-0.007520
944.039629	-0.008271
944.217328	-0.008726
944.395009	-0.009605
944.572672	-0.009525
944.750317	-0.010690
944.927943	-0.011247
945.105551	-0.011098
945.283141	-0.010390
945.460712	-0.009849
945.638265	-0.010274
945.815801	-0.011336
945.993317	-0.011838
946.170816	-0.012494
946.348297	-0.011689
946.525759	-0.011406
946.703203	-0.011790
946.880629	-0.012387
947.058036	-0.012891
947.235425	-0.012449
947.412797	-0.012371
947.590149	-0.012232
947.767484	-0.011987
947.944800	-0.012365
948.122099	-0.012737
948.299379	-0.013287
948.476640	-0.014152
948.653884	-0.014198
948.831109	-0.014952
949.008316	-0.015067
949.185505	-0.015831
949.362676	-0.016342
949.539828	-0.017156
949.716962	-0.017648
949.894078	-0.017846
950.071176	-0.017595
950.248256	-0.018287
950.425317	-0.018477
950.602360	-0.019314
950.779385	-0.017365
950.956391	-0.016472
951.133380	-0.016054
951.310350	-0.015019
951.487302	-0.014917
951.664235	-0.015826
951.841151	-0.015878
952.018048	-0.016367
952.194927	-0.016514
952.371788	-0.017295
952.548631	-0.018191
952.725455	-0.017900
952.902261	-0.019070
953.079049	-0.019425
953.255819	-0.019415
953.432570	-0.019424
953.609303	-0.018396
953.786018	-0.016518
953.962715	-0.017283
954.139394	-0.018159
954.316054	-0.019196
954.492696	-0.018963
954.669320	-0.017977
954.845926	-0.018161
955.022513	-0.016627
955.199083	-0.017300
955.375634	-0.019316
955.552166	-0.019036
955.728681	-0.018185
955.905177	-0.016303
956.081655	-0.015939
956.258115	-0.017075
956.434557	-0.016570
956.610980	-0.017932
956.787385	-0.016376
956.963772	-0.015156
957.140141	-0.015575
957.316492	-0.016117
957.492824	-0.018239
957.669138	-0.018861
957.845434	-0.017985
958.021712	-0.017992
958.197971	-0.018590
958.374212	-0.019634
958.550435	-0.018927
958.726640	-0.018096
958.902826	-0.018012
959.078995	-0.015160
959.255145	-0.014874
959.431277	-0.015757
959.607390	-0.017219
959.783486	-0.017217
959.959563	-0.016726
960.135622	-0.018356
960.311662	-0.019471
960.487685	-0.019444
960.663689	-0.020671
960.839675	-0.020377
961.015643	-0.019025
961.191593	-0.015781
961.367524	-0.015314
961.543437	-0.016316
961.719332	-0.015730
961.895209	-0.014998
962.071067	-0.014570
962.246907	-0.015575
962.422730	-0.013891
962.598533	-0.014148
962.774319	-0.013291
962.950086	-0.014055
963.125835	-0.013951
963.301566	-0.013754
963.477279	-0.014093
963.652973	-0.013663
963.828650	-0.015083
964.004308	-0.016706
964.179947	-0.018430
964.355569	-0.020989
964.531172	-0.019488
964.706757	-0.019134
964.882324	-0.019423
965.057873	-0.018669
965.233403	-0.018594
965.408916	-0.015876
965.584410	-0.015406
965.759885	-0.011527
965.935343	-0.010637
966.110782	-0.010646
966.286203	-0.010910
966.461606	-0.010758
966.636991	-0.012030
966.812357	-0.011131
966.987705	-0.012409
967.163035	-0.012248
967.338347	-0.013781
967.513641	-0.013286
967.688916	-0.015086
967.864173	-0.013595
968.039412	-0.012765
968.214632	-0.012007
968.389835	-0.013180
968.565019	-0.012069
968.740185	-0.012236
968.915333	-0.013430
969.090462	-0.013497
969.265573	-0.010751
969.440667	-0.011574
969.615741	-0.010240
969.790798	-0.009795
969.965836	-0.009114
970.140856	-0.008339
970.315858	-0.009640
970.490842	-0.008403
970.665808	-0.009841
970.840755	-0.011175
971.015684	-0.009378
971.190595	-0.011201
971.365487	-0.009792
971.540362	-0.009540
971.715218	-0.010257
971.890056	-0.007890
972.064875	-0.009258
972.239677	-0.007560
972.414460	-0.007882
972.589225	-0.009789
972.763972	-0.008767
972.938700	-0.009809
973.113411	-0.010173
973.288103	-0.010675
973.462777	-0.012660
973.637432	-0.012201
973.812070	-0.011993
973.986689	-0.010169
974.161290	-0.010255
974.335873	-0.011098
974.510437	-0.011348
974.684984	-0.010514
974.859512	-0.010041
975.034022	-0.008753
975.208513	-0.007251
975.382987	-0.007142
975.557442	-0.005759
975.731879	-0.004444
975.906298	-0.005261
976.080698	-0.005715
976.255080	-0.005408
976.429445	-0.003862
976.603790	-0.004160
976.778118	-0.005544
976.952427	-0.006385
977.126719	-0.009164
977.300992	-0.009478
977.475246	-0.008683
977.649483	-0.006647
977.823701	-0.007604
977.997901	-0.009765
978.172083	-0.010533
978.346247	-0.009106
978.520392	-0.008657
978.694519	-0.007924
978.868628	-0.008756
979.042719	-0.008758
979.216791	-0.009109
979.390845	-0.008125
979.564882	-0.006417
979.738899	-0.004789
979.912899	-0.005385
980.086880	-0.006615
980.260843	-0.006376
980.434788	-0.005590
980.608715	-0.005608
980.782623	-0.006072
980.956514	-0.005926
981.130386	-0.005898
981.304240	-0.006902
981.478075	-0.006461
981.651892	-0.005173
981.825692	-0.004286
981.999472	-0.004961
982.173235	-0.003622
982.346980	-0.003175
982.520706	-0.005024
982.694414	-0.006648
982.868104	-0.007105
983.041775	-0.007711
983.215428	-0.008537
983.389064	-0.010151
983.562680	-0.010354
983.736279	-0.010970
983.909860	-0.010948
984.083422	-0.010983
984.256966	-0.011005
984.430491	-0.009758
984.603999	-0.009281
984.777488	-0.008889
984.950959	-0.009360
985.124412	-0.009557
985.297847	-0.011557
985.471263	-0.012447
985.644661	-0.012456
985.818041	-0.014426
985.991403	-0.015703
986.164747	-0.015339
986.338072	-0.014235
986.511379	-0.012996
986.684668	-0.011703
986.857938	-0.010378
987.031191	-0.010460
987.204425	-0.009568
987.377641	-0.006644
987.550839	-0.004757
987.724018	-0.006320
987.897179	-0.008137
988.070322	-0.007430
988.243447	-0.008602
988.416554	-0.007778
988.589642	-0.007345
988.762712	-0.007077
988.935764	-0.008023
989.108798	-0.009024
989.281813	-0.008671
989.454811	-0.007538
989.627790	-0.009211
989.800751	-0.009809
989.973693	-0.009806
990.146617	-0.009705
990.319524	-0.012232
990.492412	-0.010420
990.665281	-0.010973
990.838133	-0.010611
991.010966	-0.010823
991.183781	-0.009616
991.356578	-0.008221
991.529356	-0.007830
991.702117	-0.008705
991.874859	-0.006663
992.047583	-0.007746
992.220288	-0.006656
992.392976	-0.007363
992.565645	-0.007828
992.738296	-0.009543
992.910929	-0.009294
993.083543	-0.009695
993.256139	-0.008625
993.428718	-0.008259
993.601277	-0.008758
993.773819	-0.010166
993.946342	-0.009595
994.118848	-0.008961
994.291335	-0.008280
994.463803	-0.008013
994.636254	-0.007704
994.808686	-0.008946
994.981100	-0.008722
995.153496	-0.009590
995.325874	-0.008148
995.498233	-0.006597
995.670574	-0.006116
995.842897	-0.005092
996.015202	-0.005244
996.187488	-0.005405
996.359757	-0.004257
996.532007	-0.004625
996.704239	-0.002994
996.876452	-0.004250
997.048648	-0.005524
997.220825	-0.007335
997.392984	-0.009264
997.565124	-0.008644
997.737247	-0.009742
997.909351	-0.009542
998.081437	-0.009849
998.253505	-0.010202
998.425554	-0.009717
998.597586	-0.009588
998.769599	-0.007970
998.941594	-0.007189
999.113571	-0.007808
999.285529	-0.008147
999.457469	-0.009487
999.629391	-0.007970
999.801295	-0.007973
999.973181	-0.008829
1000.145048	-0.008739
1000.316897	-0.009252
1000.488728	-0.008482
1000.660541	-0.009510
1000.832335	-0.007817
1001.004111	-0.006017
1001.175869	-0.007620
1001.347609	-0.007493
1001.519331	-0.006410
1001.691034	-0.007872
1001.862719	-0.007708
1002.034386	-0.008205
1002.206035	-0.006724
1002.377665	-0.006544
1002.549277	-0.008313
1002.720871	-0.008552
1002.892447	-0.007665
1003.064004	-0.007319
1003.235544	-0.006114
1003.407065	-0.005739
1003.578568	-0.005419
1003.750052	-0.005573
1003.921519	-0.005904
1004.092967	-0.005667
1004.264397	-0.004115
1004.435809	-0.004380
1004.607202	-0.005013
1004.778577	-0.005158
1004.949934	-0.005492
1005.121273	-0.005971
1005.292594	-0.006994
1005.463896	-0.007834
1005.635180	-0.007766
1005.806446	-0.010049
1005.977694	-0.012029
1006.148923	-0.012860
1006.320135	-0.013266
1006.491328	-0.012783
1006.662503	-0.012512
1006.833659	-0.012218
1007.004798	-0.010789
1007.175918	-0.010928
1007.347020	-0.010437
1007.518103	-0.009347
1007.689169	-0.007673
1007.860216	-0.006964
1008.031245	-0.007216
1008.202256	-0.008734
1008.373248	-0.009095
1008.544223	-0.010034
1008.715179	-0.009114
1008.886117	-0.008428
1009.057036	-0.008267
1009.227938	-0.009606
1009.398821	-0.009592
1009.569686	-0.009821
1009.740533	-0.008065
1009.911361	-0.007551
1010.082172	-0.008808
1010.252964	-0.009256
1010.423738	-0.008063
1010.594493	-0.008083
1010.765231	-0.007720
1010.935950	-0.008021
1011.106651	-0.008063
1011.277334	-0.008537
1011.447998	-0.008408
1011.618645	-0.007605
1011.789273	-0.007741
1011.959882	-0.008731
1012.130474	-0.009204
1012.301048	-0.008778
1012.471603	-0.008947
1012.642140	-0.009930
1012.812658	-0.009440
1012.983159	-0.008433
1013.153641	-0.007511
1013.324105	-0.007504
1013.494551	-0.007565
1013.664979	-0.006891
1013.835388	-0.007215
1014.005779	-0.007599
1014.176152	-0.006019
1014.346507	-0.005427
1014.516843	-0.007533
1014.687162	-0.006828
1014.857462	-0.006223
1015.027744	-0.005994
1015.198007	-0.006509
1015.368252	-0.006517
1015.538480	-0.005927
1015.708689	-0.006755
1015.878879	-0.007961
1016.049052	-0.007084
1016.219206	-0.007921
1016.389342	-0.008580
1016.559460	-0.008527
1016.729559	-0.008254
1016.899641	-0.007432
1017.069704	-0.007551
1017.239749	-0.006253
1017.409775	-0.006657
1017.579784	-0.006322
1017.749774	-0.005652
1017.919746	-0.004620
1018.089700	-0.005827
1018.259635	-0.007185
1018.429553	-0.007395
1018.599452	-0.007763
1018.769333	-0.008217
1018.939195	-0.007174
1019.109040	-0.007448
1019.278866	-0.007927
1019.448674	-0.008595
1019.618464	-0.008801
1019.788235	-0.008366
1019.957989	-0.009121
1020.127724	-0.008247
1020.297441	-0.009264
1020.467139	-0.006976
1020.636820	-0.006861
1020.806482	-0.007885
1020.976126	-0.008542
1021.145752	-0.007580
1021.315359	-0.005716
1021.484948	-0.004452
1021.654519	-0.005439
1021.824072	-0.005068
1021.993607	-0.007844
1022.163123	-0.007867
1022.332621	-0.007399
1022.502101	-0.007106
1022.671563	-0.006438
1022.841007	-0.006523
1023.010432	-0.008793
1023.179839	-0.007492
1023.349228	-0.008460
1023.518598	-0.007711
1023.687951	-0.006685
1023.857285	-0.008412
1024.026601	-0.008751
1024.195899	-0.009891
1024.365178	-0.009767
1024.534439	-0.009034
1024.703682	-0.008946
1024.872907	-0.008262
1025.042114	-0.008538
1025.211302	-0.009122
1025.380472	-0.008036
1025.549624	-0.007092
1025.718758	-0.006612
1025.887873	-0.008648
1026.056970	-0.009081
1026.226049	-0.008602
1026.395110	-0.009245
1026.564153	-0.009744
1026.733177	-0.010145
1026.902183	-0.008873
1027.071171	-0.008828
1027.240141	-0.009468
1027.409092	-0.006758
1027.578026	-0.006414
1027.746940	-0.006901
1027.915837	-0.005356
1028.084716	-0.005863
1028.253576	-0.005792
1028.422418	-0.007367
1028.591242	-0.008949
1028.760048	-0.008786
1028.928835	-0.009850
1029.097604	-0.010215
1029.266355	-0.011214
1029.435088	-0.013024
1029.603803	-0.013306
1029.772499	-0.015593
1029.941177	-0.015801
1030.109837	-0.014212
1030.278478	-0.014679
1030.447102	-0.016106
1030.615707	-0.014628
1030.784294	-0.014451
1030.952863	-0.014736
1031.121413	-0.013825
1031.289945	-0.012593
1031.458460	-0.012485
1031.626955	-0.011818
1031.795433	-0.010975
1031.963892	-0.010377
1032.132334	-0.010867
1032.300756	-0.011797
1032.469161	-0.009505
1032.637548	-0.010085
1032.805916	-0.010337
1032.974266	-0.010034
1033.142598	-0.011509
1033.310911	-0.011626
1033.479207	-0.011454
1033.647484	-0.011889
1033.815743	-0.011017
1033.983983	-0.011322
1034.152206	-0.009304
1034.320410	-0.009463
1034.488596	-0.006526
1034.656764	-0.005326
1034.824914	-0.005218
1034.993045	-0.005428
1035.161158	-0.004666
1035.329253	-0.004698
1035.497330	-0.006533
1035.665388	-0.008449
1035.833428	-0.007424
1036.001450	-0.010080
1036.169454	-0.011146
1036.337440	-0.011008
1036.505407	-0.010748
1036.673356	-0.011246
1036.841287	-0.010811
1037.009200	-0.009310
1037.177094	-0.008456
1037.344970	-0.009665
1037.512828	-0.009537
1037.680668	-0.008802
1037.848489	-0.009285
1038.016293	-0.008283
1038.184078	-0.007323
1038.351845	-0.007093
1038.519593	-0.007274
1038.687324	-0.008589
1038.855036	-0.007188
1039.022730	-0.007627
1039.190406	-0.007567
1039.358063	-0.007196
1039.525702	-0.007622
1039.693323	-0.008309
1039.860926	-0.008872
1040.028511	-0.008658
1040.196077	-0.007747
1040.363625	-0.007919
1040.531155	-0.008067
1040.698667	-0.007846
1040.866161	-0.007812
1041.033636	-0.008205
1041.201093	-0.009237
1041.368532	-0.010874
1041.535952	-0.011703
1041.703355	-0.012046
1041.870739	-0.011889
1042.038105	-0.012235
1042.205452	-0.013594
1042.372782	-0.013255
1042.540093	-0.014011
1042.707386	-0.013093
1042.874661	-0.012538
1043.041918	-0.011038
1043.209156	-0.011286
1043.376376	-0.012663
1043.543578	-0.011890
1043.710762	-0.010225
1043.877927	-0.009775
1044.045074	-0.009124
1044.212203	-0.008634
1044.379314	-0.007678
1044.546407	-0.008027
1044.713481	-0.007765
1044.880537	-0.006527
1045.047575	-0.005918
1045.214595	-0.007315
1045.381596	-0.007015
1045.548579	-0.006505
1045.715544	-0.005747
1045.882491	-0.005004
1046.049420	-0.004333
1046.216330	-0.003820
1046.383222	-0.002591
1046.550096	-0.003634
1046.716951	-0.004633
1046.883789	-0.005711
1047.050608	-0.006856
1047.217409	-0.007577
1047.384192	-0.007928
1047.550956	-0.008486
1047.717703	-0.008334
1047.884431	-0.009147
1048.051140	-0.008931
1048.217832	-0.007763
1048.384505	-0.006668
1048.551161	-0.005426
1048.717798	-0.005347
1048.884416	-0.005315
1049.051017	-0.007007
1049.217599	-0.007605
1049.384163	-0.008113
1049.550709	-0.006614
1049.717237	-0.004674
1049.883746	-0.004891
1050.050237	-0.005263
1050.216710	-0.006570
1050.383165	-0.006683
1050.549601	-0.007018
1050.716019	-0.006482
1050.882420	-0.005633
1051.048801	-0.007532
1051.215165	-0.008363
1051.381510	-0.007793
1051.547837	-0.007958
1051.714146	-0.007026
1051.880437	-0.007326
1052.046709	-0.007530
1052.212964	-0.007357
1052.379200	-0.006988
1052.545417	-0.005032
1052.711617	-0.006507
1052.877798	-0.007903
1053.043961	-0.006551
1053.210106	-0.006281
1053.376233	-0.006355
1053.542341	-0.003999
1053.708432	-0.003257
1053.874504	-0.004553
1054.040557	-0.006817
1054.206593	-0.005357
1054.372610	-0.005749
1054.538609	-0.007196
1054.704590	-0.006613
1054.870553	-0.006104
1055.036497	-0.007295
1055.202424	-0.007385
1055.368331	-0.007091
1055.534221	-0.005485
1055.700093	-0.005178
1055.865946	-0.004480
1056.031781	-0.004346
1056.197598	-0.003715
1056.363397	-0.003249
1056.529177	-0.003237
1056.694939	-0.003016
1056.860683	-0.002620
1057.026409	-0.002971
1057.192116	-0.004172
1057.357806	-0.004126
1057.523477	-0.004924
1057.689130	-0.006480
1057.854764	-0.006529
1058.020381	-0.006870
1058.185979	-0.009433
1058.351559	-0.010285
1058.517120	-0.008994
1058.682664	-0.009331
1058.848189	-0.010185
1059.013696	-0.008696
1059.179185	-0.008703
1059.344656	-0.009950
1059.510108	-0.007804
1059.675542	-0.004899
1059.840958	-0.002638
1060.006356	-0.002805
1060.171735	-0.001156
1060.337096	0.000392
1060.502439	-0.000527
1060.667764	-0.000249
1060.833071	-0.000751
1060.998359	0.000314
1061.163629	-0.001231
1061.328881	-0.002577
1061.494115	-0.003210
1061.659330	-0.005663
1061.824527	-0.008046
1061.989706	-0.007338
1062.154867	-0.006959
1062.320010	-0.005435
1062.485134	-0.006797
1062.650240	-0.007312
1062.815328	-0.007397
1062.980398	-0.007356
1063.145449	-0.005224
1063.310482	-0.003304
1063.475497	-0.003101
1063.640494	-0.005679
1063.805473	-0.005178
1063.970433	-0.006548
1064.135375	-0.005772
1064.300299	-0.006133
1064.465204	-0.007344
1064.630092	-0.008482
1064.794961	-0.008917
1064.959812	-0.010826
1065.124645	-0.008570
1065.289459	-0.007678
1065.454256	-0.007211
1065.619034	-0.008216
1065.783793	-0.007088
1065.948535	-0.005862
1066.113258	-0.006465
1066.277964	-0.006019
1066.442651	-0.004114
1066.607319	-0.003951
1066.771970	-0.006320
1066.936602	-0.007233
1067.101216	-0.007672
1067.265812	-0.008067
1067.430389	-0.007372
1067.594949	-0.006018
1067.759490	-0.005843
1067.924013	-0.006229
1068.088518	-0.008360
1068.253004	-0.009098
1068.417472	-0.008950
1068.581922	-0.006152
1068.746354	-0.007922
1068.910768	-0.008652
1069.075163	-0.010374
1069.239540	-0.010353
1069.403899	-0.011321
1069.568240	-0.008850
1069.732562	-0.007791
1069.896866	-0.006177
1070.061152	-0.007906
1070.225420	-0.005590
1070.389670	-0.005603
1070.553901	-0.002959
1070.718114	-0.005280
1070.882309	-0.004395
1071.046486	-0.006597
1071.210644	-0.004683
1071.374784	-0.005257
1071.538906	-0.004931
1071.703010	-0.005448
1071.867096	-0.003996
1072.031163	-0.005461
1072.195212	-0.004014
1072.359243	-0.002882
1072.523256	-0.001460
1072.687250	-0.004035
1072.851226	-0.004550
1073.015184	-0.004122
1073.179124	-0.006183
1073.343045	-0.006471
1073.506949	-0.006223
1073.670834	-0.004395
1073.834701	-0.006959
1073.998549	-0.005991
1074.162380	-0.005776
1074.326192	-0.004546
1074.489986	-0.005502
1074.653761	-0.002486
1074.817519	-0.004324
1074.981258	-0.005451
1075.144979	-0.006422
1075.308682	-0.003517
1075.472367	-0.002492
1075.636033	-0.002977
1075.799681	-0.004942
1075.963311	-0.004484
1076.126923	-0.007104
1076.290516	-0.006650
1076.454092	-0.006483
1076.617649	-0.009213
1076.781187	-0.009875
1076.944708	-0.012057
1077.108210	-0.011573
1077.271695	-0.010776
1077.435160	-0.010157
1077.598608	-0.009658
1077.762038	-0.011778
1077.925449	-0.011514
1078.088842	-0.009039
1078.252217	-0.010523
1078.415573	-0.010820
1078.578912	-0.007445
1078.742232	-0.008606
1078.905534	-0.009580
1079.068817	-0.008598
1079.232083	-0.005508
1079.395330	-0.003313
1079.558559	-0.002126
1079.721770	-0.002168
1079.884962	-0.002613
1080.048136	-0.006323
1080.211293	-0.003644
1080.374430	-0.003620
1080.537550	-0.004564
1080.700651	-0.005727
1080.863735	-0.005211
1081.026800	-0.006647
1081.189846	-0.005446
1081.352875	-0.004610
1081.515885	-0.004327
1081.678877	-0.006370
1081.841851	-0.003657
1082.004807	-0.003056
1082.167744	-0.003038
1082.330663	-0.006129
1082.493564	-0.007033
1082.656447	-0.007619
1082.819312	-0.009569
1082.982158	-0.007965
1083.144986	-0.008941
1083.307796	-0.012478
1083.470587	-0.010750
1083.633361	-0.011224
1083.796116	-0.010322
1083.958853	-0.008504
1084.121571	-0.010655
1084.284272	-0.009582
1084.446954	-0.010123
1084.609618	-0.009355
1084.772264	-0.007555
1084.934892	-0.009237
1085.097501	-0.009618
1085.260092	-0.011189
1085.422665	-0.012578
1085.585220	-0.012652
1085.747756	-0.010482
1085.910274	-0.010663
1086.072774	-0.010699
1086.235256	-0.011220
1086.397720	-0.011984
1086.560165	-0.012339
1086.722592	-0.012208
1086.885001	-0.011767
1087.047392	-0.009514
1087.209764	-0.010043
1087.372119	-0.010897
1087.534455	-0.009953
1087.696772	-0.008842
1087.859072	-0.008400
1088.021353	-0.007937
1088.183616	-0.006036
1088.345861	-0.008416
1088.508088	-0.005864
1088.670296	-0.006068
1088.832486	-0.003660
1088.994658	-0.002000
1089.156812	-0.005137
1089.318948	-0.002607
1089.481065	-0.002921
1089.643164	-0.001627
1089.805245	-0.000178
1089.967308	-0.002691
1090.129352	-0.001605
1090.291378	-0.005217
1090.453386	-0.007951
1090.615376	-0.004828
1090.777347	-0.006042
1090.939301	-0.004096
1091.101236	-0.006330
1091.263153	-0.004153
1091.425051	-0.002301
1091.586932	-0.003645
1091.748794	-0.001239
1091.910638	0.002099
1092.072463	0.001486
1092.234271	0.001029
1092.396060	-0.001194
1092.557831	-0.000533
1092.719584	-0.003821
1092.881319	-0.003727
1093.043035	-0.003815
1093.204733	-0.004492
1093.366413	-0.005572
1093.528075	-0.007648
1093.689718	-0.008372
1093.851343	-0.006073
1094.012950	-0.006995
1094.174539	-0.005335
1094.336110	-0.009278
1094.497662	-0.009377
1094.659196	-0.009770
1094.820712	-0.012750
1094.982210	-0.011819
1095.143689	-0.010545
1095.305151	-0.013689
1095.466594	-0.011337
1095.628018	-0.011315
1095.789425	-0.010476
1095.950813	-0.011432
1096.112183	-0.010484
1096.273535	-0.009495
1096.434869	-0.007512
1096.596184	-0.009465
1096.757482	-0.006102
1096.918761	-0.008975
1097.080021	-0.008289
1097.241264	-0.004873
1097.402488	-0.005490
1097.563694	-0.007234
1097.724882	-0.004942
1097.886052	-0.008775
1098.047203	-0.010007
1098.208336	-0.008145
1098.369451	-0.005075
1098.530548	-0.004908
1098.691627	-0.005515
1098.852687	-0.004998
1099.013729	-0.003157
1099.174753	-0.003128
1099.335758	0.001233
1099.496746	0.001811
1099.657715	0.000569
1099.818666	0.001275
1099.979599	0.000508
1100.140513	-0.000038
1100.301409	-0.000103
1100.462287	0.001575
1100.623147	-0.001738
1100.783989	-0.001403
1100.944812	-0.003294
1101.105617	-0.005870
1101.266404	-0.007122
1101.427173	-0.008334
1101.587923	-0.011941
1101.748656	-0.010911
1101.909370	-0.011927
1102.070066	-0.009534
1102.230743	-0.011790
1102.391403	-0.011061
1102.552044	-0.012306
1102.712667	-0.013586
1102.873271	-0.012458
1103.033858	-0.010892
1103.194426	-0.011548
1103.354976	-0.015313
1103.515508	-0.015405
1103.676021	-0.017411
1103.836517	-0.014636
1103.996994	-0.014665
1104.157453	-0.015364
1104.317893	-0.015682
1104.478316	-0.014014
1104.638720	-0.012469
1104.799106	-0.008399
1104.959474	-0.010130
1105.119823	-0.007015
1105.280155	-0.007822
1105.440468	-0.003432
1105.600763	-0.003713
1105.761039	-0.003404
1105.921298	-0.002872
1106.081538	0.000380
1106.241760	0.000657
1106.401964	0.005431
1106.562149	0.004192
1106.722316	0.006142
1106.882465	0.002444
1107.042596	0.004180
1107.202709	0.007169
1107.362803	0.005275
1107.522879	-0.000615
1107.682937	-0.000283
1107.842977	-0.002628
1108.002999	-0.003151
1108.163002	-0.003559
1108.322987	-0.002758
1108.482954	-0.001096
1108.642902	-0.003239
1108.802833	-0.001959
1108.962745	0.002190
1109.122639	-0.001249
1109.282515	0.000919
1109.442372	0.001198
1109.602211	0.002720
1109.762032	0.002058
1109.921835	0.000726
1110.081620	-0.002003
1110.241386	-0.003200
1110.401134	-0.005377
1110.560864	-0.003697
1110.720576	-0.005203
1110.880269	-0.004567
1111.039945	-0.008505
1111.199602	-0.006834
1111.359240	-0.008959
1111.518861	-0.008079
1111.678463	-0.006671
1111.838047	-0.008815
1111.997613	-0.008452
1112.157161	-0.008511
1112.316690	-0.007092
1112.476202	-0.003580
1112.635695	-0.003866
1112.795169	-0.000630
1112.954626	0.001057
1113.114064	0.002539
1113.273484	0.004831
1113.432886	0.003750
1113.592270	0.002965
1113.751635	0.002445
1113.910983	0.001534
1114.070312	0.001649
1114.229622	-0.000160
1114.388915	-0.002444
1114.548189	-0.004420
1114.707445	-0.010429
1114.866683	-0.007759
1115.025903	-0.011985
1115.185104	-0.012328
1115.344287	-0.013617
1115.503452	-0.013739
1115.662599	-0.015263
1115.821727	-0.010568
1115.980838	-0.014005
1116.139930	-0.009450
1116.299004	-0.013570
1116.458059	-0.008947
1116.617097	-0.008936
1116.776116	-0.008762
1116.935117	-0.007702
1117.094099	-0.004993
1117.253064	-0.008065
1117.412010	-0.004358
1117.570938	-0.004386
1117.729848	-0.001222
1117.888740	-0.003226
1118.047613	-0.001627
1118.206468	-0.001282
1118.365305	-0.004924
1118.524124	-0.007861
1118.682924	-0.009331
1118.841707	-0.013034
1119.000471	-0.013560
1119.159216	-0.017590
1119.317944	-0.016159
1119.476653	-0.020943
1119.635344	-0.024103
1119.794017	-0.023244
1119.952672	-0.022402
1120.111308	-0.020416
1120.269927	-0.019430
1120.428527	-0.016847
1120.587108	-0.008446
1120.745672	-0.009578
1120.904217	-0.008548
1121.062744	-0.002375
1121.221253	0.001879
1121.379744	0.005774
1121.538216	0.006261
1121.696671	0.009461
1121.855107	0.007197
1122.013524	0.000969
1122.171924	-0.000100
1122.330305	0.000293
1122.488668	-0.001684
1122.647013	-0.003464
1122.805340	-0.008935
1122.963648	-0.011165
1123.121938	-0.013456
1123.280210	-0.009050
1123.438464	-0.007977
1123.596700	-0.005832
1123.754917	-0.002356
1123.913116	-0.001654
1124.071297	-0.003675
1124.229459	-0.004159
1124.387604	0.000330
1124.545730	0.000841
1124.703838	-0.002932
1124.861928	-0.003128
1125.019999	-0.000908
1125.178052	-0.001636
1125.336088	-0.004911
1125.494104	-0.006161
1125.652103	-0.000674
1125.810083	-0.003057
1125.968045	-0.002397
1126.125989	0.000818
1126.283915	0.001514
1126.441823	0.000616
1126.599712	-0.004381
1126.757583	-0.002911
1126.915436	0.002021
1127.073270	-0.003387
1127.231087	-0.002860
1127.388885	-0.002317
1127.546665	-0.009400
1127.704426	-0.007616
1127.862170	-0.011591
1128.019895	-0.009722
1128.177602	-0.013366
1128.335291	-0.014755
1128.492961	-0.011636
1128.650614	-0.014703
1128.808248	-0.013084
1128.965864	-0.005654
1129.123461	-0.010242
1129.281041	-0.009229
1129.438602	-0.009285
1129.596145	-0.008138
1129.753670	-0.006414
1129.911176	-0.004573
1130.068665	-0.003149
1130.226135	0.000378
1130.383587	-0.003097
1130.541020	0.000578
1130.698436	0.007142
1130.855833	0.008705
1131.013212	0.011717
1131.170573	0.005218
1131.327915	0.001137
1131.485239	0.001847
1131.642545	-0.001834
1131.799833	0.000982
1131.957103	0.002414
1132.114354	-0.001984
1132.271588	-0.005501
1132.428803	-0.008044
1132.585999	-0.004542
1132.743178	-0.001839
1132.900338	0.001237
1133.057480	-0.001988
1133.214604	-0.002488
1133.371710	-0.003634
1133.528797	-0.004470
1133.685866	0.001879
1133.842917	0.004624
1133.999950	0.005956
1134.156964	0.001007
1134.313960	-0.001934
1134.470938	-0.002355
1134.627898	-0.001650
1134.784840	-0.007290
1134.941763	-0.005131
1135.098668	-0.003833
1135.255555	-0.006213
1135.412424	-0.007756
1135.569274	-0.007122
1135.726107	-0.009179
1135.882921	-0.009884
1136.039716	-0.009958
1136.196494	-0.003428
1136.353253	-0.003444
1136.509995	-0.005263
1136.666717	0.002190
1136.823422	0.004493
1136.980109	0.005833
1137.136777	0.006496
1137.293427	0.013547
1137.450059	0.009717
1137.606672	0.004896
1137.763267	0.001788
1137.919844	-0.003782
1138.076403	-0.006010
1138.232944	-0.006250
1138.389466	-0.000910
1138.545971	0.000646
1138.702457	-0.002299
1138.858924	0.001799
1139.015374	0.004627
1139.171805	0.005694
1139.328218	0.006301
1139.484613	0.004447
1139.640990	0.002669
1139.797348	0.001916
1139.953688	0.000888
1140.110010	0.001576
1140.266314	0.002443
1140.422600	0.001353
1140.578867	0.006557
1140.735116	0.008528
1140.891347	0.008513
1141.047559	0.005799
1141.203754	0.005514
1141.359930	0.007892
1141.516088	0.002882
1141.672228	-0.003826
1141.828349	-0.004681
1141.984452	-0.009674
1142.140537	-0.008408
1142.296604	-0.010779
1142.452653	-0.013949
1142.608683	-0.017712
1142.764695	-0.021682
1142.920689	-0.018526
1143.076665	-0.015831
1143.232622	-0.016899
1143.388562	-0.013427
1143.544483	-0.012880
1143.700385	-0.014530
1143.856270	-0.007802
1144.012136	-0.006345
1144.167985	-0.000758
1144.323814	-0.002125
1144.479626	-0.002546
1144.635420	0.003892
1144.791195	-0.000835
1144.946952	-0.001932
1145.102691	0.003247
1145.258411	0.002033
1145.414113	0.002799
1145.569798	-0.002607
1145.725463	0.007020
1145.881111	0.008120
1146.036741	0.002003
1146.192352	0.006482
1146.347945	0.007256
1146.503519	-0.000934
1146.659076	0.001139
1146.814614	0.002244
1146.970134	-0.001644
1147.125636	-0.012992
1147.281120	-0.015610
1147.436585	-0.011510
1147.592032	-0.013838
1147.747461	-0.015244
1147.902872	-0.016638
1148.058265	-0.012444
1148.213639	-0.015563
1148.368995	-0.012633
1148.524333	-0.010479
1148.679653	-0.005513
1148.834954	-0.006583
1148.990237	-0.008507
1149.145502	-0.006022
1149.300749	-0.009016
1149.455977	-0.017416
1149.611188	-0.021632
1149.766380	-0.023502
1149.921553	-0.015610
1150.076709	-0.016366
1150.231846	-0.015244
1150.386966	-0.013449
1150.542066	-0.015483
1150.697149	-0.003881
1150.852214	-0.000084
1151.007260	-0.000414
1151.162288	0.003598
1151.317298	-0.004991
1151.472289	-0.004925
1151.627263	-0.004725
1151.782218	-0.008744
1151.937155	-0.007987
1152.092073	-0.009381
1152.246974	-0.010340
1152.401856	-0.006371
1152.556720	-0.008223
1152.711566	-0.007055
1152.866393	-0.012255
1153.021203	-0.017167
1153.175994	-0.009627
1153.330767	-0.009555
1153.485521	-0.004697
1153.640258	-0.006479
1153.794976	-0.002653
1153.949676	0.002545
1154.104358	0.004949
1154.259021	0.006361
1154.413667	0.009615
1154.568294	0.008972
1154.722903	0.012605
1154.877493	0.008799
1155.032066	0.012525
1155.186620	0.014667
1155.341156	0.012863
1155.495674	0.007335
1155.650173	0.003461
1155.804654	0.002335
1155.959118	-0.002721
1156.113562	-0.005981
1156.267989	-0.011230
1156.422397	-0.016984
1156.576788	-0.019943
1156.731160	-0.019752
1156.885513	-0.020009
1157.039849	-0.011886
1157.194166	-0.012874
1157.348465	-0.010033
1157.502746	-0.013334
1157.657009	-0.015431
1157.811253	-0.003141
1157.965479	-0.000570
1158.119687	0.000461
1158.273877	0.004670
1158.428048	-0.000145
1158.582201	-0.005290
1158.736337	-0.002663
1158.890453	0.001416
1159.044552	0.006877
1159.198632	0.000596
1159.352694	-0.000077
1159.506738	-0.001013
1159.660764	-0.007382
1159.814771	-0.011493
1159.968761	-0.010268
1160.122732	-0.012361
1160.276685	-0.015178
1160.430619	-0.014844
1160.584535	-0.019404
1160.738434	-0.016160
1160.892313	-0.018715
1161.046175	-0.011063
1161.200019	-0.003293
1161.353844	-0.005166
1161.507651	-0.011960
1161.661440	-0.006615
1161.815210	-0.008490
1161.968962	-0.003813
1162.122697	-0.008747
1162.276412	-0.011072
1162.430110	-0.014721
1162.583789	-0.010932
1162.737451	0.000362
1162.891094	0.010874
1163.044718	-0.000215
1163.198325	0.008166
1163.351913	0.008687
1163.505483	0.008064
1163.659035	0.013814
1163.812569	0.018440
1163.966084	0.017207
1164.119581	0.014035
1164.273060	0.002722
1164.426521	0.021384
1164.579964	0.013509
1164.733388	0.009713
1164.886794	0.021831
1165.040182	0.022635
1165.193551	0.013417
1165.346903	0.013014
1165.500236	0.005384
1165.653551	0.003352
1165.806848	-0.006582
1165.960126	-0.012636
1166.113386	-0.017339
1166.266628	-0.026286
1166.419852	-0.030724
1166.573058	-0.032180
1166.726245	-0.037776
1166.879414	-0.030320
1167.032565	-0.023219
1167.185698	-0.026066
1167.338812	-0.022161
1167.491909	-0.013085
1167.644987	-0.013102
1167.798046	-0.015122
1167.951088	-0.001169
1168.104111	-0.003278
1168.257117	0.004193
1168.410103	-0.000218
1168.563072	0.001442
1168.716023	0.004238
1168.868955	0.000604
1169.021869	-0.001355
1169.174765	0.004148
1169.327642	-0.006233
1169.480501	-0.006391
1169.633343	-0.017600
1169.786165	-0.006261
1169.938970	-0.007223
1170.091757	-0.005975
1170.244525	-0.007194
1170.397275	-0.001696
1170.550007	-0.007862
1170.702720	-0.009877
1170.855415	0.004583
1171.008092	0.014563
1171.160751	0.013787
1171.313392	0.024170
1171.466014	0.072893
1171.618619	0.077398
1171.771205	0.077398
1171.923772	0.077398
