sample name	sample
index	1024
start time	 04-19-2021  12:18:31 PM


Wavelength (nm)	Absorbance
494.344910	-0.085300
494.563924	-0.085300
494.782919	-0.085300
495.001897	-0.002828
495.220856	-0.044206
495.439797	-0.042586
495.658719	-0.032990
495.877624	-0.026802
496.096510	-0.031266
496.315378	-0.035687
496.534227	-0.033561
496.753059	-0.025060
496.971872	-0.021605
497.190667	0.019180
497.409444	0.034916
497.628203	0.039415
497.846943	0.041983
498.065665	0.043623
498.284369	0.045264
498.503055	0.046292
498.721723	0.045739
498.940372	0.046054
499.159003	0.044936
499.377616	0.045421
499.596210	0.045337
499.814787	0.045360
500.033345	0.044424
500.251885	0.043155
500.470406	0.042302
500.688910	0.042407
500.907395	0.041512
501.125862	0.041874
501.344311	0.040857
501.562742	0.040310
501.781154	0.040016
501.999548	0.040119
502.217924	0.041817
502.436282	0.041853
502.654621	0.041769
502.872942	0.042251
503.091245	0.042062
503.309530	0.042704
503.527797	0.042383
503.746045	0.041552
503.964275	0.041740
504.182487	0.040955
504.400681	0.040180
504.618856	0.039258
504.837013	0.039293
505.055152	0.039344
505.273273	0.038845
505.491376	0.039915
505.709460	0.040970
505.927526	0.040691
506.145574	0.040485
506.363604	0.040789
506.581615	0.041664
506.799608	0.040532
507.017583	0.040532
507.235540	0.039830
507.453478	0.039552
507.671399	0.039068
507.889301	0.040411
508.107185	0.041023
508.325050	0.041049
508.542898	0.040825
508.760727	0.041990
508.978538	0.042717
509.196330	0.043329
509.414105	0.043162
509.631861	0.042540
509.849599	0.041282
510.067319	0.040239
510.285021	0.040757
510.502704	0.040680
510.720369	0.040086
510.938016	0.039905
511.155645	0.040224
511.373255	0.040039
511.590848	0.040181
511.808422	0.040445
512.025977	0.040682
512.243515	0.039703
512.461034	0.040016
512.678536	0.040765
512.896018	0.040546
513.113483	0.040457
513.330930	0.039939
513.548358	0.040685
513.765768	0.040056
513.983160	0.040458
514.200533	0.040633
514.417889	0.040640
514.635226	0.039877
514.852545	0.040497
515.069845	0.040542
515.287128	0.040866
515.504392	0.039914
515.721638	0.040262
515.938866	0.039707
516.156075	0.039711
516.373267	0.039455
516.590440	0.040217
516.807594	0.038732
517.024731	0.038075
517.241850	0.038247
517.458950	0.038636
517.676032	0.038775
517.893095	0.039181
518.110141	0.039570
518.327168	0.039120
518.544177	0.038158
518.761168	0.038912
518.978141	0.038813
519.195095	0.038450
519.412031	0.038592
519.628949	0.038728
519.845849	0.038867
520.062731	0.038781
520.279594	0.038810
520.496439	0.039636
520.713266	0.040055
520.930074	0.041055
521.146865	0.041130
521.363637	0.041336
521.580391	0.040977
521.797127	0.040875
522.013844	0.040941
522.230543	0.040987
522.447224	0.040122
522.663887	0.040089
522.880532	0.039888
523.097158	0.040093
523.313766	0.039739
523.530356	0.039929
523.746928	0.039811
523.963481	0.040008
524.180017	0.040020
524.396534	0.040897
524.613032	0.040543
524.829513	0.040507
525.045975	0.040510
525.262420	0.040477
525.478845	0.040803
525.695253	0.040760
525.911643	0.040827
526.128014	0.041159
526.344367	0.040748
526.560702	0.041232
526.777018	0.041017
526.993316	0.040934
527.209597	0.041052
527.425858	0.040439
527.642102	0.040640
527.858328	0.040371
528.074535	0.040316
528.290724	0.040173
528.506894	0.039533
528.723047	0.039429
528.939181	0.039489
529.155297	0.039580
529.371395	0.039953
529.587475	0.039761
529.803536	0.040166
530.019579	0.040012
530.235604	0.040350
530.451611	0.040401
530.667600	0.040681
530.883570	0.040617
531.099522	0.040773
531.315456	0.040873
531.531372	0.040745
531.747269	0.040710
531.963148	0.040876
532.179009	0.041063
532.394852	0.041535
532.610676	0.041312
532.826482	0.041234
533.042271	0.041102
533.258040	0.041384
533.473792	0.041835
533.689525	0.041774
533.905240	0.042024
534.120937	0.041842
534.336616	0.041450
534.552277	0.041992
534.767919	0.042442
534.983543	0.042856
535.199149	0.042572
535.414736	0.042899
535.630306	0.042953
535.845857	0.043169
536.061390	0.043329
536.276904	0.043659
536.492401	0.043129
536.707879	0.042735
536.923339	0.042380
537.138781	0.042344
537.354204	0.041630
537.569610	0.041288
537.784997	0.040627
538.000366	0.040467
538.215716	0.039820
538.431049	0.039852
538.646363	0.039730
538.861659	0.039646
539.076937	0.040130
539.292196	0.040322
539.507438	0.040274
539.722661	0.040393
539.937866	0.040169
540.153052	0.040393
540.368221	0.040660
540.583371	0.040748
540.798503	0.041024
541.013617	0.040659
541.228712	0.040577
541.443789	0.040708
541.658848	0.041223
541.873889	0.041541
542.088912	0.041604
542.303916	0.041957
542.518902	0.042270
542.733870	0.042219
542.948820	0.041923
543.163752	0.042130
543.378665	0.042197
543.593560	0.041834
543.808437	0.041878
544.023295	0.041647
544.238136	0.041273
544.452958	0.041303
544.667762	0.041626
544.882548	0.041725
545.097315	0.041675
545.312064	0.041633
545.526795	0.041849
545.741508	0.041672
545.956203	0.042220
546.170879	0.042412
546.385537	0.042105
546.600177	0.041744
546.814799	0.041520
547.029402	0.041538
547.243988	0.041858
547.458555	0.041483
547.673103	0.041594
547.887634	0.041414
548.102146	0.041030
548.316640	0.041271
548.531116	0.041078
548.745574	0.041058
548.960013	0.041113
549.174435	0.040548
549.388838	0.040718
549.603222	0.040502
549.817589	0.040480
550.031937	0.040409
550.246267	0.040053
550.460579	0.040013
550.674873	0.040437
550.889148	0.040342
551.103405	0.040771
551.317644	0.040820
551.531865	0.041144
551.746068	0.041414
551.960252	0.041697
552.174418	0.041797
552.388566	0.041936
552.602696	0.041722
552.816807	0.041629
553.030900	0.041148
553.244975	0.040618
553.459032	0.040282
553.673070	0.040254
553.887091	0.039959
554.101093	0.039702
554.315077	0.039060
554.529042	0.039391
554.742990	0.039314
554.956919	0.039876
555.170830	0.040403
555.384722	0.040512
555.598597	0.040395
555.812453	0.040600
556.026291	0.040938
556.240111	0.041404
556.453913	0.041045
556.667696	0.040959
556.881461	0.040832
557.095208	0.040535
557.308937	0.040592
557.522647	0.040437
557.736339	0.040326
557.950013	0.040315
558.163669	0.040473
558.377307	0.040505
558.590926	0.040355
558.804527	0.039958
559.018110	0.039749
559.231675	0.039544
559.445221	0.039515
559.658749	0.039570
559.872259	0.039428
560.085751	0.039088
560.299225	0.039009
560.512680	0.039047
560.726117	0.038928
560.939536	0.039028
561.152937	0.039032
561.366319	0.039091
561.579683	0.038893
561.793029	0.039057
562.006357	0.039338
562.219667	0.039240
562.432958	0.039235
562.646231	0.039673
562.859486	0.039764
563.072723	0.039394
563.285941	0.039287
563.499141	0.039240
563.712323	0.039078
563.925487	0.038764
564.138632	0.038683
564.351760	0.038861
564.564869	0.038407
564.777960	0.038205
564.991032	0.038492
565.204087	0.038415
565.417123	0.038641
565.630141	0.038339
565.843140	0.038734
566.056122	0.038799
566.269085	0.038555
566.482030	0.038597
566.694957	0.038498
566.907866	0.038478
567.120756	0.038370
567.333628	0.037734
567.546482	0.037939
567.759318	0.037601
567.972135	0.037295
568.184935	0.037220
568.397716	0.037139
568.610478	0.037186
568.823223	0.037048
569.035949	0.036526
569.248657	0.036737
569.461347	0.036602
569.674019	0.036402
569.886672	0.036782
570.099308	0.036720
570.311925	0.036640
570.524523	0.036578
570.737104	0.036896
570.949666	0.037437
571.162210	0.037629
571.374736	0.037667
571.587244	0.037925
571.799733	0.037649
572.012205	0.037727
572.224658	0.037946
572.437092	0.037951
572.649509	0.037659
572.861907	0.037502
573.074287	0.037480
573.286649	0.037388
573.498993	0.037027
573.711318	0.036966
573.923625	0.037005
574.135914	0.036917
574.348185	0.036792
574.560438	0.036838
574.772672	0.036775
574.984888	0.036716
575.197086	0.036888
575.409266	0.036983
575.621427	0.037054
575.833570	0.036996
576.045695	0.037073
576.257802	0.037288
576.469890	0.037218
576.681961	0.037342
576.894013	0.037542
577.106046	0.037647
577.318062	0.037826
577.530059	0.037923
577.742039	0.038038
577.954000	0.038135
578.165942	0.038218
578.377867	0.038162
578.589773	0.037788
578.801661	0.037495
579.013531	0.037326
579.225382	0.037387
579.437216	0.037291
579.649031	0.037291
579.860828	0.037135
580.072606	0.036874
580.284367	0.036548
580.496109	0.036844
580.707833	0.036845
580.919539	0.036659
581.131227	0.036516
581.342896	0.036614
581.554547	0.036566
581.766180	0.036231
581.977795	0.036430
582.189391	0.036476
582.400969	0.036317
582.612529	0.036380
582.824071	0.036355
583.035595	0.036326
583.247100	0.035912
583.458587	0.035743
583.670056	0.035824
583.881506	0.035878
584.092939	0.036107
584.304353	0.036209
584.515749	0.036202
584.727127	0.036449
584.938486	0.036596
585.149828	0.036880
585.361151	0.036928
585.572456	0.037215
585.783742	0.037180
585.995011	0.037323
586.206261	0.037480
586.417493	0.037442
586.628706	0.037456
586.839902	0.037373
587.051079	0.037427
587.262238	0.037370
587.473379	0.037240
587.684502	0.037213
587.895606	0.036971
588.106692	0.037139
588.317760	0.036842
588.528810	0.036694
588.739841	0.036349
588.950855	0.036488
589.161850	0.036424
589.372827	0.036619
589.583785	0.036467
589.794726	0.036711
590.005648	0.036496
590.216552	0.036831
590.427437	0.036880
590.638305	0.037302
590.849154	0.037073
591.059985	0.037324
591.270798	0.037480
591.481592	0.037637
591.692369	0.037552
591.903127	0.037354
592.113867	0.037316
592.324588	0.037519
592.535292	0.037432
592.745977	0.037643
592.956644	0.037599
593.167293	0.037595
593.377923	0.037670
593.588536	0.037664
593.799130	0.038124
594.009706	0.038218
594.220263	0.038178
594.430803	0.038061
594.641324	0.038078
594.851827	0.038179
595.062312	0.038109
595.272778	0.037933
595.483227	0.038043
595.693657	0.037889
595.904069	0.038250
596.114462	0.038041
596.324838	0.038362
596.535195	0.038152
596.745534	0.038187
596.955855	0.037886
597.166157	0.038138
597.376441	0.038192
597.586707	0.038278
597.796955	0.038126
598.007185	0.038434
598.217396	0.038655
598.427589	0.038668
598.637764	0.038585
598.847921	0.038818
599.058060	0.038878
599.268180	0.038700
599.478282	0.038562
599.688366	0.038364
599.898431	0.038358
600.108479	0.037831
600.318508	0.038238
600.528519	0.038412
600.738511	0.038487
600.948486	0.038410
601.158442	0.038439
601.368380	0.038389
601.578300	0.038323
601.788202	0.038085
601.998085	0.038211
602.207950	0.038010
602.417797	0.037836
602.627626	0.037813
602.837436	0.037712
603.047228	0.038010
603.257002	0.038112
603.466758	0.038066
603.676496	0.038124
603.886215	0.038213
604.095916	0.038132
604.305599	0.038013
604.515264	0.038030
604.724910	0.037947
604.934538	0.037608
605.144148	0.037623
605.353740	0.037532
605.563314	0.037557
605.772869	0.037412
605.982406	0.037198
606.191925	0.037247
606.401425	0.037348
606.610908	0.037214
606.820372	0.037496
607.029818	0.037312
607.239246	0.037340
607.448655	0.037170
607.658047	0.037342
607.867420	0.037494
608.076775	0.037344
608.286111	0.037042
608.495430	0.037073
608.704730	0.036744
608.914012	0.036868
609.123275	0.037071
609.332521	0.037298
609.541748	0.037089
609.750957	0.037285
609.960148	0.037232
610.169321	0.037181
610.378475	0.037317
610.587611	0.037219
610.796729	0.036827
611.005829	0.036417
611.214910	0.036208
611.423974	0.036291
611.633019	0.035971
611.842045	0.035965
612.051054	0.036107
612.260044	0.036007
612.469017	0.036140
612.677970	0.036317
612.886906	0.036529
613.095824	0.036618
613.304723	0.036530
613.513604	0.036787
613.722467	0.036916
613.931311	0.036848
614.140138	0.036653
614.348946	0.036648
614.557736	0.036740
614.766507	0.036665
614.975261	0.036475
615.183996	0.036549
615.392713	0.036489
615.601412	0.036871
615.810092	0.036787
616.018754	0.037008
616.227399	0.036914
616.436024	0.036952
616.644632	0.036965
616.853222	0.037016
617.061793	0.036880
617.270346	0.036688
617.478880	0.036420
617.687397	0.036517
617.895895	0.036463
618.104375	0.036793
618.312837	0.036720
618.521281	0.036896
618.729706	0.036995
618.938113	0.037256
619.146502	0.037484
619.354873	0.037560
619.563226	0.037503
619.771560	0.037773
619.979876	0.037721
620.188174	0.037828
620.396453	0.037866
620.604715	0.037831
620.812958	0.037561
621.021183	0.037419
621.229390	0.037302
621.437578	0.037268
621.645748	0.036946
621.853900	0.036809
622.062034	0.036976
622.270150	0.037211
622.478247	0.037254
622.686326	0.037410
622.894387	0.037550
623.102430	0.037734
623.310454	0.037892
623.518461	0.037901
623.726449	0.037857
623.934418	0.037808
624.142370	0.037372
624.350303	0.037483
624.558218	0.037479
624.766115	0.037524
624.973994	0.037195
625.181855	0.037294
625.389697	0.037374
625.597521	0.037416
625.805327	0.037376
626.013114	0.037269
626.220883	0.037222
626.428634	0.037129
626.636367	0.037104
626.844082	0.037293
627.051778	0.037147
627.259457	0.037340
627.467117	0.037417
627.674758	0.037342
627.882382	0.037584
628.089987	0.037684
628.297574	0.037766
628.505143	0.037617
628.712694	0.037744
628.920226	0.037850
629.127740	0.037967
629.335236	0.037937
629.542714	0.038163
629.750174	0.038234
629.957615	0.038040
630.165038	0.038105
630.372443	0.038108
630.579829	0.038046
630.787198	0.038080
630.994548	0.038097
631.201880	0.038346
631.409194	0.038335
631.616489	0.038381
631.823766	0.038533
632.031025	0.038737
632.238266	0.039172
632.445489	0.039262
632.652693	0.039350
632.859879	0.039235
633.067047	0.039066
633.274197	0.038884
633.481329	0.038820
633.688442	0.038960
633.895537	0.038890
634.102614	0.038734
634.309672	0.038770
634.516713	0.038871
634.723735	0.039052
634.930739	0.038958
635.137724	0.039039
635.344692	0.039135
635.551641	0.039186
635.758572	0.039125
635.965485	0.039166
636.172379	0.038974
636.379256	0.038784
636.586114	0.038634
636.792954	0.038769
636.999775	0.038806
637.206579	0.038814
637.413364	0.038627
637.620131	0.038610
637.826880	0.038404
638.033610	0.038611
638.240323	0.038717
638.447017	0.038415
638.653692	0.038482
638.860350	0.038577
639.066990	0.038432
639.273611	0.038468
639.480214	0.038470
639.686798	0.038568
639.893365	0.038435
640.099913	0.038203
640.306443	0.038540
640.512955	0.038559
640.719449	0.038575
640.925924	0.038718
641.132381	0.038767
641.338820	0.038795
641.545241	0.038996
641.751644	0.039207
641.958028	0.039465
642.164394	0.039541
642.370742	0.039582
642.577071	0.039594
642.783383	0.039843
642.989676	0.039878
643.195951	0.039866
643.402207	0.039825
643.608446	0.039649
643.814666	0.039517
644.020868	0.039538
644.227052	0.039633
644.433218	0.039651
644.639365	0.039630
644.845494	0.039600
645.051605	0.039670
645.257698	0.039568
645.463772	0.039882
645.669828	0.039940
645.875866	0.039821
646.081886	0.039666
646.287888	0.039656
646.493871	0.039450
646.699836	0.039421
646.905783	0.039763
647.111712	0.039784
647.317622	0.039641
647.523514	0.039671
647.729388	0.039832
647.935244	0.039819
648.141082	0.039897
648.346901	0.040032
648.552702	0.040180
648.758485	0.040040
648.964250	0.040264
649.169996	0.040372
649.375724	0.040431
649.581434	0.040480
649.787126	0.040549
649.992800	0.040568
650.198455	0.040407
650.404092	0.040276
650.609711	0.040108
650.815311	0.039978
651.020894	0.039873
651.226458	0.039914
651.432004	0.039747
651.637532	0.040048
651.843041	0.040010
652.048532	0.040143
652.254006	0.040126
652.459460	0.040267
652.664897	0.040252
652.870315	0.040241
653.075716	0.040232
653.281097	0.040369
653.486461	0.040224
653.691807	0.040220
653.897134	0.040352
654.102443	0.040606
654.307734	0.040666
654.513006	0.040820
654.718261	0.040914
654.923497	0.040977
655.128715	0.040750
655.333915	0.040792
655.539096	0.040947
655.744259	0.041048
655.949404	0.041029
656.154531	0.040971
656.359640	0.040906
656.564730	0.040940
656.769802	0.040938
656.974856	0.041307
657.179892	0.041263
657.384909	0.041262
657.589908	0.041237
657.794889	0.041377
657.999852	0.041464
658.204797	0.041491
658.409723	0.041755
658.614631	0.041924
658.819521	0.041880
659.024393	0.041959
659.229246	0.041923
659.434081	0.041890
659.638898	0.041752
659.843697	0.041844
660.048478	0.041931
660.253240	0.041676
660.457984	0.041593
660.662710	0.041593
660.867417	0.041579
661.072107	0.041588
661.276778	0.041661
661.481431	0.041725
661.686066	0.041777
661.890682	0.041808
662.095281	0.041956
662.299861	0.042040
662.504422	0.042136
662.708966	0.042129
662.913491	0.042194
663.117999	0.042086
663.322488	0.042120
663.526958	0.042104
663.731411	0.042047
663.935845	0.041818
664.140261	0.041733
664.344659	0.041763
664.549038	0.041735
664.753400	0.041668
664.957743	0.041669
665.162068	0.041665
665.366375	0.041564
665.570663	0.041576
665.774933	0.041651
665.979185	0.041599
666.183419	0.041443
666.387635	0.041453
666.591832	0.041524
666.796011	0.041599
667.000172	0.041590
667.204315	0.041737
667.408439	0.041951
667.612545	0.042135
667.816634	0.042400
668.020703	0.042598
668.224755	0.042748
668.428788	0.042882
668.632803	0.042981
668.836800	0.042929
669.040779	0.043020
669.244739	0.042849
669.448681	0.043003
669.652605	0.042932
669.856511	0.042908
670.060399	0.042994
670.264268	0.042856
670.468119	0.042775
670.671952	0.042967
670.875767	0.042715
671.079563	0.042843
671.283341	0.042699
671.487101	0.042586
671.690843	0.042509
671.894567	0.042468
672.098272	0.042570
672.301959	0.042722
672.505628	0.042717
672.709278	0.042776
672.912911	0.042919
673.116525	0.043025
673.320121	0.043177
673.523699	0.043171
673.727258	0.043239
673.930799	0.043239
674.134322	0.043244
674.337827	0.043095
674.541314	0.043164
674.744782	0.042931
674.948232	0.042884
675.151664	0.042731
675.355078	0.042855
675.558474	0.042628
675.761851	0.042468
675.965210	0.042355
676.168551	0.042452
676.371873	0.042522
676.575178	0.042588
676.778464	0.042408
676.981732	0.042538
677.184981	0.042570
677.388213	0.042761
677.591426	0.042714
677.794621	0.042804
677.997798	0.042819
678.200956	0.042760
678.404097	0.042818
678.607219	0.042887
678.810323	0.042869
679.013408	0.042736
679.216476	0.042726
679.419525	0.042993
679.622556	0.042993
679.825569	0.043190
680.028563	0.043201
680.231540	0.043089
680.434498	0.043180
680.637438	0.043055
680.840359	0.043193
681.043263	0.043088
681.246148	0.042957
681.449015	0.042826
681.651864	0.042672
681.854694	0.042685
682.057506	0.042913
682.260301	0.042955
682.463076	0.043113
682.665834	0.042979
682.868573	0.043093
683.071295	0.043237
683.273998	0.043530
683.476682	0.043586
683.679349	0.043556
683.881997	0.043436
684.084627	0.043452
684.287239	0.043466
684.489833	0.043508
684.692408	0.043501
684.894965	0.043504
685.097504	0.043221
685.300025	0.043104
685.502527	0.043190
685.705012	0.043273
685.907478	0.043389
686.109925	0.043523
686.312355	0.043697
686.514766	0.043831
686.717159	0.043921
686.919534	0.044150
687.121891	0.044276
687.324230	0.044259
687.526550	0.044338
687.728852	0.044219
687.931136	0.043990
688.133401	0.043888
688.335649	0.043856
688.537878	0.043902
688.740089	0.043590
688.942281	0.043602
689.144456	0.043612
689.346612	0.043327
689.548750	0.043229
689.750870	0.043366
689.952971	0.043277
690.155055	0.043228
690.357120	0.043149
690.559167	0.043416
690.761195	0.043311
690.963206	0.043117
691.165198	0.043107
691.367172	0.043182
691.569128	0.042902
691.771065	0.042938
691.972984	0.042784
692.174885	0.042596
692.376768	0.042504
692.578633	0.042676
692.780479	0.042820
692.982308	0.042912
693.184118	0.042961
693.385909	0.043237
693.587683	0.043317
693.789438	0.043280
693.991175	0.043379
694.192894	0.043424
694.394595	0.043248
694.596277	0.043287
694.797941	0.043281
694.999587	0.043209
695.201215	0.042918
695.402824	0.042906
695.604416	0.042928
695.805989	0.042760
696.007543	0.042641
696.209080	0.042632
696.410598	0.042559
696.612099	0.042578
696.813580	0.042582
697.015044	0.042910
697.216490	0.042833
697.417917	0.042805
697.619326	0.042921
697.820717	0.042894
698.022089	0.042795
698.223444	0.042889
698.424780	0.042883
698.626098	0.042734
698.827397	0.042707
699.028679	0.042753
699.229942	0.042757
699.431187	0.042744
699.632414	0.042645
699.833622	0.042822
700.034813	0.042785
700.235985	0.042814
700.437139	0.042964
700.638274	0.042918
700.839392	0.042897
701.040491	0.043068
701.241572	0.043206
701.442635	0.043358
701.643679	0.043390
701.844706	0.043401
702.045714	0.043393
702.246704	0.043541
702.447675	0.043544
702.648629	0.043704
702.849564	0.043720
703.050481	0.043785
703.251380	0.043978
703.452260	0.043956
703.653122	0.044070
703.853966	0.044164
704.054792	0.044115
704.255600	0.044195
704.456389	0.044156
704.657160	0.044198
704.857913	0.044102
705.058648	0.044171
705.259365	0.044326
705.460063	0.044290
705.660743	0.044421
705.861405	0.044616
706.062048	0.044815
706.262674	0.044873
706.463281	0.044951
706.663870	0.045020
706.864441	0.044912
707.064993	0.044838
707.265527	0.044692
707.466043	0.044616
707.666541	0.044248
707.867021	0.044096
708.067482	0.044107
708.267925	0.044096
708.468350	0.043991
708.668757	0.044024
708.869145	0.044003
709.069516	0.044202
709.269868	0.044206
709.470201	0.044219
709.670517	0.044192
709.870814	0.044041
710.071093	0.044025
710.271354	0.044103
710.471597	0.043955
710.671821	0.044030
710.872028	0.043833
711.072216	0.043632
711.272385	0.043764
711.472537	0.043660
711.672670	0.043685
711.872785	0.043632
712.072882	0.043658
712.272961	0.043778
712.473021	0.043576
712.673063	0.043657
712.873087	0.043644
713.073093	0.043560
713.273081	0.043734
713.473050	0.043802
713.673001	0.043569
713.872934	0.043366
714.072849	0.043296
714.272745	0.043434
714.472623	0.043500
714.672483	0.043508
714.872325	0.043368
715.072148	0.043120
715.271954	0.042877
715.471741	0.043045
715.671509	0.043121
715.871260	0.042940
716.070992	0.042865
716.270707	0.042732
716.470403	0.042772
716.670080	0.042817
716.869740	0.042645
717.069381	0.042622
717.269004	0.042515
717.468609	0.042428
717.668195	0.042635
717.867764	0.042502
718.067314	0.042391
718.266846	0.042379
718.466360	0.042449
718.665855	0.042579
718.865332	0.042811
719.064791	0.042803
719.264232	0.042719
719.463655	0.042593
719.663059	0.042633
719.862445	0.042819
720.061813	0.042666
720.261163	0.042577
720.460494	0.042661
720.659807	0.042536
720.859102	0.042421
721.058379	0.042702
721.257638	0.042707
721.456878	0.042602
721.656100	0.042386
721.855304	0.042275
722.054490	0.042243
722.253657	0.042073
722.452806	0.042041
722.651937	0.041925
722.851050	0.041550
723.050145	0.041438
723.249221	0.041329
723.448279	0.041314
723.647319	0.041300
723.846340	0.041098
724.045344	0.041038
724.244329	0.040978
724.443296	0.041054
724.642245	0.041067
724.841175	0.040906
725.040088	0.041023
725.238982	0.040870
725.437857	0.040692
725.636715	0.040907
725.835554	0.040867
726.034376	0.040773
726.233179	0.040700
726.431963	0.040588
726.630730	0.040566
726.829478	0.040477
727.028208	0.040593
727.226920	0.040753
727.425614	0.040531
727.624289	0.040582
727.822946	0.040482
728.021585	0.040570
728.220206	0.040602
728.418808	0.040577
728.617392	0.040497
728.815958	0.040310
729.014506	0.040323
729.213036	0.040357
729.411547	0.040284
729.610040	0.040318
729.808515	0.040079
730.006972	0.040109
730.205410	0.039990
730.403831	0.039899
730.602233	0.039947
730.800616	0.039888
730.998982	0.039722
731.197329	0.039635
731.395658	0.039664
731.593969	0.039662
731.792262	0.039540
731.990536	0.039726
732.188793	0.039924
732.387031	0.040119
732.585250	0.040086
732.783452	0.040401
732.981635	0.040611
733.179800	0.040691
733.377947	0.040912
733.576076	0.041054
733.774186	0.041167
733.972278	0.041101
734.170352	0.040931
734.368408	0.040895
734.566446	0.040779
734.764465	0.040589
734.962466	0.040433
735.160449	0.040177
735.358413	0.039868
735.556360	0.039634
735.754288	0.039572
735.952198	0.039468
736.150090	0.039661
736.347963	0.039504
736.545818	0.039600
736.743655	0.039515
736.941474	0.039703
737.139275	0.039837
737.337057	0.039943
737.534821	0.039947
737.732567	0.040118
737.930295	0.040142
738.128005	0.040328
738.325696	0.040303
738.523369	0.040415
738.721024	0.040376
738.918660	0.040507
739.116279	0.040622
739.313879	0.040855
739.511461	0.040882
739.709024	0.040985
739.906570	0.040932
740.104097	0.040942
740.301606	0.040952
740.499097	0.041114
740.696569	0.041218
740.894024	0.041127
741.091460	0.040968
741.288878	0.041023
741.486277	0.040944
741.683659	0.041139
741.881022	0.041197
742.078367	0.041436
742.275694	0.041368
742.473002	0.041485
742.670293	0.041671
742.867565	0.041742
743.064819	0.041699
743.262054	0.041554
743.459272	0.041514
743.656471	0.041603
743.853652	0.041635
744.050815	0.041846
744.247959	0.041918
744.445085	0.041997
744.642194	0.042177
744.839283	0.042283
745.036355	0.042358
745.233408	0.042328
745.430444	0.042387
745.627461	0.042233
745.824459	0.041995
746.021440	0.041803
746.218402	0.041598
746.415346	0.041279
746.612272	0.041208
746.809180	0.041144
747.006069	0.041119
747.202940	0.040859
747.399793	0.040711
747.596628	0.040688
747.793444	0.040560
747.990243	0.040580
748.187023	0.040499
748.383784	0.040301
748.580528	0.040261
748.777253	0.040056
748.973960	0.039868
749.170649	0.039854
749.367320	0.039833
749.563973	0.039754
749.760607	0.039536
749.957223	0.039443
750.153821	0.039284
750.350400	0.039200
750.546962	0.039160
750.743505	0.039424
750.940030	0.039186
751.136536	0.038948
751.333025	0.038945
751.529495	0.038982
751.725947	0.039111
751.922381	0.039129
752.118796	0.039130
752.315194	0.038866
752.511573	0.038706
752.707934	0.038897
752.904276	0.038899
753.100601	0.038801
753.296907	0.038625
753.493195	0.038412
753.689465	0.038369
753.885716	0.038290
754.081949	0.038486
754.278164	0.038432
754.474361	0.038234
754.670540	0.038262
754.866700	0.038302
755.062843	0.038227
755.258967	0.038390
755.455072	0.038337
755.651160	0.038612
755.847229	0.038822
756.043280	0.038861
756.239313	0.039154
756.435328	0.039224
756.631324	0.039196
756.827302	0.039494
757.023262	0.039431
757.219204	0.039477
757.415127	0.039313
757.611033	0.039160
757.806920	0.039028
758.002788	0.038594
758.198639	0.038546
758.394471	0.038640
758.590286	0.038422
758.786081	0.038343
758.981859	0.038392
759.177619	0.038313
759.373360	0.038150
759.569083	0.037959
759.764788	0.038127
759.960474	0.038022
760.156143	0.037799
760.351793	0.037839
760.547425	0.037880
760.743038	0.037695
760.938634	0.037610
761.134211	0.037671
761.329770	0.037797
761.525311	0.037777
761.720833	0.037972
761.916338	0.037807
762.111824	0.037746
762.307292	0.037562
762.502741	0.037677
762.698173	0.037623
762.893586	0.037453
763.088981	0.037514
763.284358	0.037483
763.479716	0.037249
763.675057	0.037361
763.870379	0.037310
764.065683	0.037327
764.260968	0.037192
764.456236	0.037157
764.651485	0.037150
764.846716	0.036937
765.041929	0.037003
765.237123	0.037023
765.432299	0.037008
765.627457	0.037116
765.822597	0.037144
766.017719	0.037175
766.212822	0.037127
766.407907	0.037145
766.602974	0.037374
766.798023	0.037326
766.993054	0.037200
767.188066	0.037254
767.383060	0.037204
767.578036	0.037349
767.772993	0.037501
767.967933	0.037518
768.162854	0.037556
768.357757	0.037383
768.552642	0.037257
768.747508	0.037294
768.942356	0.037449
769.137186	0.037432
769.331998	0.037169
769.526792	0.036972
769.721567	0.037028
769.916324	0.037151
770.111063	0.037232
770.305784	0.037460
770.500486	0.037651
770.695171	0.037532
770.889837	0.037591
771.084484	0.037574
771.279114	0.037729
771.473725	0.037689
771.668318	0.037743
771.862893	0.037840
772.057450	0.037624
772.251988	0.037514
772.446509	0.037320
772.641011	0.037345
772.835494	0.037375
773.029960	0.037349
773.224407	0.037364
773.418836	0.037414
773.613247	0.037284
773.807640	0.037364
774.002014	0.037307
774.196370	0.037361
774.390708	0.037023
774.585028	0.037090
774.779330	0.037106
774.973613	0.037058
775.167878	0.036784
775.362125	0.036707
775.556354	0.036693
775.750564	0.036768
775.944756	0.036922
776.138930	0.037080
776.333086	0.037090
776.527223	0.036905
776.721343	0.037047
776.915444	0.037155
777.109526	0.037371
777.303591	0.037205
777.497637	0.037156
777.691666	0.037022
777.885676	0.037154
778.079667	0.037270
778.273641	0.037418
778.467596	0.037289
778.661533	0.037468
778.855452	0.037447
779.049352	0.037806
779.243235	0.037910
779.437099	0.038122
779.630945	0.038135
779.824773	0.038190
780.018582	0.038096
780.212373	0.038335
780.406146	0.038308
780.599901	0.038267
780.793638	0.038175
780.987356	0.038286
781.181056	0.038381
781.374738	0.038483
781.568402	0.038619
781.762047	0.038904
781.955674	0.038827
782.149283	0.038829
782.342874	0.038792
782.536447	0.039129
782.730001	0.039040
782.923537	0.038864
783.117055	0.038542
783.310555	0.038447
783.504036	0.038537
783.697499	0.038522
783.890944	0.038508
784.084371	0.038717
784.277780	0.038292
784.471170	0.038236
784.664542	0.038415
784.857896	0.038515
785.051231	0.038423
785.244549	0.038212
785.437848	0.038230
785.631129	0.038265
785.824392	0.038077
786.017636	0.038189
786.210863	0.038098
786.404071	0.038086
786.597260	0.038168
786.790432	0.038021
786.983585	0.037901
787.176721	0.037822
787.369838	0.037875
787.562936	0.038011
787.756017	0.037844
787.949079	0.038069
788.142123	0.037851
788.335149	0.037936
788.528156	0.038100
788.721146	0.038267
788.914117	0.038237
789.107070	0.038172
789.300005	0.037914
789.492921	0.038179
789.685819	0.038014
789.878699	0.038124
790.071561	0.038150
790.264405	0.038144
790.457230	0.038211
790.650037	0.038302
790.842826	0.038035
791.035597	0.038197
791.228349	0.038047
791.421084	0.037996
791.613800	0.037990
791.806497	0.037699
791.999177	0.037423
792.191838	0.037189
792.384481	0.037097
792.577106	0.037004
792.769713	0.036973
792.962301	0.037047
793.154871	0.037158
793.347423	0.036941
793.539957	0.037078
793.732473	0.037122
793.924970	0.037047
794.117449	0.037108
794.309910	0.037338
794.502353	0.037411
794.694777	0.037205
794.887183	0.037361
795.079571	0.037555
795.271941	0.037668
795.464293	0.037855
795.656626	0.038009
795.848941	0.038162
796.041238	0.038156
796.233516	0.038088
796.425777	0.038220
796.618019	0.038104
796.810243	0.037956
797.002449	0.037888
797.194636	0.038107
797.386805	0.038175
797.578956	0.038060
797.771089	0.038222
797.963204	0.038421
798.155300	0.038751
798.347378	0.038739
798.539438	0.038958
798.731480	0.039086
798.923503	0.039206
799.115509	0.039316
799.307496	0.039582
799.499465	0.039616
799.691415	0.039581
799.883348	0.039337
800.075262	0.039297
800.267158	0.039316
800.459035	0.039338
800.650895	0.039104
800.842736	0.039148
801.034559	0.038995
801.226364	0.039101
801.418150	0.039006
801.609919	0.038945
801.801669	0.038929
801.993401	0.038941
802.185114	0.038921
802.376810	0.038890
802.568487	0.038766
802.760146	0.038531
802.951787	0.038195
803.143409	0.038247
803.335014	0.038448
803.526600	0.038544
803.718168	0.038358
803.909717	0.038228
804.101249	0.038318
804.292762	0.038471
804.484257	0.038655
804.675734	0.038831
804.867192	0.038710
805.058632	0.038526
805.250054	0.038526
805.441458	0.038839
805.632844	0.038777
805.824211	0.038648
806.015561	0.038637
806.206891	0.038541
806.398204	0.038401
806.589499	0.038481
806.780775	0.038538
806.972033	0.038665
807.163273	0.038697
807.354495	0.038886
807.545698	0.038961
807.736883	0.038957
807.928050	0.039287
808.119199	0.039446
808.310329	0.039459
808.501441	0.039486
808.692535	0.039417
808.883611	0.039419
809.074669	0.039468
809.265708	0.039570
809.456729	0.039502
809.647732	0.039329
809.838717	0.039508
810.029683	0.039657
810.220632	0.039908
810.411562	0.040045
810.602474	0.040213
810.793367	0.040399
810.984242	0.040593
811.175100	0.040844
811.365938	0.040957
811.556759	0.041043
811.747562	0.041156
811.938346	0.041201
812.129112	0.041274
812.319860	0.041205
812.510589	0.041179
812.701300	0.041143
812.891994	0.041089
813.082668	0.041113
813.273325	0.041195
813.463964	0.041328
813.654584	0.041268
813.845186	0.041468
814.035769	0.041581
814.226335	0.041699
814.416882	0.041771
814.607411	0.041861
814.797922	0.041997
814.988415	0.041940
815.178889	0.041874
815.369345	0.041797
815.559783	0.041790
815.750203	0.041815
815.940605	0.041994
816.130988	0.041877
816.321353	0.041934
816.511700	0.042147
816.702028	0.042296
816.892339	0.042663
817.082631	0.042985
817.272905	0.043137
817.463161	0.043138
817.653398	0.043171
817.843617	0.043364
818.033819	0.043555
818.224001	0.043357
818.414166	0.043237
818.604312	0.043090
818.794440	0.043013
818.984550	0.042914
819.174642	0.042847
819.364716	0.042514
819.554771	0.042466
819.744808	0.042373
819.934827	0.042563
820.124827	0.042805
820.314810	0.042897
820.504774	0.043033
820.694720	0.043139
820.884647	0.043415
821.074557	0.043874
821.264448	0.044307
821.454321	0.044302
821.644176	0.044377
821.834012	0.044219
822.023831	0.044066
822.213631	0.044224
822.403413	0.044190
822.593176	0.044093
822.782922	0.043973
822.972649	0.043526
823.162358	0.043455
823.352049	0.043289
823.541721	0.043459
823.731376	0.043566
823.921012	0.043394
824.110629	0.043395
824.300229	0.043409
824.489811	0.043477
824.679374	0.043695
824.868919	0.043753
825.058445	0.043961
825.247954	0.043852
825.437444	0.044093
825.626916	0.044049
825.816370	0.044051
826.005806	0.044106
826.195223	0.043995
826.384622	0.044139
826.574003	0.044474
826.763366	0.044402
826.952711	0.044560
827.142037	0.044526
827.331345	0.044793
827.520635	0.044943
827.709906	0.045040
827.899160	0.045308
828.088395	0.045350
828.277612	0.045190
828.466810	0.045126
828.655991	0.045344
828.845153	0.045239
829.034297	0.045164
829.223423	0.045039
829.412531	0.045181
829.601620	0.045184
829.790691	0.045174
829.979744	0.045477
830.168779	0.045753
830.357795	0.045822
830.546793	0.045977
830.735773	0.046075
830.924735	0.046309
831.113679	0.046542
831.302604	0.046695
831.491511	0.047028
831.680400	0.047137
831.869271	0.047287
832.058123	0.047243
832.246957	0.047527
832.435773	0.047736
832.624571	0.047857
832.813351	0.047615
833.002112	0.047594
833.190855	0.047319
833.379580	0.047332
833.568287	0.047152
833.756975	0.047088
833.945645	0.046824
834.134297	0.046802
834.322931	0.046605
834.511547	0.046700
834.700144	0.046566
834.888723	0.046740
835.077284	0.046676
835.265826	0.046674
835.454351	0.046704
835.642857	0.046994
835.831345	0.047150
836.019815	0.047242
836.208266	0.047380
836.396699	0.047659
836.585114	0.047617
836.773511	0.047803
836.961890	0.048253
837.150250	0.048455
837.338592	0.048566
837.526916	0.048605
837.715222	0.048872
837.903510	0.049062
838.091779	0.049261
838.280030	0.049623
838.468263	0.049436
838.656477	0.049425
838.844674	0.049647
839.032852	0.049808
839.221012	0.049884
839.409153	0.050016
839.597277	0.050191
839.785382	0.050187
839.973469	0.050196
840.161538	0.050444
840.349589	0.050370
840.537621	0.050383
840.725635	0.050202
840.913631	0.050400
841.101609	0.050756
841.289568	0.050760
841.477509	0.050722
841.665432	0.050953
841.853337	0.051096
842.041224	0.051369
842.229092	0.051336
842.416942	0.051690
842.604774	0.051633
842.792588	0.051213
842.980383	0.051270
843.168160	0.051276
843.355919	0.051328
843.543660	0.051155
843.731382	0.051020
843.919087	0.050934
844.106773	0.050787
844.294441	0.050767
844.482090	0.051063
844.669722	0.051034
844.857335	0.051352
845.044930	0.051400
845.232507	0.051734
845.420065	0.052047
845.607605	0.052360
845.795127	0.052357
845.982631	0.052676
846.170117	0.052822
846.357584	0.053027
846.545033	0.052832
846.732464	0.052837
846.919877	0.052856
847.107272	0.052850
847.294648	0.052759
847.482006	0.052902
847.669346	0.052883
847.856667	0.052918
848.043971	0.053124
848.231256	0.053515
848.418523	0.053454
848.605771	0.053736
848.793002	0.053814
848.980214	0.054146
849.167408	0.054352
849.354584	0.054307
849.541742	0.054640
849.728881	0.054534
849.916002	0.054705
850.103105	0.055100
850.290190	0.055090
850.477256	0.055501
850.664304	0.055478
850.851334	0.055726
851.038346	0.055755
851.225340	0.055744
851.412315	0.056092
851.599272	0.056288
851.786211	0.056240
851.973132	0.056375
852.160034	0.056154
852.346918	0.056302
852.533784	0.055994
852.720632	0.056506
852.907462	0.056426
853.094273	0.056117
853.281066	0.055696
853.467841	0.055837
853.654598	0.055758
853.841336	0.055766
854.028056	0.055995
854.214758	0.056144
854.401442	0.055969
854.588107	0.056001
854.774755	0.056110
854.961384	0.056546
855.147995	0.056575
855.334587	0.056739
855.521162	0.056965
855.707718	0.056787
855.894256	0.057293
856.080775	0.057402
856.267277	0.057548
856.453760	0.057440
856.640225	0.057378
856.826672	0.057304
857.013101	0.057337
857.199511	0.057260
857.385903	0.057226
857.572277	0.056897
857.758633	0.056815
857.944970	0.057042
858.131290	0.057549
858.317591	0.057634
858.503873	0.057816
858.690138	0.057855
858.876384	0.057858
859.062612	0.058244
859.248822	0.058280
859.435014	0.058624
859.621188	0.058605
859.807343	0.058520
859.993480	0.058678
860.179599	0.058960
860.365699	0.058936
860.551781	0.059410
860.737846	0.059532
860.923891	0.059727
861.109919	0.059588
861.295929	0.059324
861.481920	0.059395
861.667893	0.059495
861.853848	0.059281
862.039784	0.059559
862.225702	0.059347
862.411603	0.059389
862.597484	0.059319
862.783348	0.059300
862.969193	0.059580
863.155021	0.059674
863.340830	0.059622
863.526620	0.059832
863.712393	0.059783
863.898147	0.059834
864.083883	0.059921
864.269601	0.060144
864.455301	0.060301
864.640982	0.060632
864.826645	0.060689
865.012290	0.060710
865.197917	0.060696
865.383526	0.060814
865.569116	0.060768
865.754688	0.060741
865.940242	0.060717
866.125777	0.061028
866.311295	0.061181
866.496794	0.061424
866.682275	0.061885
866.867737	0.061984
867.053182	0.062190
867.238608	0.062728
867.424016	0.062840
867.609406	0.063115
867.794778	0.063212
867.980131	0.063132
868.165466	0.063047
868.350783	0.062905
868.536082	0.063070
868.721362	0.062901
868.906625	0.062699
869.091869	0.062779
869.277094	0.062935
869.462302	0.062922
869.647491	0.062726
869.832662	0.062823
870.017815	0.062629
870.202950	0.062685
870.388066	0.062633
870.573165	0.062532
870.758245	0.062492
870.943306	0.062181
871.128350	0.062070
871.313375	0.062216
871.498382	0.062222
871.683371	0.062462
871.868342	0.062491
872.053294	0.062893
872.238229	0.063145
872.423144	0.063238
872.608042	0.063626
872.792922	0.064066
872.977783	0.064131
873.162626	0.063942
873.347451	0.064059
873.532258	0.064232
873.717046	0.064216
873.901816	0.064157
874.086568	0.064100
874.271302	0.064037
874.456017	0.063541
874.640715	0.063432
874.825394	0.063701
875.010055	0.063677
875.194697	0.063697
875.379322	0.063638
875.563928	0.063789
875.748516	0.063807
875.933085	0.063819
876.117637	0.064292
876.302170	0.064700
876.486685	0.064834
876.671182	0.065088
876.855661	0.065160
877.040121	0.065304
877.224563	0.065261
877.408987	0.065218
877.593393	0.064981
877.777780	0.064772
877.962150	0.064617
878.146501	0.064844
878.330833	0.064713
878.515148	0.064621
878.699444	0.064584
878.883722	0.064729
879.067982	0.064999
879.252224	0.065217
879.436447	0.065223
879.620653	0.065491
879.804840	0.065292
879.989008	0.065108
880.173159	0.064993
880.357291	0.065116
880.541405	0.065048
880.725501	0.065227
880.909579	0.065588
881.093638	0.065823
881.277680	0.065699
881.461703	0.065591
881.645707	0.065982
881.829694	0.066205
882.013662	0.066188
882.197612	0.066280
882.381544	0.066407
882.565458	0.066190
882.749353	0.066056
882.933230	0.066189
883.117089	0.066478
883.300930	0.066245
883.484753	0.066030
883.668557	0.066079
883.852343	0.066066
884.036111	0.065956
884.219861	0.065918
884.403592	0.065860
884.587305	0.065376
884.771000	0.065447
884.954677	0.065112
885.138335	0.064758
885.321976	0.064445
885.505598	0.064252
885.689201	0.064093
885.872787	0.064036
886.056354	0.063771
886.239904	0.063986
886.423434	0.063297
886.606947	0.063702
886.790442	0.064283
886.973918	0.064390
887.157376	0.064613
887.340816	0.064649
887.524237	0.064598
887.707641	0.065009
887.891026	0.065122
888.074393	0.065591
888.257741	0.065311
888.441072	0.065081
888.624384	0.065150
888.807678	0.064800
888.990954	0.064595
889.174211	0.064418
889.357451	0.063892
889.540672	0.063800
889.723875	0.063692
889.907059	0.063922
890.090226	0.063753
890.273374	0.063746
890.456504	0.063808
890.639616	0.063933
890.822709	0.063928
891.005785	0.064308
891.188842	0.064095
891.371881	0.064173
891.554901	0.063888
891.737904	0.063823
891.920888	0.063524
892.103854	0.063666
892.286802	0.063184
892.469731	0.063309
892.652643	0.062820
892.835536	0.062449
893.018410	0.062308
893.201267	0.062186
893.384106	0.062132
893.566926	0.062101
893.749728	0.061913
893.932511	0.062240
894.115277	0.062424
894.298024	0.062689
894.480753	0.063008
894.663464	0.062991
894.846157	0.063170
895.028831	0.063113
895.211487	0.063284
895.394125	0.063385
895.576745	0.063581
895.759346	0.063330
895.941930	0.063421
896.124495	0.063764
896.307041	0.063703
896.489570	0.063762
896.672080	0.063806
896.854573	0.063872
897.037046	0.063718
897.219502	0.063293
897.401940	0.063060
897.584359	0.063319
897.766760	0.063030
897.949143	0.063099
898.131507	0.062701
898.313854	0.062898
898.496182	0.062891
898.678492	0.063085
898.860783	0.063161
899.043057	0.063436
899.225312	0.063232
899.407549	0.063152
899.589768	0.063203
899.771968	0.063208
899.954151	0.062681
900.136315	0.062525
900.318461	0.062280
900.500588	0.062380
900.682698	0.062058
900.864789	0.061601
901.046862	0.061550
901.228917	0.061246
901.410953	0.061376
901.592971	0.061676
901.774972	0.061525
901.956953	0.061439
902.138917	0.061187
902.320862	0.061211
902.502790	0.061013
902.684699	0.060791
902.866589	0.060594
903.048462	0.060492
903.230316	0.060353
903.412152	0.060653
903.593970	0.060633
903.775770	0.060650
903.957551	0.060545
904.139314	0.060718
904.321059	0.060702
904.502786	0.061040
904.684494	0.060813
904.866185	0.060788
905.047857	0.060092
905.229510	0.059911
905.411146	0.059997
905.592763	0.059989
905.774363	0.059964
905.955943	0.059745
906.137506	0.059356
906.319051	0.059516
906.500577	0.059340
906.682085	0.059734
906.863575	0.059560
907.045046	0.059086
907.226500	0.058978
907.407935	0.058574
907.589352	0.058804
907.770750	0.058467
907.952131	0.058398
908.133493	0.058109
908.314837	0.057481
908.496163	0.057549
908.677470	0.057558
908.858760	0.057492
909.040031	0.057596
909.221284	0.057281
909.402518	0.057462
909.583735	0.057288
909.764933	0.057227
909.946113	0.057665
910.127275	0.057503
910.308418	0.057762
910.489544	0.057734
910.670651	0.057662
910.851740	0.057651
911.032810	0.057531
911.213863	0.057519
911.394897	0.057568
911.575913	0.057336
911.756911	0.057351
911.937890	0.056933
912.118851	0.056623
912.299794	0.056448
912.480719	0.056389
912.661626	0.056624
912.842514	0.056299
913.023384	0.056013
913.204236	0.055675
913.385070	0.055226
913.565886	0.054986
913.746683	0.054805
913.927462	0.054775
914.108223	0.054198
914.288965	0.053345
914.469690	0.053361
914.650396	0.053662
914.831084	0.053819
915.011754	0.054208
915.192405	0.054232
915.373038	0.054185
915.553653	0.053809
915.734250	0.054307
915.914829	0.054157
916.095389	0.053569
916.275931	0.053232
916.456455	0.052810
916.636961	0.052279
916.817448	0.052034
916.997917	0.052115
917.178368	0.052367
917.358801	0.051766
917.539216	0.051753
917.719612	0.051335
917.899990	0.051151
918.080350	0.050977
918.260692	0.050773
918.441015	0.050394
918.621320	0.049945
918.801607	0.049648
918.981876	0.049506
919.162127	0.049342
919.342359	0.049559
919.522573	0.049294
919.702769	0.049074
919.882947	0.048976
920.063106	0.048595
920.243247	0.048098
920.423370	0.047702
920.603475	0.047574
920.783562	0.047539
920.963630	0.047625
921.143680	0.047139
921.323712	0.046912
921.503725	0.046421
921.683721	0.046465
921.863698	0.046359
922.043657	0.045778
922.223598	0.045569
922.403520	0.044887
922.583424	0.044534
922.763311	0.044489
922.943178	0.044300
923.123028	0.043877
923.302859	0.043655
923.482673	0.043787
923.662467	0.044229
923.842244	0.043590
924.022003	0.044474
924.201743	0.044710
924.381465	0.044691
924.561169	0.044415
924.740854	0.044517
924.920522	0.044327
925.100171	0.043739
925.279802	0.043113
925.459414	0.043016
925.639009	0.042659
925.818585	0.041892
925.998143	0.041421
926.177683	0.041230
926.357205	0.041318
926.536708	0.041237
926.716193	0.040874
926.895660	0.040342
927.075109	0.040029
927.254539	0.038710
927.433951	0.038554
927.613345	0.038870
927.792721	0.038898
927.972079	0.038836
928.151418	0.038191
928.330739	0.038261
928.510042	0.038755
928.689327	0.039031
928.868593	0.039560
929.047841	0.039595
929.227071	0.038818
929.406283	0.038720
929.585476	0.038097
929.764652	0.038406
929.943809	0.038059
930.122948	0.036816
930.302068	0.035898
930.481171	0.035357
930.660255	0.034769
930.839321	0.034464
931.018369	0.033599
931.197398	0.033095
931.376409	0.032578
931.555402	0.032202
931.734377	0.032618
931.913334	0.032755
932.092272	0.032370
932.271192	0.032127
932.450094	0.032283
932.628978	0.032285
932.807844	0.032072
932.986691	0.031455
933.165520	0.031145
933.344331	0.030870
933.523123	0.030732
933.701898	0.030708
933.880654	0.030569
934.059392	0.030058
934.238111	0.029657
934.416813	0.029187
934.595496	0.029240
934.774161	0.029629
934.952808	0.029297
935.131437	0.028195
935.310047	0.028185
935.488639	0.026826
935.667213	0.025861
935.845769	0.025385
936.024306	0.024998
936.202825	0.024675
936.381326	0.024128
936.559809	0.024245
936.738274	0.024556
936.916720	0.023753
937.095148	0.024322
937.273558	0.023642
937.451950	0.023371
937.630323	0.023273
937.808678	0.022391
937.987015	0.021974
938.165334	0.021196
938.343635	0.021105
938.521917	0.020664
938.700181	0.020833
938.878427	0.021570
939.056655	0.021125
939.234864	0.020913
939.413055	0.021212
939.591228	0.020032
939.769383	0.019421
939.947519	0.019529
940.125638	0.018923
940.303738	0.017911
940.481820	0.017349
940.659883	0.017448
940.837929	0.017349
941.015956	0.016708
941.193965	0.017684
941.371955	0.017836
941.549928	0.016808
941.727882	0.016884
941.905818	0.016714
942.083736	0.016859
942.261636	0.016685
942.439517	0.016778
942.617380	0.016691
942.795225	0.015985
942.973052	0.015941
943.150860	0.016051
943.328651	0.015743
943.506423	0.015145
943.684176	0.014748
943.861912	0.014604
944.039629	0.013665
944.217328	0.013145
944.395009	0.013439
944.572672	0.013240
944.750317	0.013253
944.927943	0.012264
945.105551	0.012834
945.283141	0.012817
945.460712	0.012257
945.638265	0.012926
945.815801	0.013508
945.993317	0.012547
946.170816	0.011967
946.348297	0.011983
946.525759	0.012838
946.703203	0.011803
946.880629	0.011309
947.058036	0.011651
947.235425	0.011302
947.412797	0.011145
947.590149	0.011322
947.767484	0.011484
947.944800	0.010954
948.122099	0.011891
948.299379	0.012823
948.476640	0.013291
948.653884	0.012431
948.831109	0.011536
949.008316	0.010819
949.185505	0.010883
949.362676	0.010218
949.539828	0.010374
949.716962	0.009692
949.894078	0.009383
950.071176	0.010068
950.248256	0.010079
950.425317	0.011097
950.602360	0.012302
950.779385	0.011851
950.956391	0.012544
951.133380	0.012336
951.310350	0.012074
951.487302	0.013437
951.664235	0.011257
951.841151	0.011572
952.018048	0.010962
952.194927	0.010462
952.371788	0.010891
952.548631	0.011677
952.725455	0.012111
952.902261	0.011342
953.079049	0.010027
953.255819	0.012775
953.432570	0.013637
953.609303	0.013985
953.786018	0.015101
953.962715	0.015538
954.139394	0.015732
954.316054	0.016553
954.492696	0.018374
954.669320	0.018713
954.845926	0.017899
955.022513	0.017744
955.199083	0.018647
955.375634	0.020090
955.552166	0.020391
955.728681	0.019767
955.905177	0.019853
956.081655	0.020081
956.258115	0.019836
956.434557	0.020971
956.610980	0.021808
956.787385	0.023032
956.963772	0.021611
957.140141	0.021551
957.316492	0.023020
957.492824	0.023541
957.669138	0.021900
957.845434	0.023240
958.021712	0.022678
958.197971	0.021877
958.374212	0.021038
958.550435	0.020886
958.726640	0.021161
958.902826	0.020623
959.078995	0.020918
959.255145	0.021730
959.431277	0.022570
959.607390	0.021677
959.783486	0.022526
959.959563	0.023061
960.135622	0.025012
960.311662	0.025869
960.487685	0.028245
960.663689	0.026911
960.839675	0.028825
961.015643	0.027973
961.191593	0.029835
961.367524	0.031215
961.543437	0.030960
961.719332	0.031483
961.895209	0.030861
962.071067	0.028815
962.246907	0.030309
962.422730	0.030623
962.598533	0.032493
962.774319	0.031811
962.950086	0.032305
963.125835	0.033293
963.301566	0.032914
963.477279	0.035283
963.652973	0.036505
963.828650	0.036461
964.004308	0.036234
964.179947	0.034059
964.355569	0.034530
964.531172	0.033795
964.706757	0.031755
964.882324	0.031091
965.057873	0.029197
965.233403	0.030022
965.408916	0.032697
965.584410	0.033547
965.759885	0.035838
965.935343	0.037133
966.110782	0.039725
966.286203	0.042438
966.461606	0.043211
966.636991	0.044079
966.812357	0.043756
966.987705	0.040495
967.163035	0.039923
967.338347	0.038875
967.513641	0.038401
967.688916	0.037581
967.864173	0.037185
968.039412	0.036544
968.214632	0.037617
968.389835	0.038472
968.565019	0.037990
968.740185	0.039216
968.915333	0.040074
969.090462	0.039988
969.265573	0.039662
969.440667	0.039599
969.615741	0.040485
969.790798	0.039331
969.965836	0.039226
970.140856	0.041171
970.315858	0.039011
970.490842	0.040789
970.665808	0.041633
970.840755	0.042590
971.015684	0.042562
971.190595	0.041902
971.365487	0.042444
971.540362	0.041530
971.715218	0.042016
971.890056	0.043516
972.064875	0.042094
972.239677	0.042167
972.414460	0.040395
972.589225	0.041156
972.763972	0.041139
972.938700	0.042364
973.113411	0.042779
973.288103	0.042200
973.462777	0.040775
973.637432	0.041162
973.812070	0.040870
973.986689	0.042575
974.161290	0.043959
974.335873	0.043488
974.510437	0.043134
974.684984	0.043983
974.859512	0.042907
975.034022	0.044339
975.208513	0.043236
975.382987	0.043267
975.557442	0.041939
975.731879	0.038899
975.906298	0.039214
976.080698	0.037339
976.255080	0.036350
976.429445	0.038205
976.603790	0.037748
976.778118	0.039365
976.952427	0.040037
977.126719	0.040879
977.300992	0.042655
977.475246	0.043279
977.649483	0.044410
977.823701	0.044534
977.997901	0.042682
978.172083	0.042356
978.346247	0.041300
978.520392	0.039962
978.694519	0.039409
978.868628	0.039085
979.042719	0.039335
979.216791	0.039412
979.390845	0.037322
979.564882	0.037458
979.738899	0.039607
979.912899	0.040298
980.086880	0.040607
980.260843	0.038675
980.434788	0.037822
980.608715	0.037429
980.782623	0.037583
980.956514	0.039402
981.130386	0.040753
981.304240	0.039905
981.478075	0.038400
981.651892	0.037859
981.825692	0.038837
981.999472	0.039178
982.173235	0.039661
982.346980	0.037445
982.520706	0.035907
982.694414	0.035041
982.868104	0.034162
983.041775	0.034886
983.215428	0.034097
983.389064	0.035864
983.562680	0.036433
983.736279	0.034795
983.909860	0.035720
984.083422	0.037879
984.256966	0.037443
984.430491	0.039178
984.603999	0.041282
984.777488	0.041226
984.950959	0.039964
985.124412	0.042556
985.297847	0.043736
985.471263	0.045654
985.644661	0.044251
985.818041	0.045650
985.991403	0.042687
986.164747	0.040728
986.338072	0.042265
986.511379	0.043706
986.684668	0.042232
986.857938	0.042110
987.031191	0.040852
987.204425	0.042404
987.377641	0.041784
987.550839	0.043394
987.724018	0.042739
987.897179	0.042037
988.070322	0.042035
988.243447	0.040284
988.416554	0.040742
988.589642	0.041785
988.762712	0.042503
988.935764	0.042264
989.108798	0.041975
989.281813	0.042161
989.454811	0.043018
989.627790	0.042352
989.800751	0.042474
989.973693	0.041955
990.146617	0.041361
990.319524	0.040515
990.492412	0.040371
990.665281	0.040973
990.838133	0.039775
991.010966	0.038708
991.183781	0.037741
991.356578	0.036058
991.529356	0.035726
991.702117	0.034411
991.874859	0.034361
992.047583	0.034529
992.220288	0.032792
992.392976	0.033544
992.565645	0.033736
992.738296	0.034786
992.910929	0.036256
993.083543	0.035862
993.256139	0.038472
993.428718	0.037912
993.601277	0.037414
993.773819	0.039787
993.946342	0.039454
994.118848	0.040938
994.291335	0.039829
994.463803	0.039887
994.636254	0.040626
994.808686	0.039215
994.981100	0.038580
995.153496	0.039992
995.325874	0.039426
995.498233	0.040340
995.670574	0.040441
995.842897	0.041940
996.015202	0.042517
996.187488	0.042464
996.359757	0.041118
996.532007	0.040908
996.704239	0.039616
996.876452	0.036994
997.048648	0.036289
997.220825	0.035673
997.392984	0.034984
997.565124	0.033897
997.737247	0.033374
997.909351	0.034870
998.081437	0.035621
998.253505	0.036550
998.425554	0.038093
998.597586	0.038676
998.769599	0.038741
998.941594	0.037442
999.113571	0.037795
999.285529	0.036726
999.457469	0.037390
999.629391	0.036640
999.801295	0.036346
999.973181	0.037226
1000.145048	0.037278
1000.316897	0.035773
1000.488728	0.035999
1000.660541	0.035094
1000.832335	0.037064
1001.004111	0.035788
1001.175869	0.036241
1001.347609	0.034939
1001.519331	0.033655
1001.691034	0.032842
1001.862719	0.034504
1002.034386	0.035079
1002.206035	0.035213
1002.377665	0.033987
1002.549277	0.034635
1002.720871	0.034710
1002.892447	0.035801
1003.064004	0.035915
1003.235544	0.037772
1003.407065	0.038162
1003.578568	0.038177
1003.750052	0.040306
1003.921519	0.042123
1004.092967	0.040636
1004.264397	0.040280
1004.435809	0.041656
1004.607202	0.041621
1004.778577	0.040521
1004.949934	0.038720
1005.121273	0.038494
1005.292594	0.036453
1005.463896	0.034747
1005.635180	0.034848
1005.806446	0.034693
1005.977694	0.032695
1006.148923	0.033737
1006.320135	0.034342
1006.491328	0.034515
1006.662503	0.036047
1006.833659	0.035694
1007.004798	0.037007
1007.175918	0.037629
1007.347020	0.037668
1007.518103	0.038236
1007.689169	0.038122
1007.860216	0.036496
1008.031245	0.037832
1008.202256	0.035820
1008.373248	0.034998
1008.544223	0.033512
1008.715179	0.032780
1008.886117	0.032061
1009.057036	0.032130
1009.227938	0.031950
1009.398821	0.033373
1009.569686	0.031287
1009.740533	0.032927
1009.911361	0.034193
1010.082172	0.035073
1010.252964	0.035885
1010.423738	0.038195
1010.594493	0.037656
1010.765231	0.037054
1010.935950	0.035621
1011.106651	0.037494
1011.277334	0.035056
1011.447998	0.036257
1011.618645	0.035497
1011.789273	0.035912
1011.959882	0.034680
1012.130474	0.035097
1012.301048	0.036400
1012.471603	0.037237
1012.642140	0.036679
1012.812658	0.037398
1012.983159	0.036872
1013.153641	0.036557
1013.324105	0.036540
1013.494551	0.034989
1013.664979	0.033333
1013.835388	0.031838
1014.005779	0.031270
1014.176152	0.032437
1014.346507	0.032367
1014.516843	0.032282
1014.687162	0.032816
1014.857462	0.032311
1015.027744	0.033402
1015.198007	0.033997
1015.368252	0.034119
1015.538480	0.034525
1015.708689	0.032096
1015.878879	0.031687
1016.049052	0.030934
1016.219206	0.031569
1016.389342	0.030661
1016.559460	0.031028
1016.729559	0.031927
1016.899641	0.032270
1017.069704	0.031584
1017.239749	0.032587
1017.409775	0.034005
1017.579784	0.034763
1017.749774	0.033587
1017.919746	0.035043
1018.089700	0.035200
1018.259635	0.034510
1018.429553	0.033898
1018.599452	0.035003
1018.769333	0.033906
1018.939195	0.032792
1019.109040	0.031497
1019.278866	0.031889
1019.448674	0.031107
1019.618464	0.031255
1019.788235	0.031851
1019.957989	0.030986
1020.127724	0.030142
1020.297441	0.030859
1020.467139	0.030636
1020.636820	0.031626
1020.806482	0.030838
1020.976126	0.031474
1021.145752	0.030455
1021.315359	0.030159
1021.484948	0.032119
1021.654519	0.032303
1021.824072	0.030926
1021.993607	0.032534
1022.163123	0.032109
1022.332621	0.031951
1022.502101	0.031140
1022.671563	0.031435
1022.841007	0.031314
1023.010432	0.029018
1023.179839	0.027678
1023.349228	0.028477
1023.518598	0.027671
1023.687951	0.026648
1023.857285	0.025697
1024.026601	0.026260
1024.195899	0.026482
1024.365178	0.026568
1024.534439	0.028406
1024.703682	0.029623
1024.872907	0.030656
1025.042114	0.030736
1025.211302	0.030695
1025.380472	0.031863
1025.549624	0.030795
1025.718758	0.030586
1025.887873	0.030641
1026.056970	0.028648
1026.226049	0.028188
1026.395110	0.027711
1026.564153	0.027197
1026.733177	0.030396
1026.902183	0.031150
1027.071171	0.031687
1027.240141	0.031037
1027.409092	0.030873
1027.578026	0.033675
1027.746940	0.033484
1027.915837	0.032487
1028.084716	0.032525
1028.253576	0.030491
1028.422418	0.029479
1028.591242	0.028752
1028.760048	0.029478
1028.928835	0.029631
1029.097604	0.028729
1029.266355	0.029436
1029.435088	0.029479
1029.603803	0.029895
1029.772499	0.030227
1029.941177	0.031379
1030.109837	0.033366
1030.278478	0.033812
1030.447102	0.032199
1030.615707	0.030673
1030.784294	0.030318
1030.952863	0.031884
1031.121413	0.032202
1031.289945	0.032111
1031.458460	0.032843
1031.626955	0.031440
1031.795433	0.031291
1031.963892	0.033633
1032.132334	0.034826
1032.300756	0.034403
1032.469161	0.034771
1032.637548	0.034916
1032.805916	0.034260
1032.974266	0.033845
1033.142598	0.032832
1033.310911	0.032033
1033.479207	0.031052
1033.647484	0.030460
1033.815743	0.031588
1033.983983	0.031851
1034.152206	0.031950
1034.320410	0.032097
1034.488596	0.032543
1034.656764	0.033577
1034.824914	0.032819
1034.993045	0.033223
1035.161158	0.033587
1035.329253	0.032704
1035.497330	0.032075
1035.665388	0.030759
1035.833428	0.031102
1036.001450	0.029966
1036.169454	0.031024
1036.337440	0.032873
1036.505407	0.032054
1036.673356	0.031822
1036.841287	0.033124
1037.009200	0.032348
1037.177094	0.033113
1037.344970	0.031905
1037.512828	0.031895
1037.680668	0.029304
1037.848489	0.029397
1038.016293	0.029985
1038.184078	0.030435
1038.351845	0.028011
1038.519593	0.028200
1038.687324	0.028722
1038.855036	0.029100
1039.022730	0.028516
1039.190406	0.030388
1039.358063	0.028690
1039.525702	0.029016
1039.693323	0.028343
1039.860926	0.029051
1040.028511	0.028691
1040.196077	0.027381
1040.363625	0.027665
1040.531155	0.027902
1040.698667	0.027948
1040.866161	0.028658
1041.033636	0.027572
1041.201093	0.027873
1041.368532	0.029866
1041.535952	0.029980
1041.703355	0.030026
1041.870739	0.030733
1042.038105	0.030517
1042.205452	0.030678
1042.372782	0.030391
1042.540093	0.032171
1042.707386	0.032305
1042.874661	0.031884
1043.041918	0.033139
1043.209156	0.032632
1043.376376	0.030027
1043.543578	0.029685
1043.710762	0.029375
1043.877927	0.030834
1044.045074	0.029293
1044.212203	0.029317
1044.379314	0.028680
1044.546407	0.025560
1044.713481	0.025671
1044.880537	0.028782
1045.047575	0.029202
1045.214595	0.028407
1045.381596	0.025747
1045.548579	0.025426
1045.715544	0.024741
1045.882491	0.024209
1046.049420	0.025736
1046.216330	0.024964
1046.383222	0.023951
1046.550096	0.023390
1046.716951	0.022708
1046.883789	0.024377
1047.050608	0.025311
1047.217409	0.025510
1047.384192	0.025676
1047.550956	0.025313
1047.717703	0.025905
1047.884431	0.025412
1048.051140	0.025610
1048.217832	0.028053
1048.384505	0.028138
1048.551161	0.027916
1048.717798	0.028479
1048.884416	0.029338
1049.051017	0.030721
1049.217599	0.031368
1049.384163	0.032363
1049.550709	0.033516
1049.717237	0.033276
1049.883746	0.032688
1050.050237	0.033492
1050.216710	0.034604
1050.383165	0.034103
1050.549601	0.033630
1050.716019	0.033410
1050.882420	0.031476
1051.048801	0.030672
1051.215165	0.029136
1051.381510	0.028480
1051.547837	0.028275
1051.714146	0.027221
1051.880437	0.027183
1052.046709	0.026595
1052.212964	0.026768
1052.379200	0.027811
1052.545417	0.026239
1052.711617	0.025582
1052.877798	0.025916
1053.043961	0.024807
1053.210106	0.024626
1053.376233	0.024082
1053.542341	0.024708
1053.708432	0.024948
1053.874504	0.025982
1054.040557	0.028852
1054.206593	0.029062
1054.372610	0.028904
1054.538609	0.029426
1054.704590	0.030399
1054.870553	0.030983
1055.036497	0.030115
1055.202424	0.029930
1055.368331	0.029657
1055.534221	0.028368
1055.700093	0.029425
1055.865946	0.028253
1056.031781	0.026402
1056.197598	0.026396
1056.363397	0.025032
1056.529177	0.024623
1056.694939	0.024208
1056.860683	0.024489
1057.026409	0.025102
1057.192116	0.026592
1057.357806	0.028377
1057.523477	0.029520
1057.689130	0.027204
1057.854764	0.028236
1058.020381	0.029104
1058.185979	0.029666
1058.351559	0.030185
1058.517120	0.028879
1058.682664	0.029468
1058.848189	0.031061
1059.013696	0.030608
1059.179185	0.030905
1059.344656	0.031392
1059.510108	0.031347
1059.675542	0.031514
1059.840958	0.030337
1060.006356	0.031832
1060.171735	0.029769
1060.337096	0.027693
1060.502439	0.029812
1060.667764	0.030613
1060.833071	0.029264
1060.998359	0.029835
1061.163629	0.030385
1061.328881	0.030049
1061.494115	0.029918
1061.659330	0.029631
1061.824527	0.030554
1061.989706	0.029514
1062.154867	0.030250
1062.320010	0.030333
1062.485134	0.029310
1062.650240	0.028916
1062.815328	0.028940
1062.980398	0.029944
1063.145449	0.029940
1063.310482	0.029460
1063.475497	0.029971
1063.640494	0.029288
1063.805473	0.028892
1063.970433	0.029771
1064.135375	0.029801
1064.300299	0.029250
1064.465204	0.028307
1064.630092	0.026762
1064.794961	0.027423
1064.959812	0.025822
1065.124645	0.025567
1065.289459	0.025883
1065.454256	0.024452
1065.619034	0.023887
1065.783793	0.025365
1065.948535	0.023347
1066.113258	0.024030
1066.277964	0.023385
1066.442651	0.024777
1066.607319	0.025214
1066.771970	0.026426
1066.936602	0.026850
1067.101216	0.025792
1067.265812	0.025960
1067.430389	0.027166
1067.594949	0.028097
1067.759490	0.028088
1067.924013	0.027150
1068.088518	0.026683
1068.253004	0.026436
1068.417472	0.028263
1068.581922	0.030325
1068.746354	0.026949
1068.910768	0.026581
1069.075163	0.026094
1069.239540	0.027405
1069.403899	0.028210
1069.568240	0.027306
1069.732562	0.026760
1069.896866	0.024163
1070.061152	0.022971
1070.225420	0.025413
1070.389670	0.026266
1070.553901	0.026341
1070.718114	0.026341
1070.882309	0.026147
1071.046486	0.026670
1071.210644	0.026717
1071.374784	0.028417
1071.538906	0.028063
1071.703010	0.030027
1071.867096	0.030173
1072.031163	0.029532
1072.195212	0.029289
1072.359243	0.028559
1072.523256	0.028205
1072.687250	0.027660
1072.851226	0.026482
1073.015184	0.026943
1073.179124	0.025699
1073.343045	0.024842
1073.506949	0.026158
1073.670834	0.025703
1073.834701	0.025935
1073.998549	0.024663
1074.162380	0.026835
1074.326192	0.028601
1074.489986	0.028791
1074.653761	0.027812
1074.817519	0.028422
1074.981258	0.027569
1075.144979	0.028769
1075.308682	0.027521
1075.472367	0.031130
1075.636033	0.029056
1075.799681	0.027093
1075.963311	0.026381
1076.126923	0.025559
1076.290516	0.026860
1076.454092	0.025517
1076.617649	0.022887
1076.781187	0.023364
1076.944708	0.020531
1077.108210	0.022391
1077.271695	0.023836
1077.435160	0.022950
1077.598608	0.022303
1077.762038	0.021185
1077.925449	0.022831
1078.088842	0.023490
1078.252217	0.024188
1078.415573	0.025552
1078.578912	0.023531
1078.742232	0.022555
1078.905534	0.022937
1079.068817	0.023609
1079.232083	0.023366
1079.395330	0.022895
1079.558559	0.022759
1079.721770	0.022907
1079.884962	0.022236
1080.048136	0.022870
1080.211293	0.022816
1080.374430	0.022419
1080.537550	0.021505
1080.700651	0.021097
1080.863735	0.022047
1081.026800	0.021436
1081.189846	0.020828
1081.352875	0.021026
1081.515885	0.021521
1081.678877	0.022324
1081.841851	0.024888
1082.004807	0.024646
1082.167744	0.025351
1082.330663	0.025208
1082.493564	0.024395
1082.656447	0.026194
1082.819312	0.026212
1082.982158	0.025773
1083.144986	0.025376
1083.307796	0.022887
1083.470587	0.025337
1083.633361	0.025984
1083.796116	0.024857
1083.958853	0.027385
1084.121571	0.024354
1084.284272	0.025710
1084.446954	0.025400
1084.609618	0.024669
1084.772264	0.024813
1084.934892	0.024931
1085.097501	0.022339
1085.260092	0.021249
1085.422665	0.017663
1085.585220	0.017872
1085.747756	0.017991
1085.910274	0.016932
1086.072774	0.016817
1086.235256	0.017986
1086.397720	0.018385
1086.560165	0.018770
1086.722592	0.021518
1086.885001	0.025462
1087.047392	0.026690
1087.209764	0.025130
1087.372119	0.026222
1087.534455	0.029116
1087.696772	0.031455
1087.859072	0.030113
1088.021353	0.030670
1088.183616	0.028988
1088.345861	0.029356
1088.508088	0.029059
1088.670296	0.029723
1088.832486	0.028970
1088.994658	0.025789
1089.156812	0.023191
1089.318948	0.022884
1089.481065	0.025036
1089.643164	0.024752
1089.805245	0.021742
1089.967308	0.021889
1090.129352	0.021090
1090.291378	0.022512
1090.453386	0.022901
1090.615376	0.022460
1090.777347	0.024772
1090.939301	0.024877
1091.101236	0.024439
1091.263153	0.025564
1091.425051	0.023392
1091.586932	0.023107
1091.748794	0.021772
1091.910638	0.020276
1092.072463	0.021219
1092.234271	0.018985
1092.396060	0.016766
1092.557831	0.018675
1092.719584	0.019015
1092.881319	0.021874
1093.043035	0.021902
1093.204733	0.020589
1093.366413	0.024816
1093.528075	0.024533
1093.689718	0.026058
1093.851343	0.024068
1094.012950	0.024223
1094.174539	0.020325
1094.336110	0.021091
1094.497662	0.021338
1094.659196	0.021223
1094.820712	0.017515
1094.982210	0.015221
1095.143689	0.013302
1095.305151	0.014552
1095.466594	0.013873
1095.628018	0.017498
1095.789425	0.016963
1095.950813	0.017928
1096.112183	0.020504
1096.273535	0.023782
1096.434869	0.024464
1096.596184	0.023106
1096.757482	0.023624
1096.918761	0.022307
1097.080021	0.022526
1097.241264	0.020798
1097.402488	0.019821
1097.563694	0.015307
1097.724882	0.015050
1097.886052	0.015687
1098.047203	0.018858
1098.208336	0.020472
1098.369451	0.022673
1098.530548	0.024972
1098.691627	0.025891
1098.852687	0.026288
1099.013729	0.029453
1099.174753	0.028167
1099.335758	0.025211
1099.496746	0.024832
1099.657715	0.021275
1099.818666	0.021442
1099.979599	0.017336
1100.140513	0.018989
1100.301409	0.020608
1100.462287	0.023222
1100.623147	0.020106
1100.783989	0.024619
1100.944812	0.022836
1101.105617	0.024589
1101.266404	0.023147
1101.427173	0.023788
1101.587923	0.023663
1101.748656	0.022501
1101.909370	0.019299
1102.070066	0.021178
1102.230743	0.018345
1102.391403	0.017245
1102.552044	0.015367
1102.712667	0.013444
1102.873271	0.011712
1103.033858	0.011073
1103.194426	0.010028
1103.354976	0.010242
1103.515508	0.008751
1103.676021	0.010945
1103.836517	0.013503
1103.996994	0.016802
1104.157453	0.016402
1104.317893	0.017389
1104.478316	0.016275
1104.638720	0.017516
1104.799106	0.015625
1104.959474	0.015982
1105.119823	0.016980
1105.280155	0.016308
1105.440468	0.013476
1105.600763	0.015267
1105.761039	0.017334
1105.921298	0.018417
1106.081538	0.016330
1106.241760	0.021015
1106.401964	0.021648
1106.562149	0.023254
1106.722316	0.024701
1106.882465	0.027133
1107.042596	0.025678
1107.202709	0.029902
1107.362803	0.028085
1107.522879	0.027207
1107.682937	0.024292
1107.842977	0.028690
1108.002999	0.025578
1108.163002	0.025275
1108.322987	0.024382
1108.482954	0.024250
1108.642902	0.018719
1108.802833	0.017606
1108.962745	0.020295
1109.122639	0.022730
1109.282515	0.018181
1109.442372	0.016899
1109.602211	0.016816
1109.762032	0.018076
1109.921835	0.019162
1110.081620	0.020549
1110.241386	0.023188
1110.401134	0.022831
1110.560864	0.019723
1110.720576	0.021160
1110.880269	0.020584
1111.039945	0.017898
1111.199602	0.018163
1111.359240	0.017194
1111.518861	0.015421
1111.678463	0.015247
1111.838047	0.014541
1111.997613	0.014217
1112.157161	0.014996
1112.316690	0.016408
1112.476202	0.018165
1112.635695	0.015569
1112.795169	0.017682
1112.954626	0.019920
1113.114064	0.018860
1113.273484	0.017393
1113.432886	0.018478
1113.592270	0.016890
1113.751635	0.016737
1113.910983	0.015545
1114.070312	0.016987
1114.229622	0.015600
1114.388915	0.014759
1114.548189	0.017103
1114.707445	0.020648
1114.866683	0.020717
1115.025903	0.022285
1115.185104	0.021517
1115.344287	0.023274
1115.503452	0.023925
1115.662599	0.025104
1115.821727	0.026868
1115.980838	0.026699
1116.139930	0.028602
1116.299004	0.028274
1116.458059	0.022980
1116.617097	0.026040
1116.776116	0.024899
1116.935117	0.023539
1117.094099	0.024132
1117.253064	0.021812
1117.412010	0.020383
1117.570938	0.019422
1117.729848	0.019859
1117.888740	0.023222
1118.047613	0.022056
1118.206468	0.025655
1118.365305	0.029216
1118.524124	0.029624
1118.682924	0.028827
1118.841707	0.027501
1119.000471	0.026030
1119.159216	0.026858
1119.317944	0.029036
1119.476653	0.026080
1119.635344	0.021522
1119.794017	0.017080
1119.952672	0.018450
1120.111308	0.019057
1120.269927	0.022354
1120.428527	0.022287
1120.587108	0.024439
1120.745672	0.020563
1120.904217	0.020554
1121.062744	0.020848
1121.221253	0.019355
1121.379744	0.013825
1121.538216	0.015619
1121.696671	0.012825
1121.855107	0.010410
1122.013524	0.008525
1122.171924	0.012235
1122.330305	0.013069
1122.488668	0.013668
1122.647013	0.014737
1122.805340	0.015521
1122.963648	0.014040
1123.121938	0.013964
1123.280210	0.013895
1123.438464	0.012759
1123.596700	0.010933
1123.754917	0.012927
1123.913116	0.011570
1124.071297	0.014260
1124.229459	0.015926
1124.387604	0.017099
1124.545730	0.017915
1124.703838	0.018464
1124.861928	0.017901
1125.019999	0.021554
1125.178052	0.020406
1125.336088	0.022232
1125.494104	0.022066
1125.652103	0.022899
1125.810083	0.019876
1125.968045	0.020522
1126.125989	0.018275
1126.283915	0.021097
1126.441823	0.020609
1126.599712	0.020042
1126.757583	0.018811
1126.915436	0.019456
1127.073270	0.017713
1127.231087	0.016640
1127.388885	0.018410
1127.546665	0.020279
1127.704426	0.016204
1127.862170	0.014654
1128.019895	0.019350
1128.177602	0.023886
1128.335291	0.023215
1128.492961	0.024561
1128.650614	0.027880
1128.808248	0.023990
1128.965864	0.025631
1129.123461	0.031829
1129.281041	0.027365
1129.438602	0.021100
1129.596145	0.017538
1129.753670	0.020644
1129.911176	0.021813
1130.068665	0.026153
1130.226135	0.026893
1130.383587	0.025987
1130.541020	0.022571
1130.698436	0.023700
1130.855833	0.023704
1131.013212	0.023410
1131.170573	0.020660
1131.327915	0.017950
1131.485239	0.011704
1131.642545	0.008648
1131.799833	0.010266
1131.957103	0.007997
1132.114354	0.011579
1132.271588	0.010290
1132.428803	0.010885
1132.585999	0.012117
1132.743178	0.011470
1132.900338	0.011002
1133.057480	0.012625
1133.214604	0.008711
1133.371710	0.012674
1133.528797	0.012743
1133.685866	0.016118
1133.842917	0.014716
1133.999950	0.011492
1134.156964	0.015339
1134.313960	0.016441
1134.470938	0.017907
1134.627898	0.022251
1134.784840	0.020621
1134.941763	0.021672
1135.098668	0.017956
1135.255555	0.022990
1135.412424	0.021345
1135.569274	0.020695
1135.726107	0.022147
1135.882921	0.023677
1136.039716	0.020480
1136.196494	0.020021
1136.353253	0.021735
1136.509995	0.026779
1136.666717	0.025432
1136.823422	0.027030
1136.980109	0.027288
1137.136777	0.022730
1137.293427	0.019947
1137.450059	0.025466
1137.606672	0.028658
1137.763267	0.023130
1137.919844	0.023720
1138.076403	0.022307
1138.232944	0.027220
1138.389466	0.023785
1138.545971	0.029924
1138.702457	0.029608
1138.858924	0.027521
1139.015374	0.025749
1139.171805	0.028482
1139.328218	0.027382
1139.484613	0.024412
1139.640990	0.018630
1139.797348	0.020459
1139.953688	0.019500
1140.110010	0.025084
1140.266314	0.021433
1140.422600	0.021750
1140.578867	0.019463
1140.735116	0.019706
1140.891347	0.014061
1141.047559	0.016278
1141.203754	0.015967
1141.359930	0.013045
1141.516088	0.012057
1141.672228	0.011879
1141.828349	0.009597
1141.984452	0.010775
1142.140537	0.006423
1142.296604	0.014555
1142.452653	0.012658
1142.608683	0.014699
1142.764695	0.017975
1142.920689	0.017018
1143.076665	0.017574
1143.232622	0.021055
1143.388562	0.020993
1143.544483	0.020855
1143.700385	0.019257
1143.856270	0.017357
1144.012136	0.017503
1144.167985	0.013318
1144.323814	0.010217
1144.479626	0.007074
1144.635420	0.004277
1144.791195	0.001980
1144.946952	0.005910
1145.102691	0.007874
1145.258411	0.012681
1145.414113	0.014330
1145.569798	0.015165
1145.725463	0.012604
1145.881111	0.017519
1146.036741	0.018860
1146.192352	0.022028
1146.347945	0.021267
1146.503519	0.017112
1146.659076	0.013777
1146.814614	0.010255
1146.970134	0.011826
1147.125636	0.015570
1147.281120	0.013962
1147.436585	0.013275
1147.592032	0.011591
1147.747461	0.013491
1147.902872	0.015870
1148.058265	0.016448
1148.213639	0.014473
1148.368995	0.017119
1148.524333	0.018784
1148.679653	0.015611
1148.834954	0.018795
1148.990237	0.019822
1149.145502	0.013411
1149.300749	0.012583
1149.455977	0.012017
1149.611188	0.009521
1149.766380	0.003524
1149.921553	0.000438
1150.076709	0.005303
1150.231846	-0.000922
1150.386966	0.002287
1150.542066	0.003894
1150.697149	0.003595
1150.852214	0.006541
1151.007260	0.007540
1151.162288	0.008090
1151.317298	0.010863
1151.472289	0.010305
1151.627263	0.016993
1151.782218	0.011833
1151.937155	0.013499
1152.092073	0.017879
1152.246974	0.011740
1152.401856	0.017257
1152.556720	0.019314
1152.711566	0.013741
1152.866393	0.010600
1153.021203	0.005596
1153.175994	0.009369
1153.330767	0.014304
1153.485521	0.010237
1153.640258	0.013437
1153.794976	0.015098
1153.949676	0.015103
1154.104358	0.019309
1154.259021	0.022882
1154.413667	0.026040
1154.568294	0.028139
1154.722903	0.025058
1154.877493	0.024810
1155.032066	0.021420
1155.186620	0.020416
1155.341156	0.023819
1155.495674	0.026009
1155.650173	0.023837
1155.804654	0.022180
1155.959118	0.013401
1156.113562	0.015969
1156.267989	0.018334
1156.422397	0.020156
1156.576788	0.021277
1156.731160	0.020706
1156.885513	0.017097
1157.039849	0.017781
1157.194166	0.016800
1157.348465	0.022472
1157.502746	0.027440
1157.657009	0.029442
1157.811253	0.025744
1157.965479	0.024995
1158.119687	0.019641
1158.273877	0.026779
1158.428048	0.026530
1158.582201	0.024261
1158.736337	0.018169
1158.890453	0.009380
1159.044552	0.005577
1159.198632	0.014114
1159.352694	0.009948
1159.506738	0.008884
1159.660764	0.004473
1159.814771	0.002069
1159.968761	0.005563
1160.122732	0.004537
1160.276685	0.006040
1160.430619	0.009780
1160.584535	0.007658
1160.738434	0.010194
1160.892313	0.017690
1161.046175	0.016854
1161.200019	0.018908
1161.353844	0.022331
1161.507651	0.025125
1161.661440	0.027768
1161.815210	0.030467
1161.968962	0.035156
1162.122697	0.039473
1162.276412	0.038726
1162.430110	0.036203
1162.583789	0.042383
1162.737451	0.037862
1162.891094	0.030713
1163.044718	0.031498
1163.198325	0.023936
1163.351913	0.019248
1163.505483	0.015976
1163.659035	0.016947
1163.812569	0.015303
1163.966084	0.015915
1164.119581	0.015188
1164.273060	0.020532
1164.426521	0.013343
1164.579964	0.015567
1164.733388	0.007771
1164.886794	0.001398
1165.040182	-0.010246
1165.193551	-0.006625
1165.346903	-0.013825
1165.500236	-0.014865
1165.653551	-0.008519
1165.806848	-0.003487
1165.960126	-0.004890
1166.113386	0.002683
1166.266628	0.007460
1166.419852	0.014693
1166.573058	0.008221
1166.726245	0.018003
1166.879414	0.022607
1167.032565	0.026072
1167.185698	0.024233
1167.338812	0.023080
1167.491909	0.016910
1167.644987	0.016910
1167.798046	0.015711
1167.951088	0.020577
1168.104111	0.017345
1168.257117	0.015472
1168.410103	0.013519
1168.563072	0.003024
1168.716023	0.006143
1168.868955	0.015680
1169.021869	0.004355
1169.174765	-0.000487
1169.327642	0.000782
1169.480501	0.003727
1169.633343	0.008439
1169.786165	0.003689
1169.938970	0.006984
1170.091757	-0.000395
1170.244525	-0.006559
1170.397275	0.004976
1170.550007	0.015722
1170.702720	0.021784
1170.855415	0.010457
1171.008092	0.007309
1171.160751	0.010607
1171.313392	0.021006
1171.466014	-0.010026
1171.618619	0.039511
1171.771205	0.039511
1171.923772	0.039511
