sample name	sample
index	582
start time	 03-16-2021  03:54:40 PM


Wavelength (nm)	Absorbance
494.344910	NaN
494.563924	NaN
494.782919	NaN
495.001897	NaN
495.220856	NaN
495.439797	NaN
495.658719	NaN
495.877624	-0.339738
496.096510	-0.778211
496.315378	-1.384367
496.534227	-0.453572
496.753059	-0.221901
496.971872	-0.203156
497.190667	-0.003024
497.409444	0.001316
497.628203	0.002523
497.846943	0.001601
498.065665	0.002941
498.284369	0.003916
498.503055	0.006109
498.721723	0.007261
498.940372	0.007395
499.159003	0.007791
499.377616	0.009038
499.596210	0.009029
499.814787	0.009550
500.033345	0.011268
500.251885	0.010774
500.470406	0.010895
500.688910	0.010309
500.907395	0.011099
501.125862	0.011513
501.344311	0.009724
501.562742	0.009863
501.781154	0.010368
501.999548	0.008386
502.217924	0.008583
502.436282	0.008684
502.654621	0.007747
502.872942	0.008241
503.091245	0.006860
503.309530	0.007967
503.527797	0.009029
503.746045	0.007404
503.964275	0.007988
504.182487	0.006992
504.400681	0.006618
504.618856	0.007010
504.837013	0.005816
505.055152	0.007408
505.273273	0.006176
505.491376	0.005479
505.709460	0.006781
505.927526	0.006856
506.145574	0.007492
506.363604	0.006228
506.581615	0.006954
506.799608	0.007645
507.017583	0.007119
507.235540	0.007583
507.453478	0.007197
507.671399	0.007472
507.889301	0.006891
508.107185	0.006929
508.325050	0.007974
508.542898	0.007042
508.760727	0.006090
508.978538	0.006797
509.196330	0.006441
509.414105	0.006623
509.631861	0.005381
509.849599	0.006560
510.067319	0.006788
510.285021	0.006451
510.502704	0.006688
510.720369	0.006360
510.938016	0.006038
511.155645	0.006131
511.373255	0.006069
511.590848	0.007594
511.808422	0.006575
512.025977	0.005449
512.243515	0.005231
512.461034	0.004834
512.678536	0.005069
512.896018	0.004695
513.113483	0.005223
513.330930	0.005206
513.548358	0.003513
513.765768	0.003780
513.983160	0.004398
514.200533	0.003665
514.417889	0.003967
514.635226	0.004749
514.852545	0.004076
515.069845	0.003371
515.287128	0.002794
515.504392	0.003388
515.721638	0.003408
515.938866	0.004119
516.156075	0.004703
516.373267	0.004063
516.590440	0.003507
516.807594	0.004532
517.024731	0.004982
517.241850	0.005247
517.458950	0.005786
517.676032	0.005548
517.893095	0.004726
518.110141	0.004678
518.327168	0.004454
518.544177	0.003945
518.761168	0.003205
518.978141	0.003295
519.195095	0.003401
519.412031	0.002231
519.628949	0.001753
519.845849	0.002378
520.062731	0.002698
520.279594	0.002866
520.496439	0.003158
520.713266	0.002919
520.930074	0.003253
521.146865	0.003533
521.363637	0.004594
521.580391	0.004976
521.797127	0.004355
522.013844	0.003361
522.230543	0.003824
522.447224	0.004080
522.663887	0.003929
522.880532	0.003575
523.097158	0.002439
523.313766	0.001876
523.530356	0.001628
523.746928	0.001892
523.963481	0.003112
524.180017	0.003109
524.396534	0.002965
524.613032	0.003291
524.829513	0.002920
525.045975	0.003712
525.262420	0.003842
525.478845	0.004520
525.695253	0.005085
525.911643	0.004661
526.128014	0.004622
526.344367	0.004610
526.560702	0.004192
526.777018	0.004101
526.993316	0.004168
527.209597	0.004257
527.425858	0.003550
527.642102	0.003518
527.858328	0.003369
528.074535	0.003232
528.290724	0.002827
528.506894	0.002808
528.723047	0.002876
528.939181	0.003048
529.155297	0.002852
529.371395	0.002845
529.587475	0.001917
529.803536	0.001888
530.019579	0.001560
530.235604	0.001857
530.451611	0.002153
530.667600	0.002490
530.883570	0.002011
531.099522	0.001777
531.315456	0.001530
531.531372	0.002113
531.747269	0.002461
531.963148	0.002584
532.179009	0.002468
532.394852	0.001962
532.610676	0.001421
532.826482	0.001748
533.042271	0.001978
533.258040	0.002895
533.473792	0.002734
533.689525	0.001928
533.905240	0.001354
534.120937	0.001327
534.336616	0.002108
534.552277	0.002520
534.767919	0.002495
534.983543	0.002533
535.199149	0.001712
535.414736	0.002272
535.630306	0.002560
535.845857	0.002954
536.061390	0.003692
536.276904	0.003674
536.492401	0.003561
536.707879	0.003522
536.923339	0.003063
537.138781	0.003475
537.354204	0.003156
537.569610	0.003241
537.784997	0.003342
538.000366	0.002691
538.215716	0.002329
538.431049	0.002184
538.646363	0.001330
538.861659	0.001800
539.076937	0.001188
539.292196	0.000701
539.507438	0.000951
539.722661	0.001316
539.937866	0.001152
540.153052	0.001103
540.368221	0.000917
540.583371	0.001819
540.798503	0.001823
541.013617	0.002076
541.228712	0.002350
541.443789	0.002322
541.658848	0.002056
541.873889	0.002112
542.088912	0.002325
542.303916	0.002056
542.518902	0.002608
542.733870	0.001969
542.948820	0.001982
543.163752	0.001928
543.378665	0.001773
543.593560	0.001305
543.808437	0.000901
544.023295	0.001191
544.238136	0.001851
544.452958	0.000697
544.667762	0.000980
544.882548	0.001035
545.097315	0.000983
545.312064	0.001055
545.526795	0.001679
545.741508	0.002534
545.956203	0.002208
546.170879	0.001925
546.385537	0.001912
546.600177	0.001807
546.814799	0.001697
547.029402	0.001824
547.243988	0.002087
547.458555	0.002077
547.673103	0.001810
547.887634	0.001552
548.102146	0.001454
548.316640	0.001470
548.531116	0.001915
548.745574	0.002267
548.960013	0.001645
549.174435	0.001385
549.388838	0.001675
549.603222	0.002018
549.817589	0.002466
550.031937	0.002241
550.246267	0.002809
550.460579	0.002510
550.674873	0.002985
550.889148	0.003294
551.103405	0.003251
551.317644	0.002487
551.531865	0.002051
551.746068	0.001997
551.960252	0.002560
552.174418	0.002555
552.388566	0.002496
552.602696	0.002128
552.816807	0.001923
553.030900	0.001725
553.244975	0.001544
553.459032	0.001511
553.673070	0.001210
553.887091	0.000926
554.101093	0.000617
554.315077	0.000646
554.529042	0.000674
554.742990	0.000954
554.956919	0.001509
555.170830	0.002027
555.384722	0.002476
555.598597	0.002275
555.812453	0.002499
556.026291	0.002574
556.240111	0.002815
556.453913	0.002490
556.667696	0.002512
556.881461	0.001775
557.095208	0.001668
557.308937	0.001468
557.522647	0.001793
557.736339	0.001836
557.950013	0.001637
558.163669	0.001614
558.377307	0.001986
558.590926	0.001773
558.804527	0.002337
559.018110	0.002538
559.231675	0.002637
559.445221	0.002508
559.658749	0.002395
559.872259	0.002336
560.085751	0.001851
560.299225	0.001892
560.512680	0.001970
560.726117	0.001774
560.939536	0.001781
561.152937	0.001548
561.366319	0.001682
561.579683	0.001273
561.793029	0.001605
562.006357	0.001899
562.219667	0.001724
562.432958	0.001518
562.646231	0.001626
562.859486	0.001339
563.072723	0.000822
563.285941	0.000967
563.499141	0.001309
563.712323	0.001874
563.925487	0.002197
564.138632	0.002051
564.351760	0.002226
564.564869	0.001965
564.777960	0.001801
564.991032	0.002092
565.204087	0.001779
565.417123	0.001917
565.630141	0.000953
565.843140	0.000362
566.056122	0.000302
566.269085	0.000648
566.482030	0.000745
566.694957	0.001052
566.907866	0.000907
567.120756	0.001149
567.333628	0.000600
567.546482	0.001004
567.759318	0.001341
567.972135	0.001281
568.184935	0.000914
568.397716	0.000913
568.610478	0.001025
568.823223	0.001107
569.035949	0.000866
569.248657	0.001313
569.461347	0.000851
569.674019	0.000706
569.886672	0.000547
570.099308	0.000714
570.311925	0.000670
570.524523	0.000559
570.737104	0.000653
570.949666	0.000926
571.162210	0.000998
571.374736	0.001360
571.587244	0.001444
571.799733	0.001753
572.012205	0.001765
572.224658	0.001830
572.437092	0.001889
572.649509	0.001932
572.861907	0.001600
573.074287	0.001165
573.286649	0.000986
573.498993	0.000746
573.711318	0.000313
573.923625	0.000097
574.135914	0.000075
574.348185	-0.000071
574.560438	0.000286
574.772672	0.000491
574.984888	0.000510
575.197086	0.000239
575.409266	0.000808
575.621427	0.001228
575.833570	0.001509
576.045695	0.001415
576.257802	0.001465
576.469890	0.000915
576.681961	0.000755
576.894013	0.001143
577.106046	0.001688
577.318062	0.001251
577.530059	0.000989
577.742039	0.000894
577.954000	0.000780
578.165942	0.000719
578.377867	0.000881
578.589773	0.000776
578.801661	0.000753
579.013531	0.000630
579.225382	0.000597
579.437216	0.000638
579.649031	0.000230
579.860828	0.000660
580.072606	0.000507
580.284367	0.000517
580.496109	0.000597
580.707833	0.000884
580.919539	0.000650
581.131227	0.000561
581.342896	0.000610
581.554547	0.001348
581.766180	0.001046
581.977795	0.001288
582.189391	0.001151
582.400969	0.001244
582.612529	0.000886
582.824071	0.001164
583.035595	0.001423
583.247100	0.001323
583.458587	0.000968
583.670056	0.000809
583.881506	0.000633
584.092939	0.000752
584.304353	0.000453
584.515749	0.000118
584.727127	-0.000271
584.938486	0.000109
585.149828	0.000468
585.361151	0.000185
585.572456	0.000404
585.783742	0.000503
585.995011	0.000486
586.206261	0.000879
586.417493	0.000862
586.628706	0.001162
586.839902	0.000741
587.051079	0.000364
587.262238	0.000740
587.473379	0.000584
587.684502	0.000632
587.895606	0.001093
588.106692	0.000787
588.317760	0.001095
588.528810	0.001089
588.739841	0.000911
588.950855	0.000964
589.161850	0.000805
589.372827	0.000791
589.583785	0.000674
589.794726	0.000102
590.005648	0.000328
590.216552	0.000122
590.427437	-0.000001
590.638305	-0.000075
590.849154	0.000006
591.059985	-0.000131
591.270798	-0.000214
591.481592	-0.000234
591.692369	0.000014
591.903127	-0.000053
592.113867	0.000058
592.324588	0.000212
592.535292	0.000123
592.745977	0.000007
592.956644	-0.000145
593.167293	-0.000244
593.377923	-0.000335
593.588536	-0.000609
593.799130	-0.000701
594.009706	-0.000596
594.220263	-0.000614
594.430803	-0.000516
594.641324	-0.000228
594.851827	-0.000044
595.062312	-0.000025
595.272778	-0.000068
595.483227	0.000251
595.693657	0.000210
595.904069	-0.000064
596.114462	-0.000217
596.324838	-0.000306
596.535195	-0.000584
596.745534	-0.000658
596.955855	-0.000473
597.166157	-0.000323
597.376441	-0.000592
597.586707	-0.000592
597.796955	-0.000534
598.007185	-0.000469
598.217396	-0.000286
598.427589	-0.000285
598.637764	-0.000051
598.847921	-0.000116
599.058060	-0.000182
599.268180	-0.000027
599.478282	-0.000108
599.688366	-0.000009
599.898431	-0.000085
600.108479	-0.000222
600.318508	-0.000163
600.528519	-0.000047
600.738511	0.000140
600.948486	0.000381
601.158442	0.000086
601.368380	0.000539
601.578300	0.000368
601.788202	0.000538
601.998085	0.000821
602.207950	0.000936
602.417797	0.000646
602.627626	0.000934
602.837436	0.000677
603.047228	0.000960
603.257002	0.000476
603.466758	0.000727
603.676496	0.000977
603.886215	0.001002
604.095916	0.000981
604.305599	0.001113
604.515264	0.000437
604.724910	0.000460
604.934538	0.000503
605.144148	0.000532
605.353740	0.000480
605.563314	0.000156
605.772869	0.000162
605.982406	0.000084
606.191925	-0.000086
606.401425	-0.000024
606.610908	-0.000161
606.820372	-0.000436
607.029818	-0.000193
607.239246	-0.000435
607.448655	-0.000401
607.658047	-0.000418
607.867420	-0.000463
608.076775	-0.000379
608.286111	-0.000463
608.495430	-0.000198
608.704730	-0.000275
608.914012	-0.000565
609.123275	-0.000238
609.332521	-0.000316
609.541748	-0.000368
609.750957	-0.000508
609.960148	-0.000551
610.169321	-0.000087
610.378475	-0.000064
610.587611	0.000398
610.796729	0.000421
611.005829	0.000588
611.214910	0.000834
611.423974	0.000912
611.633019	0.000899
611.842045	0.000720
612.051054	0.000448
612.260044	0.000365
612.469017	-0.000183
612.677970	0.000045
612.886906	-0.000284
613.095824	-0.000491
613.304723	-0.000436
613.513604	-0.000154
613.722467	0.000305
613.931311	0.000276
614.140138	0.000073
614.348946	0.000382
614.557736	0.000257
614.766507	0.000269
614.975261	0.000263
615.183996	0.000015
615.392713	-0.000051
615.601412	-0.000234
615.810092	-0.000316
616.018754	0.000117
616.227399	0.000068
616.436024	0.000109
616.644632	0.000072
616.853222	-0.000022
617.061793	0.000242
617.270346	0.000361
617.478880	0.000314
617.687397	0.000423
617.895895	0.000041
618.104375	0.000247
618.312837	0.000333
618.521281	0.000630
618.729706	0.000799
618.938113	0.000742
619.146502	0.000545
619.354873	0.000722
619.563226	0.000868
619.771560	0.001063
619.979876	0.001100
620.188174	0.001223
620.396453	0.000937
620.604715	0.000837
620.812958	0.000446
621.021183	0.000486
621.229390	0.000310
621.437578	0.000235
621.645748	0.000035
621.853900	-0.000316
622.062034	-0.000491
622.270150	-0.000617
622.478247	-0.000579
622.686326	-0.000310
622.894387	-0.000288
623.102430	-0.000120
623.310454	0.000088
623.518461	0.000162
623.726449	0.000335
623.934418	0.000308
624.142370	0.000749
624.350303	0.000658
624.558218	0.000787
624.766115	0.000884
624.973994	0.000708
625.181855	0.000677
625.389697	0.000835
625.597521	0.000886
625.805327	0.000904
626.013114	0.000763
626.220883	0.000816
626.428634	0.000642
626.636367	0.000382
626.844082	0.000394
627.051778	0.000100
627.259457	0.000256
627.467117	0.000257
627.674758	0.000366
627.882382	0.000372
628.089987	0.000527
628.297574	0.000603
628.505143	0.000755
628.712694	0.000835
628.920226	0.000944
629.127740	0.000681
629.335236	0.000608
629.542714	0.000595
629.750174	0.000710
629.957615	0.000515
630.165038	0.000410
630.372443	0.000390
630.579829	0.000522
630.787198	0.000460
630.994548	0.000476
631.201880	0.000613
631.409194	0.000541
631.616489	0.000401
631.823766	0.000588
632.031025	0.000647
632.238266	0.000602
632.445489	0.000488
632.652693	0.000452
632.859879	0.000644
633.067047	0.000520
633.274197	0.000483
633.481329	0.000447
633.688442	0.000457
633.895537	0.000292
634.102614	0.000427
634.309672	0.000419
634.516713	0.000545
634.723735	0.000510
634.930739	0.000645
635.137724	0.000855
635.344692	0.000761
635.551641	0.000841
635.758572	0.001327
635.965485	0.001392
636.172379	0.001346
636.379256	0.001274
636.586114	0.001240
636.792954	0.001180
636.999775	0.001117
637.206579	0.001327
637.413364	0.001249
637.620131	0.000797
637.826880	0.000805
638.033610	0.000737
638.240323	0.000815
638.447017	0.000709
638.653692	0.000739
638.860350	0.000577
639.066990	0.000528
639.273611	0.000449
639.480214	0.000423
639.686798	0.000291
639.893365	0.000244
640.099913	0.000200
640.306443	0.000370
640.512955	0.000309
640.719449	0.000509
640.925924	0.000372
641.132381	0.000468
641.338820	0.000798
641.545241	0.000896
641.751644	0.001040
641.958028	0.001133
642.164394	0.001116
642.370742	0.001039
642.577071	0.000853
642.783383	0.000795
642.989676	0.000975
643.195951	0.000781
643.402207	0.000626
643.608446	0.000696
643.814666	0.000807
644.020868	0.000763
644.227052	0.000901
644.433218	0.000964
644.639365	0.001097
644.845494	0.000983
645.051605	0.001180
645.257698	0.001355
645.463772	0.001416
645.669828	0.001125
645.875866	0.001174
646.081886	0.001097
646.287888	0.001200
646.493871	0.001202
646.699836	0.000854
646.905783	0.000827
647.111712	0.000764
647.317622	0.000660
647.523514	0.001071
647.729388	0.001100
647.935244	0.001018
648.141082	0.000759
648.346901	0.000856
648.552702	0.001102
648.758485	0.000938
648.964250	0.000986
649.169996	0.001119
649.375724	0.000746
649.581434	0.000568
649.787126	0.000734
649.992800	0.000806
650.198455	0.000866
650.404092	0.000947
650.609711	0.001185
650.815311	0.001043
651.020894	0.001125
651.226458	0.001467
651.432004	0.001471
651.637532	0.001532
651.843041	0.001537
652.048532	0.001404
652.254006	0.001319
652.459460	0.001170
652.664897	0.001143
652.870315	0.000919
653.075716	0.000557
653.281097	0.000652
653.486461	0.000522
653.691807	0.000497
653.897134	0.000526
654.102443	0.000517
654.307734	0.000525
654.513006	0.000480
654.718261	0.000407
654.923497	0.000466
655.128715	0.000530
655.333915	0.000696
655.539096	0.000875
655.744259	0.000819
655.949404	0.000843
656.154531	0.000814
656.359640	0.000862
656.564730	0.000953
656.769802	0.000896
656.974856	0.000769
657.179892	0.000724
657.384909	0.000567
657.589908	0.000869
657.794889	0.000874
657.999852	0.001021
658.204797	0.001201
658.409723	0.001160
658.614631	0.001205
658.819521	0.001205
659.024393	0.001203
659.229246	0.001485
659.434081	0.001053
659.638898	0.001204
659.843697	0.001050
660.048478	0.001046
660.253240	0.001138
660.457984	0.001340
660.662710	0.001486
660.867417	0.001344
661.072107	0.001363
661.276778	0.001434
661.481431	0.001361
661.686066	0.001367
661.890682	0.001342
662.095281	0.001333
662.299861	0.001128
662.504422	0.000911
662.708966	0.001150
662.913491	0.000919
663.117999	0.000928
663.322488	0.000952
663.526958	0.000948
663.731411	0.000936
663.935845	0.000912
664.140261	0.001058
664.344659	0.001254
664.549038	0.001230
664.753400	0.001368
664.957743	0.001428
665.162068	0.001321
665.366375	0.001440
665.570663	0.001484
665.774933	0.001704
665.979185	0.001664
666.183419	0.001487
666.387635	0.001401
666.591832	0.001218
666.796011	0.001219
667.000172	0.001227
667.204315	0.001055
667.408439	0.001108
667.612545	0.000777
667.816634	0.000812
668.020703	0.000916
668.224755	0.000794
668.428788	0.000928
668.632803	0.000991
668.836800	0.001117
669.040779	0.001408
669.244739	0.001274
669.448681	0.001328
669.652605	0.001460
669.856511	0.001630
670.060399	0.001715
670.264268	0.001706
670.468119	0.001661
670.671952	0.001633
670.875767	0.001616
671.079563	0.001649
671.283341	0.001766
671.487101	0.001573
671.690843	0.001513
671.894567	0.001652
672.098272	0.001656
672.301959	0.001758
672.505628	0.001932
672.709278	0.001850
672.912911	0.001796
673.116525	0.001979
673.320121	0.001982
673.523699	0.002051
673.727258	0.002136
673.930799	0.002389
674.134322	0.002252
674.337827	0.001906
674.541314	0.002061
674.744782	0.002184
674.948232	0.001929
675.151664	0.001894
675.355078	0.002001
675.558474	0.001706
675.761851	0.001595
675.965210	0.001554
676.168551	0.001683
676.371873	0.001323
676.575178	0.001407
676.778464	0.001422
676.981732	0.001601
677.184981	0.001445
677.388213	0.001681
677.591426	0.001521
677.794621	0.001664
677.997798	0.001701
678.200956	0.001970
678.404097	0.001933
678.607219	0.002091
678.810323	0.002235
679.013408	0.002182
679.216476	0.001998
679.419525	0.002152
679.622556	0.002202
679.825569	0.002128
680.028563	0.002184
680.231540	0.002161
680.434498	0.001923
680.637438	0.001769
680.840359	0.001839
681.043263	0.001942
681.246148	0.001831
681.449015	0.001777
681.651864	0.002117
681.854694	0.002144
682.057506	0.002184
682.260301	0.002428
682.463076	0.002492
682.665834	0.002583
682.868573	0.002697
683.071295	0.002864
683.273998	0.002995
683.476682	0.002750
683.679349	0.002761
683.881997	0.002876
684.084627	0.002718
684.287239	0.002694
684.489833	0.002531
684.692408	0.002425
684.894965	0.002308
685.097504	0.002350
685.300025	0.002352
685.502527	0.002166
685.705012	0.002032
685.907478	0.002151
686.109925	0.002042
686.312355	0.001965
686.514766	0.001893
686.717159	0.001847
686.919534	0.001758
687.121891	0.001650
687.324230	0.001591
687.526550	0.001556
687.728852	0.001440
687.931136	0.001423
688.133401	0.001545
688.335649	0.001627
688.537878	0.001565
688.740089	0.001557
688.942281	0.001746
689.144456	0.001800
689.346612	0.001817
689.548750	0.002029
689.750870	0.002097
689.952971	0.002139
690.155055	0.002245
690.357120	0.002561
690.559167	0.002466
690.761195	0.002383
690.963206	0.002680
691.165198	0.002690
691.367172	0.002489
691.569128	0.002708
691.771065	0.002717
691.972984	0.002758
692.174885	0.002563
692.376768	0.002917
692.578633	0.002987
692.780479	0.002786
692.982308	0.002882
693.184118	0.003030
693.385909	0.002883
693.587683	0.002632
693.789438	0.002356
693.991175	0.002354
694.192894	0.001928
694.394595	0.001782
694.596277	0.001735
694.797941	0.001521
694.999587	0.001418
695.201215	0.001395
695.402824	0.001577
695.604416	0.001640
695.805989	0.001702
696.007543	0.001857
696.209080	0.001923
696.410598	0.002014
696.612099	0.002253
696.813580	0.002594
697.015044	0.002680
697.216490	0.002983
697.417917	0.003185
697.619326	0.003337
697.820717	0.003562
698.022089	0.003722
698.223444	0.003782
698.424780	0.003848
698.626098	0.003569
698.827397	0.003472
699.028679	0.003281
699.229942	0.003245
699.431187	0.003236
699.632414	0.003110
699.833622	0.002894
700.034813	0.002934
700.235985	0.002845
700.437139	0.002798
700.638274	0.002926
700.839392	0.003005
701.040491	0.003083
701.241572	0.002959
701.442635	0.002796
701.643679	0.002745
701.844706	0.002649
702.045714	0.002633
702.246704	0.002791
702.447675	0.002831
702.648629	0.002812
702.849564	0.002695
703.050481	0.002678
703.251380	0.002799
703.452260	0.002815
703.653122	0.002646
703.853966	0.002611
704.054792	0.002549
704.255600	0.002337
704.456389	0.002259
704.657160	0.002099
704.857913	0.002219
705.058648	0.002285
705.259365	0.002381
705.460063	0.002448
705.660743	0.002448
705.861405	0.002521
706.062048	0.002508
706.262674	0.002367
706.463281	0.002350
706.663870	0.002332
706.864441	0.002153
707.064993	0.001992
707.265527	0.002075
707.466043	0.002147
707.666541	0.001974
707.867021	0.002146
708.067482	0.002168
708.267925	0.002149
708.468350	0.001858
708.668757	0.001912
708.869145	0.002180
709.069516	0.002160
709.269868	0.002045
709.470201	0.002105
709.670517	0.001882
709.870814	0.001838
710.071093	0.002116
710.271354	0.002339
710.471597	0.002216
710.671821	0.002091
710.872028	0.001948
711.072216	0.001870
711.272385	0.001778
711.472537	0.001942
711.672670	0.002029
711.872785	0.001910
712.072882	0.001923
712.272961	0.002095
712.473021	0.002219
712.673063	0.002402
712.873087	0.002427
713.073093	0.002621
713.273081	0.002547
713.473050	0.002446
713.673001	0.002227
713.872934	0.002184
714.072849	0.002225
714.272745	0.002099
714.472623	0.001914
714.672483	0.001785
714.872325	0.001537
715.072148	0.001448
715.271954	0.001507
715.471741	0.001606
715.671509	0.001465
715.871260	0.001361
716.070992	0.001191
716.270707	0.001185
716.470403	0.001143
716.670080	0.001329
716.869740	0.001266
717.069381	0.001167
717.269004	0.001216
717.468609	0.001153
717.668195	0.001002
717.867764	0.001018
718.067314	0.000876
718.266846	0.001042
718.466360	0.000960
718.665855	0.001149
718.865332	0.001303
719.064791	0.001305
719.264232	0.001323
719.463655	0.001281
719.663059	0.001203
719.862445	0.001471
720.061813	0.001520
720.261163	0.001377
720.460494	0.001438
720.659807	0.001368
720.859102	0.001392
721.058379	0.001410
721.257638	0.001585
721.456878	0.001717
721.656100	0.001473
721.855304	0.001362
722.054490	0.001344
722.253657	0.001246
722.452806	0.001125
722.651937	0.001061
722.851050	0.000948
723.050145	0.000847
723.249221	0.001026
723.448279	0.001131
723.647319	0.001166
723.846340	0.001075
724.045344	0.000898
724.244329	0.000921
724.443296	0.000779
724.642245	0.001046
724.841175	0.000946
725.040088	0.000677
725.238982	0.000602
725.437857	0.000546
725.636715	0.000699
725.835554	0.000702
726.034376	0.000677
726.233179	0.000773
726.431963	0.000433
726.630730	0.000516
726.829478	0.000503
727.028208	0.000342
727.226920	0.000469
727.425614	0.000167
727.624289	0.000225
727.822946	-0.000037
728.021585	-0.000214
728.220206	-0.000056
728.418808	-0.000276
728.617392	-0.000418
728.815958	-0.000349
729.014506	-0.000623
729.213036	-0.000527
729.411547	-0.000595
729.610040	-0.000458
729.808515	-0.000390
730.006972	-0.000594
730.205410	-0.000346
730.403831	-0.000043
730.602233	0.000050
730.800616	0.000006
730.998982	0.000080
731.197329	-0.000126
731.395658	0.000032
731.593969	0.000072
731.792262	0.000049
731.990536	-0.000077
732.188793	-0.000245
732.387031	-0.000409
732.585250	-0.000408
732.783452	-0.000468
732.981635	-0.000307
733.179800	-0.000368
733.377947	-0.000334
733.576076	-0.000305
733.774186	-0.000216
733.972278	-0.000134
734.170352	0.000040
734.368408	0.000061
734.566446	0.000050
734.764465	0.000134
734.962466	0.000167
735.160449	0.000002
735.358413	0.000057
735.556360	-0.000011
735.754288	-0.000250
735.952198	-0.000334
736.150090	-0.000362
736.347963	-0.000386
736.545818	-0.000394
736.743655	-0.000542
736.941474	-0.000508
737.139275	-0.000657
737.337057	-0.000765
737.534821	-0.000756
737.732567	-0.000901
737.930295	-0.001195
738.128005	-0.001336
738.325696	-0.001615
738.523369	-0.001775
738.721024	-0.001770
738.918660	-0.001793
739.116279	-0.001625
739.313879	-0.001598
739.511461	-0.001739
739.709024	-0.001544
739.906570	-0.001455
740.104097	-0.001562
740.301606	-0.001314
740.499097	-0.001409
740.696569	-0.001280
740.894024	-0.001365
741.091460	-0.001500
741.288878	-0.001495
741.486277	-0.001456
741.683659	-0.001346
741.881022	-0.001044
742.078367	-0.001086
742.275694	-0.000840
742.473002	-0.000817
742.670293	-0.000977
742.867565	-0.000885
743.064819	-0.000783
743.262054	-0.000722
743.459272	-0.000735
743.656471	-0.000784
743.853652	-0.000770
744.050815	-0.001026
744.247959	-0.001013
744.445085	-0.000915
744.642194	-0.000789
744.839283	-0.000534
745.036355	-0.000549
745.233408	-0.000395
745.430444	-0.000517
745.627461	-0.000580
745.824459	-0.000468
746.021440	-0.000480
746.218402	-0.000503
746.415346	-0.000582
746.612272	-0.000812
746.809180	-0.000920
747.006069	-0.001072
747.202940	-0.001209
747.399793	-0.001320
747.596628	-0.001568
747.793444	-0.001559
747.990243	-0.001756
748.187023	-0.001678
748.383784	-0.001660
748.580528	-0.001614
748.777253	-0.001725
748.973960	-0.001629
749.170649	-0.001549
749.367320	-0.001285
749.563973	-0.001221
749.760607	-0.000980
749.957223	-0.001115
750.153821	-0.001031
750.350400	-0.000960
750.546962	-0.000862
750.743505	-0.000622
750.940030	-0.000433
751.136536	-0.000481
751.333025	-0.000605
751.529495	-0.000677
751.725947	-0.000635
751.922381	-0.000826
752.118796	-0.000893
752.315194	-0.000693
752.511573	-0.000789
752.707934	-0.000976
752.904276	-0.001153
753.100601	-0.001075
753.296907	-0.000999
753.493195	-0.001191
753.689465	-0.001105
753.885716	-0.000987
754.081949	-0.001277
754.278164	-0.001261
754.474361	-0.001265
754.670540	-0.000984
754.866700	-0.000849
755.062843	-0.000941
755.258967	-0.000595
755.455072	-0.000563
755.651160	-0.000508
755.847229	-0.000415
756.043280	-0.000411
756.239313	-0.000486
756.435328	-0.000577
756.631324	-0.000645
756.827302	-0.000424
757.023262	-0.000364
757.219204	-0.000237
757.415127	-0.000325
757.611033	-0.000343
757.806920	-0.000621
758.002788	-0.000663
758.198639	-0.000595
758.394471	-0.000651
758.590286	-0.000631
758.786081	-0.000699
758.981859	-0.000429
759.177619	-0.000175
759.373360	-0.000232
759.569083	0.000154
759.764788	0.000429
759.960474	0.000412
760.156143	0.000413
760.351793	0.000459
760.547425	0.000558
760.743038	0.000148
760.938634	-0.000159
761.134211	0.000209
761.329770	-0.000031
761.525311	-0.000072
761.720833	0.000082
761.916338	0.000032
762.111824	-0.000144
762.307292	-0.000331
762.502741	-0.000232
762.698173	-0.000115
762.893586	-0.000436
763.088981	-0.000014
763.284358	-0.000050
763.479716	-0.000138
763.675057	0.000015
763.870379	0.000060
764.065683	0.000107
764.260968	0.000271
764.456236	0.000235
764.651485	0.000305
764.846716	0.000023
765.041929	0.000006
765.237123	-0.000038
765.432299	-0.000070
765.627457	0.000004
765.822597	0.000144
766.017719	-0.000071
766.212822	-0.000080
766.407907	-0.000074
766.602974	0.000119
766.798023	0.000137
766.993054	0.000133
767.188066	-0.000017
767.383060	-0.000171
767.578036	-0.000367
767.772993	-0.000148
767.967933	-0.000173
768.162854	0.000096
768.357757	-0.000052
768.552642	0.000106
768.747508	0.000022
768.942356	0.000216
769.137186	0.000320
769.331998	0.000407
769.526792	0.000290
769.721567	0.000434
769.916324	0.000190
770.111063	0.000192
770.305784	0.000050
770.500486	0.000244
770.695171	0.000226
770.889837	0.000301
771.084484	0.000309
771.279114	0.000271
771.473725	0.000169
771.668318	0.000156
771.862893	0.000382
772.057450	0.000431
772.251988	0.000342
772.446509	0.000310
772.641011	0.000308
772.835494	0.000422
773.029960	0.000572
773.224407	0.000779
773.418836	0.000769
773.613247	0.000521
773.807640	0.000451
774.002014	0.000526
774.196370	0.000431
774.390708	0.000267
774.585028	0.000270
774.779330	0.000327
774.973613	0.000310
775.167878	0.000403
775.362125	0.000565
775.556354	0.000457
775.750564	0.000464
775.944756	0.000481
776.138930	0.000540
776.333086	0.000608
776.527223	0.000293
776.721343	0.000022
776.915444	-0.000226
777.109526	-0.000408
777.303591	-0.000348
777.497637	-0.000247
777.691666	-0.000170
777.885676	-0.000539
778.079667	-0.000927
778.273641	-0.000784
778.467596	-0.000604
778.661533	-0.000483
778.855452	-0.000478
779.049352	-0.000344
779.243235	-0.000656
779.437099	-0.000640
779.630945	-0.000261
779.824773	0.000081
780.018582	0.000005
780.212373	-0.000144
780.406146	0.000044
780.599901	0.000057
780.793638	0.000209
780.987356	0.000409
781.181056	0.000504
781.374738	0.000719
781.568402	0.000982
781.762047	0.001264
781.955674	0.001568
782.149283	0.001409
782.342874	0.001700
782.536447	0.001690
782.730001	0.001687
782.923537	0.001696
783.117055	0.001644
783.310555	0.001409
783.504036	0.001201
783.697499	0.001034
783.890944	0.001102
784.084371	0.001056
784.277780	0.000987
784.471170	0.001021
784.664542	0.001168
784.857896	0.001216
785.051231	0.001114
785.244549	0.001351
785.437848	0.001406
785.631129	0.001546
785.824392	0.001535
786.017636	0.001624
786.210863	0.001604
786.404071	0.001246
786.597260	0.001087
786.790432	0.001102
786.983585	0.000953
787.176721	0.000994
787.369838	0.000937
787.562936	0.000732
787.756017	0.000739
787.949079	0.000753
788.142123	0.000950
788.335149	0.000951
788.528156	0.000984
788.721146	0.000976
788.914117	0.001000
789.107070	0.001162
789.300005	0.001401
789.492921	0.001470
789.685819	0.001478
789.878699	0.001536
790.071561	0.001898
790.264405	0.001772
790.457230	0.001939
790.650037	0.001799
790.842826	0.001680
791.035597	0.001745
791.228349	0.001641
791.421084	0.001795
791.613800	0.001724
791.806497	0.001508
791.999177	0.001660
792.191838	0.001734
792.384481	0.001892
792.577106	0.001873
792.769713	0.002009
792.962301	0.001969
793.154871	0.001895
793.347423	0.001931
793.539957	0.001865
793.732473	0.001778
793.924970	0.001440
794.117449	0.001486
794.309910	0.001505
794.502353	0.001245
794.694777	0.001190
794.887183	0.001174
795.079571	0.001129
795.271941	0.001182
795.464293	0.001384
795.656626	0.001602
795.848941	0.001683
796.041238	0.001685
796.233516	0.001548
796.425777	0.001614
796.618019	0.001408
796.810243	0.001644
797.002449	0.001738
797.194636	0.001599
797.386805	0.001548
797.578956	0.001581
797.771089	0.001577
797.963204	0.001590
798.155300	0.001662
798.347378	0.002143
798.539438	0.001931
798.731480	0.001931
798.923503	0.002049
799.115509	0.002243
799.307496	0.002125
799.499465	0.002129
799.691415	0.002219
799.883348	0.001962
800.075262	0.001787
800.267158	0.001782
800.459035	0.001811
800.650895	0.001723
800.842736	0.001662
801.034559	0.001440
801.226364	0.001313
801.418150	0.001442
801.609919	0.001671
801.801669	0.001639
801.993401	0.001720
802.185114	0.001836
802.376810	0.002110
802.568487	0.002244
802.760146	0.002540
802.951787	0.002659
803.143409	0.002672
803.335014	0.002768
803.526600	0.002787
803.718168	0.002663
803.909717	0.002483
804.101249	0.002366
804.292762	0.002071
804.484257	0.001941
804.675734	0.002111
804.867192	0.002184
805.058632	0.002188
805.250054	0.002159
805.441458	0.002444
805.632844	0.002382
805.824211	0.002304
806.015561	0.002493
806.206891	0.002522
806.398204	0.002586
806.589499	0.002451
806.780775	0.002368
806.972033	0.002384
807.163273	0.002353
807.354495	0.002496
807.545698	0.002570
807.736883	0.002549
807.928050	0.002663
808.119199	0.002625
808.310329	0.002761
808.501441	0.002806
808.692535	0.003077
808.883611	0.003039
809.074669	0.002861
809.265708	0.002873
809.456729	0.002988
809.647732	0.003214
809.838717	0.003027
810.029683	0.003015
810.220632	0.003090
810.411562	0.002834
810.602474	0.002961
810.793367	0.003289
810.984242	0.003273
811.175100	0.003239
811.365938	0.003116
811.556759	0.003228
811.747562	0.003113
811.938346	0.003008
812.129112	0.002922
812.319860	0.002739
812.510589	0.002644
812.701300	0.002626
812.891994	0.002464
813.082668	0.002404
813.273325	0.002227
813.463964	0.002314
813.654584	0.002486
813.845186	0.002775
814.035769	0.002758
814.226335	0.002734
814.416882	0.002792
814.607411	0.002796
814.797922	0.002932
814.988415	0.003210
815.178889	0.003203
815.369345	0.003297
815.559783	0.003312
815.750203	0.003491
815.940605	0.003369
816.130988	0.003390
816.321353	0.003486
816.511700	0.003309
816.702028	0.003390
816.892339	0.003514
817.082631	0.003357
817.272905	0.003240
817.463161	0.003049
817.653398	0.003062
817.843617	0.003046
818.033819	0.003117
818.224001	0.003155
818.414166	0.002974
818.604312	0.002906
818.794440	0.002811
818.984550	0.002653
819.174642	0.002742
819.364716	0.002747
819.554771	0.002581
819.744808	0.002605
819.934827	0.002599
820.124827	0.002651
820.314810	0.002671
820.504774	0.002909
820.694720	0.002813
820.884647	0.002620
821.074557	0.002536
821.264448	0.002751
821.454321	0.002402
821.644176	0.002122
821.834012	0.001949
822.023831	0.001927
822.213631	0.001861
822.403413	0.001913
822.593176	0.002047
822.782922	0.002187
822.972649	0.002074
823.162358	0.002279
823.352049	0.002516
823.541721	0.002710
823.731376	0.002258
823.921012	0.002084
824.110629	0.002268
824.300229	0.002595
824.489811	0.002659
824.679374	0.002505
824.868919	0.002443
825.058445	0.002435
825.247954	0.002424
825.437444	0.002750
825.626916	0.002858
825.816370	0.002573
826.005806	0.002216
826.195223	0.002217
826.384622	0.002376
826.574003	0.002248
826.763366	0.002049
826.952711	0.001958
827.142037	0.002003
827.331345	0.001744
827.520635	0.001708
827.709906	0.001660
827.899160	0.001593
828.088395	0.001416
828.277612	0.001577
828.466810	0.001752
828.655991	0.001878
828.845153	0.001954
829.034297	0.001893
829.223423	0.002039
829.412531	0.002073
829.601620	0.002171
829.790691	0.002346
829.979744	0.002374
830.168779	0.002531
830.357795	0.002443
830.546793	0.002301
830.735773	0.002625
830.924735	0.002540
831.113679	0.002492
831.302604	0.002040
831.491511	0.002134
831.680400	0.002174
831.869271	0.001897
832.058123	0.001736
832.246957	0.001860
832.435773	0.001706
832.624571	0.001867
832.813351	0.001819
833.002112	0.002053
833.190855	0.002001
833.379580	0.001958
833.568287	0.001941
833.756975	0.002146
833.945645	0.002102
834.134297	0.002080
834.322931	0.002083
834.511547	0.002077
834.700144	0.002127
834.888723	0.002058
835.077284	0.002214
835.265826	0.002309
835.454351	0.002319
835.642857	0.002484
835.831345	0.002484
836.019815	0.002594
836.208266	0.002682
836.396699	0.002703
836.585114	0.002592
836.773511	0.002241
836.961890	0.002309
837.150250	0.002218
837.338592	0.002000
837.526916	0.001806
837.715222	0.001989
837.903510	0.002168
838.091779	0.002176
838.280030	0.002357
838.468263	0.002578
838.656477	0.002812
838.844674	0.002945
839.032852	0.003042
839.221012	0.003342
839.409153	0.003127
839.597277	0.003012
839.785382	0.003012
839.973469	0.002897
840.161538	0.003100
840.349589	0.002900
840.537621	0.002884
840.725635	0.002547
840.913631	0.002393
841.101609	0.002207
841.289568	0.002399
841.477509	0.002291
841.665432	0.002351
841.853337	0.002163
842.041224	0.002292
842.229092	0.002447
842.416942	0.002563
842.604774	0.002786
842.792588	0.003106
842.980383	0.002970
843.168160	0.003170
843.355919	0.003222
843.543660	0.003302
843.731382	0.002853
843.919087	0.002375
844.106773	0.002617
844.294441	0.002715
844.482090	0.002613
844.669722	0.002792
844.857335	0.002716
845.044930	0.002694
845.232507	0.002581
845.420065	0.002919
845.607605	0.003258
845.795127	0.003419
845.982631	0.003395
846.170117	0.003360
846.357584	0.003124
846.545033	0.003302
846.732464	0.003250
846.919877	0.003264
847.107272	0.003213
847.294648	0.003134
847.482006	0.003009
847.669346	0.002925
847.856667	0.002988
848.043971	0.002892
848.231256	0.003168
848.418523	0.003361
848.605771	0.003499
848.793002	0.003829
848.980214	0.003952
849.167408	0.003707
849.354584	0.003877
849.541742	0.004046
849.728881	0.004197
849.916002	0.003892
850.103105	0.003860
850.290190	0.003805
850.477256	0.003677
850.664304	0.003691
850.851334	0.003962
851.038346	0.004002
851.225340	0.003904
851.412315	0.004100
851.599272	0.004143
851.786211	0.004269
851.973132	0.004496
852.160034	0.004600
852.346918	0.004589
852.533784	0.004950
852.720632	0.004725
852.907462	0.004855
853.094273	0.004941
853.281066	0.005029
853.467841	0.005054
853.654598	0.005292
853.841336	0.005359
854.028056	0.005338
854.214758	0.005193
854.401442	0.005484
854.588107	0.005337
854.774755	0.005369
854.961384	0.005374
855.147995	0.005186
855.334587	0.004921
855.521162	0.004985
855.707718	0.004810
855.894256	0.004828
856.080775	0.004813
856.267277	0.004964
856.453760	0.004991
856.640225	0.005053
856.826672	0.005121
857.013101	0.005134
857.199511	0.004856
857.385903	0.005118
857.572277	0.005017
857.758633	0.004886
857.944970	0.004880
858.131290	0.004731
858.317591	0.004344
858.503873	0.004203
858.690138	0.004112
858.876384	0.004184
859.062612	0.003973
859.248822	0.004175
859.435014	0.004359
859.621188	0.004518
859.807343	0.004812
859.993480	0.005232
860.179599	0.005523
860.365699	0.005646
860.551781	0.006109
860.737846	0.006469
860.923891	0.006423
861.109919	0.006302
861.295929	0.006079
861.481920	0.005954
861.667893	0.005749
861.853848	0.005831
862.039784	0.005727
862.225702	0.005517
862.411603	0.005458
862.597484	0.005447
862.783348	0.005547
862.969193	0.005419
863.155021	0.005269
863.340830	0.005391
863.526620	0.005179
863.712393	0.005402
863.898147	0.004993
864.083883	0.005271
864.269601	0.005181
864.455301	0.004930
864.640982	0.005170
864.826645	0.005377
865.012290	0.005371
865.197917	0.005370
865.383526	0.005445
865.569116	0.005805
865.754688	0.005504
865.940242	0.005523
866.125777	0.005947
866.311295	0.006114
866.496794	0.005815
866.682275	0.006140
866.867737	0.006332
867.053182	0.006321
867.238608	0.006192
867.424016	0.006338
867.609406	0.006422
867.794778	0.006379
867.980131	0.006148
868.165466	0.006304
868.350783	0.006352
868.536082	0.006426
868.721362	0.006252
868.906625	0.006209
869.091869	0.006177
869.277094	0.006129
869.462302	0.006219
869.647491	0.006457
869.832662	0.006733
870.017815	0.006682
870.202950	0.006617
870.388066	0.006745
870.573165	0.006981
870.758245	0.007008
870.943306	0.007175
871.128350	0.007247
871.313375	0.007238
871.498382	0.007078
871.683371	0.006991
871.868342	0.007175
872.053294	0.007332
872.238229	0.007732
872.423144	0.007753
872.608042	0.007894
872.792922	0.008184
872.977783	0.008120
873.162626	0.008026
873.347451	0.007965
873.532258	0.007670
873.717046	0.007693
873.901816	0.007410
874.086568	0.007907
874.271302	0.007888
874.456017	0.007285
874.640715	0.007088
874.825394	0.007348
875.010055	0.007335
875.194697	0.007475
875.379322	0.007328
875.563928	0.007340
875.748516	0.006791
875.933085	0.006703
876.117637	0.006786
876.302170	0.007246
876.486685	0.007367
876.671182	0.007690
876.855661	0.007548
877.040121	0.007488
877.224563	0.007404
877.408987	0.007295
877.593393	0.007233
877.777780	0.007494
877.962150	0.007199
878.146501	0.006961
878.330833	0.006916
878.515148	0.007138
878.699444	0.007332
878.883722	0.007599
879.067982	0.008017
879.252224	0.008219
879.436447	0.007980
879.620653	0.007977
879.804840	0.008122
879.989008	0.008065
880.173159	0.008282
880.357291	0.008237
880.541405	0.007827
880.725501	0.007560
880.909579	0.007538
881.093638	0.007677
881.277680	0.007632
881.461703	0.007533
881.645707	0.007476
881.829694	0.007501
882.013662	0.007479
882.197612	0.007588
882.381544	0.007608
882.565458	0.007454
882.749353	0.007573
882.933230	0.007803
883.117089	0.008188
883.300930	0.008462
883.484753	0.008678
883.668557	0.009129
883.852343	0.009291
884.036111	0.009632
884.219861	0.009795
884.403592	0.009574
884.587305	0.009744
884.771000	0.009473
884.954677	0.009177
885.138335	0.008951
885.321976	0.008548
885.505598	0.008496
885.689201	0.008209
885.872787	0.008381
886.056354	0.008748
886.239904	0.008507
886.423434	0.008837
886.606947	0.008963
886.790442	0.008740
886.973918	0.008828
887.157376	0.008844
887.340816	0.008940
887.524237	0.008947
887.707641	0.008903
887.891026	0.008854
888.074393	0.008307
888.257741	0.008415
888.441072	0.008629
888.624384	0.008761
888.807678	0.009013
888.990954	0.009162
889.174211	0.009165
889.357451	0.009067
889.540672	0.009307
889.723875	0.009820
889.907059	0.009774
890.090226	0.009975
890.273374	0.010175
890.456504	0.010155
890.639616	0.010469
890.822709	0.009903
891.005785	0.009868
891.188842	0.010083
891.371881	0.009833
891.554901	0.009952
891.737904	0.009702
891.920888	0.009134
892.103854	0.009116
892.286802	0.008656
892.469731	0.009033
892.652643	0.008932
892.835536	0.008753
893.018410	0.008927
893.201267	0.008721
893.384106	0.008788
893.566926	0.009138
893.749728	0.008956
893.932511	0.008913
894.115277	0.008770
894.298024	0.009022
894.480753	0.009108
894.663464	0.009235
894.846157	0.009083
895.028831	0.008960
895.211487	0.008895
895.394125	0.009184
895.576745	0.009217
895.759346	0.009281
895.941930	0.009347
896.124495	0.009347
896.307041	0.009151
896.489570	0.009094
896.672080	0.009187
896.854573	0.009350
897.037046	0.009402
897.219502	0.009894
897.401940	0.009884
897.584359	0.009664
897.766760	0.009869
897.949143	0.009847
898.131507	0.009968
898.313854	0.009951
898.496182	0.009795
898.678492	0.009657
898.860783	0.009302
899.043057	0.009429
899.225312	0.009594
899.407549	0.009410
899.589768	0.009415
899.771968	0.009549
899.954151	0.009419
900.136315	0.009450
900.318461	0.009258
900.500588	0.009179
900.682698	0.009207
900.864789	0.009000
901.046862	0.009101
901.228917	0.008972
901.410953	0.009012
901.592971	0.009363
901.774972	0.009170
901.956953	0.009172
902.138917	0.009395
902.320862	0.009252
902.502790	0.009298
902.684699	0.008771
902.866589	0.009067
903.048462	0.008803
903.230316	0.008639
903.412152	0.008806
903.593970	0.008875
903.775770	0.008383
903.957551	0.008283
904.139314	0.008428
904.321059	0.009128
904.502786	0.008927
904.684494	0.009208
904.866185	0.009492
905.047857	0.009444
905.229510	0.009460
905.411146	0.009961
905.592763	0.010206
905.774363	0.009721
905.955943	0.009515
906.137506	0.009560
906.319051	0.009377
906.500577	0.008629
906.682085	0.008347
906.863575	0.008338
907.045046	0.008193
907.226500	0.007646
907.407935	0.008032
907.589352	0.007448
907.770750	0.007387
907.952131	0.007266
908.133493	0.007289
908.314837	0.007409
908.496163	0.007175
908.677470	0.006954
908.858760	0.007313
909.040031	0.006862
909.221284	0.007021
909.402518	0.006800
909.583735	0.006779
909.764933	0.006906
909.946113	0.006834
910.127275	0.006988
910.308418	0.007162
910.489544	0.006904
910.670651	0.006936
910.851740	0.007175
911.032810	0.007264
911.213863	0.007232
911.394897	0.007424
911.575913	0.007756
911.756911	0.007339
911.937890	0.007050
912.118851	0.007059
912.299794	0.007386
912.480719	0.007169
912.661626	0.006914
912.842514	0.007160
913.023384	0.007104
913.204236	0.007229
913.385070	0.007515
913.565886	0.007735
913.746683	0.008042
913.927462	0.008006
914.108223	0.007771
914.288965	0.008470
914.469690	0.008409
914.650396	0.008329
914.831084	0.007823
915.011754	0.007577
915.192405	0.007162
915.373038	0.007002
915.553653	0.006833
915.734250	0.006958
915.914829	0.006466
916.095389	0.005623
916.275931	0.005772
916.456455	0.005869
916.636961	0.005690
916.817448	0.005990
916.997917	0.005852
917.178368	0.005666
917.358801	0.005546
917.539216	0.005202
917.719612	0.005561
917.899990	0.005240
918.080350	0.005048
918.260692	0.005115
918.441015	0.004894
918.621320	0.005013
918.801607	0.005321
918.981876	0.005414
919.162127	0.005413
919.342359	0.005488
919.522573	0.005740
919.702769	0.005613
919.882947	0.005898
920.063106	0.005693
920.243247	0.005378
920.423370	0.005022
920.603475	0.004685
920.783562	0.004425
920.963630	0.004474
921.143680	0.003910
921.323712	0.003678
921.503725	0.003126
921.683721	0.003271
921.863698	0.003305
922.043657	0.003183
922.223598	0.003032
922.403520	0.002868
922.583424	0.002287
922.763311	0.002459
922.943178	0.002480
923.123028	0.002658
923.302859	0.002186
923.482673	0.001595
923.662467	0.001577
923.842244	0.001547
924.022003	0.002062
924.201743	0.002547
924.381465	0.002973
924.561169	0.003164
924.740854	0.003103
924.920522	0.002835
925.100171	0.003002
925.279802	0.003072
925.459414	0.003476
925.639009	0.002916
925.818585	0.002971
925.998143	0.001942
926.177683	0.001530
926.357205	0.001591
926.536708	0.001886
926.716193	0.002052
926.895660	0.001965
927.075109	0.001434
927.254539	0.001174
927.433951	0.000740
927.613345	0.000720
927.792721	0.000769
927.972079	0.000364
928.151418	0.000299
928.330739	-0.000270
928.510042	-0.000739
928.689327	-0.000701
928.868593	-0.000590
929.047841	-0.001401
929.227071	-0.001388
929.406283	-0.001391
929.585476	-0.001416
929.764652	-0.001753
929.943809	-0.001805
930.122948	-0.001753
930.302068	-0.002800
930.481171	-0.002593
930.660255	-0.002351
930.839321	-0.002412
931.018369	-0.003166
931.197398	-0.003416
931.376409	-0.003597
931.555402	-0.003749
931.734377	-0.003269
931.913334	-0.003065
932.092272	-0.003099
932.271192	-0.002865
932.450094	-0.003512
932.628978	-0.003701
932.807844	-0.003554
932.986691	-0.003434
933.165520	-0.003155
933.344331	-0.004842
933.523123	-0.004532
933.701898	-0.005356
933.880654	-0.005707
934.059392	-0.005447
934.238111	-0.005415
934.416813	-0.005718
934.595496	-0.005634
934.774161	-0.006197
934.952808	-0.005378
935.131437	-0.005899
935.310047	-0.006085
935.488639	-0.005977
935.667213	-0.006647
935.845769	-0.006351
936.024306	-0.006753
936.202825	-0.007014
936.381326	-0.007437
936.559809	-0.008084
936.738274	-0.007664
936.916720	-0.007341
937.095148	-0.008007
937.273558	-0.008054
937.451950	-0.008279
937.630323	-0.008407
937.808678	-0.008959
937.987015	-0.008756
938.165334	-0.008978
938.343635	-0.009251
938.521917	-0.009868
938.700181	-0.009283
938.878427	-0.008596
939.056655	-0.009157
939.234864	-0.009301
939.413055	-0.009527
939.591228	-0.009320
939.769383	-0.008951
939.947519	-0.009581
940.125638	-0.009253
940.303738	-0.009684
940.481820	-0.009934
940.659883	-0.010121
940.837929	-0.010914
941.015956	-0.010651
941.193965	-0.010964
941.371955	-0.010899
941.549928	-0.010349
941.727882	-0.010894
941.905818	-0.010750
942.083736	-0.011084
942.261636	-0.010990
942.439517	-0.009825
942.617380	-0.010026
942.795225	-0.009933
942.973052	-0.010478
943.150860	-0.011400
943.328651	-0.011722
943.506423	-0.012032
943.684176	-0.013418
943.861912	-0.013075
944.039629	-0.013272
944.217328	-0.012870
944.395009	-0.012607
944.572672	-0.012824
944.750317	-0.012596
944.927943	-0.012812
945.105551	-0.012787
945.283141	-0.011506
945.460712	-0.012323
945.638265	-0.013902
945.815801	-0.014187
945.993317	-0.014342
946.170816	-0.014808
946.348297	-0.013907
946.525759	-0.013429
946.703203	-0.014533
946.880629	-0.014918
947.058036	-0.015213
947.235425	-0.014071
947.412797	-0.014737
947.590149	-0.015836
947.767484	-0.014930
947.944800	-0.015570
948.122099	-0.016211
948.299379	-0.015836
948.476640	-0.015331
948.653884	-0.014169
948.831109	-0.014625
949.008316	-0.014191
949.185505	-0.013971
949.362676	-0.014175
949.539828	-0.013641
949.716962	-0.013445
949.894078	-0.012536
950.071176	-0.013381
950.248256	-0.013023
950.425317	-0.012228
950.602360	-0.011427
950.779385	-0.011444
950.956391	-0.012218
951.133380	-0.013154
951.310350	-0.012107
951.487302	-0.012319
951.664235	-0.011372
951.841151	-0.011682
952.018048	-0.012601
952.194927	-0.012338
952.371788	-0.012146
952.548631	-0.011267
952.725455	-0.011161
952.902261	-0.011386
953.079049	-0.011739
953.255819	-0.012618
953.432570	-0.012996
953.609303	-0.011459
953.786018	-0.014651
953.962715	-0.015640
954.139394	-0.016739
954.316054	-0.016464
954.492696	-0.017179
954.669320	-0.015864
954.845926	-0.015308
955.022513	-0.013265
955.199083	-0.015530
955.375634	-0.013204
955.552166	-0.010495
955.728681	-0.008272
955.905177	-0.007865
956.081655	-0.007954
956.258115	-0.010105
956.434557	-0.007313
956.610980	-0.010034
956.787385	-0.009219
956.963772	-0.009059
957.140141	-0.010984
957.316492	-0.012139
957.492824	-0.012342
957.669138	-0.012518
957.845434	-0.010017
958.021712	-0.013327
958.197971	-0.011589
958.374212	-0.009849
958.550435	-0.008503
958.726640	-0.008251
958.902826	-0.006491
959.078995	-0.006426
959.255145	-0.003156
959.431277	-0.001374
959.607390	0.001930
959.783486	-0.000424
959.959563	-0.000689
960.135622	-0.000704
960.311662	0.001446
960.487685	-0.000426
960.663689	0.000334
960.839675	-0.001850
961.015643	-0.005832
961.191593	-0.010213
961.367524	-0.008767
961.543437	-0.008791
961.719332	-0.011502
961.895209	-0.012064
962.071067	-0.012326
962.246907	-0.011248
962.422730	-0.010581
962.598533	-0.008623
962.774319	-0.007602
962.950086	-0.005900
963.125835	-0.005564
963.301566	-0.001504
963.477279	0.000044
963.652973	0.001459
963.828650	-0.000667
964.004308	0.001739
964.179947	0.001858
964.355569	0.002457
964.531172	0.000083
964.706757	-0.002139
964.882324	-0.004332
965.057873	-0.008237
965.233403	-0.007017
965.408916	-0.005272
965.584410	-0.008174
965.759885	-0.009862
965.935343	-0.008009
966.110782	-0.006843
966.286203	-0.005116
966.461606	-0.002871
966.636991	-0.001002
966.812357	-0.001251
966.987705	0.000637
967.163035	0.002866
967.338347	0.003650
967.513641	0.003879
967.688916	0.004683
967.864173	0.005091
968.039412	0.002382
968.214632	0.004315
968.389835	0.002939
968.565019	0.001692
968.740185	0.000696
968.915333	0.002155
969.090462	0.002429
969.265573	0.002026
969.440667	-0.000489
969.615741	-0.000102
969.790798	0.000496
969.965836	-0.000184
970.140856	0.000569
970.315858	0.000879
970.490842	0.001160
970.665808	0.002439
970.840755	0.004240
971.015684	0.008469
971.190595	0.010593
971.365487	0.008586
971.540362	0.010901
971.715218	0.010718
971.890056	0.011893
972.064875	0.011532
972.239677	0.008426
972.414460	0.009159
972.589225	0.008572
972.763972	0.006083
972.938700	0.005246
973.113411	0.005397
973.288103	0.001254
973.462777	0.000003
973.637432	-0.000690
973.812070	0.001853
973.986689	0.000600
974.161290	0.000278
974.335873	0.003966
974.510437	0.006238
974.684984	0.007016
974.859512	0.009624
975.034022	0.009353
975.208513	0.009920
975.382987	0.009435
975.557442	0.008236
975.731879	0.007734
975.906298	0.002716
976.080698	0.001134
976.255080	0.002220
976.429445	-0.001456
976.603790	-0.000450
976.778118	-0.000365
976.952427	-0.002283
977.126719	-0.002545
977.300992	-0.002464
977.475246	0.000855
977.649483	0.003237
977.823701	0.000463
977.997901	0.004560
978.172083	0.005732
978.346247	0.004266
978.520392	0.005951
978.694519	0.007644
978.868628	0.006619
979.042719	0.007722
979.216791	0.006422
979.390845	0.006594
979.564882	0.007128
979.738899	0.007075
979.912899	0.009177
980.086880	0.009919
980.260843	0.009466
980.434788	0.010787
980.608715	0.010318
980.782623	0.010486
980.956514	0.013402
981.130386	0.012742
981.304240	0.010226
981.478075	0.009831
981.651892	0.008711
981.825692	0.007134
981.999472	0.006628
982.173235	0.007000
982.346980	0.005446
982.520706	0.002756
982.694414	0.002184
982.868104	0.003898
983.041775	0.004307
983.215428	0.004551
983.389064	0.006779
983.562680	0.008462
983.736279	0.004929
983.909860	0.006133
984.083422	0.005860
984.256966	0.006810
984.430491	0.004545
984.603999	0.004049
984.777488	0.001957
984.950959	0.000889
985.124412	0.000112
985.297847	0.002147
985.471263	0.001384
985.644661	0.001411
985.818041	-0.000034
985.991403	-0.000250
986.164747	-0.000850
986.338072	0.001597
986.511379	0.002000
986.684668	0.002418
986.857938	0.002907
987.031191	0.004757
987.204425	0.006482
987.377641	0.009249
987.550839	0.010216
987.724018	0.010941
987.897179	0.011022
988.070322	0.010306
988.243447	0.009861
988.416554	0.009949
988.589642	0.010687
988.762712	0.009270
988.935764	0.009773
989.108798	0.010880
989.281813	0.009525
989.454811	0.007422
989.627790	0.007609
989.800751	0.005886
989.973693	0.005182
990.146617	0.004293
990.319524	0.004298
990.492412	0.004102
990.665281	0.002620
990.838133	0.005553
991.010966	0.007415
991.183781	0.008757
991.356578	0.009801
991.529356	0.011410
991.702117	0.011553
991.874859	0.011097
992.047583	0.009592
992.220288	0.008849
992.392976	0.006851
992.565645	0.007311
992.738296	0.005296
992.910929	0.006423
993.083543	0.003934
993.256139	0.003216
993.428718	0.004779
993.601277	0.005226
993.773819	0.006008
993.946342	0.004171
994.118848	0.003984
994.291335	0.004875
994.463803	0.004798
994.636254	0.005845
994.808686	0.004792
994.981100	0.004084
995.153496	0.004526
995.325874	0.005170
995.498233	0.006578
995.670574	0.005590
995.842897	0.004242
996.015202	0.005719
996.187488	0.005668
996.359757	0.006134
996.532007	0.005387
996.704239	0.003882
996.876452	0.005545
997.048648	0.005993
997.220825	0.005669
997.392984	0.009655
997.565124	0.006206
997.737247	0.005347
997.909351	0.005169
998.081437	0.005647
998.253505	0.005405
998.425554	0.001861
998.597586	0.001456
998.769599	0.002758
998.941594	0.001435
999.113571	0.001925
999.285529	0.001620
999.457469	0.002235
999.629391	0.002666
999.801295	0.001443
999.973181	0.004732
1000.145048	0.004585
1000.316897	0.003659
1000.488728	0.003340
1000.660541	0.004732
1000.832335	0.004846
1001.004111	0.004910
1001.175869	0.005736
1001.347609	0.006989
1001.519331	0.006439
1001.691034	0.008186
1001.862719	0.009099
1002.034386	0.007893
1002.206035	0.006634
1002.377665	0.005194
1002.549277	0.005272
1002.720871	0.003390
1002.892447	0.003576
1003.064004	0.004289
1003.235544	0.001767
1003.407065	0.001298
1003.578568	0.002880
1003.750052	0.003721
1003.921519	0.006703
1004.092967	0.007241
1004.264397	0.008070
1004.435809	0.008168
1004.607202	0.006455
1004.778577	0.008364
1004.949934	0.007882
1005.121273	0.006233
1005.292594	0.006868
1005.463896	0.006552
1005.635180	0.005570
1005.806446	0.005624
1005.977694	0.005062
1006.148923	0.006753
1006.320135	0.008691
1006.491328	0.009758
1006.662503	0.009991
1006.833659	0.010121
1007.004798	0.009606
1007.175918	0.010605
1007.347020	0.009645
1007.518103	0.010855
1007.689169	0.010096
1007.860216	0.008633
1008.031245	0.007125
1008.202256	0.007667
1008.373248	0.007252
1008.544223	0.006395
1008.715179	0.007911
1008.886117	0.008193
1009.057036	0.007460
1009.227938	0.006404
1009.398821	0.003920
1009.569686	0.005017
1009.740533	0.003745
1009.911361	0.002146
1010.082172	0.002927
1010.252964	0.000664
1010.423738	0.000478
1010.594493	-0.000683
1010.765231	0.000155
1010.935950	0.000811
1011.106651	-0.000217
1011.277334	0.001013
1011.447998	0.001117
1011.618645	0.000936
1011.789273	0.002332
1011.959882	0.003021
1012.130474	0.004295
1012.301048	0.006176
1012.471603	0.005863
1012.642140	0.006223
1012.812658	0.004113
1012.983159	0.005249
1013.153641	0.005952
1013.324105	0.005032
1013.494551	0.005133
1013.664979	0.004426
1013.835388	0.001781
1014.005779	0.003768
1014.176152	0.003981
1014.346507	0.005588
1014.516843	0.006022
1014.687162	0.005242
1014.857462	0.004998
1015.027744	0.004572
1015.198007	0.004975
1015.368252	0.005513
1015.538480	0.003129
1015.708689	0.003896
1015.878879	0.006239
1016.049052	0.005674
1016.219206	0.004390
1016.389342	0.004225
1016.559460	0.003256
1016.729559	0.003552
1016.899641	0.004636
1017.069704	0.004774
1017.239749	0.002796
1017.409775	-0.000147
1017.579784	0.000836
1017.749774	0.001219
1017.919746	0.001310
1018.089700	0.003575
1018.259635	0.004319
1018.429553	0.004371
1018.599452	0.006645
1018.769333	0.006804
1018.939195	0.006848
1019.109040	0.004708
1019.278866	0.007693
1019.448674	0.008170
1019.618464	0.005367
1019.788235	0.004266
1019.957989	0.003474
1020.127724	0.002369
1020.297441	0.002919
1020.467139	0.003180
1020.636820	0.004229
1020.806482	0.001578
1020.976126	0.000277
1021.145752	0.002630
1021.315359	0.004082
1021.484948	0.004874
1021.654519	0.007414
1021.824072	0.007967
1021.993607	0.008583
1022.163123	0.007293
1022.332621	0.009096
1022.502101	0.010169
1022.671563	0.007068
1022.841007	0.006302
1023.010432	0.004813
1023.179839	0.003906
1023.349228	0.005226
1023.518598	0.004349
1023.687951	0.004357
1023.857285	0.003099
1024.026601	0.001526
1024.195899	0.003583
1024.365178	0.003777
1024.534439	0.003053
1024.703682	0.003277
1024.872907	0.000279
1025.042114	0.000761
1025.211302	0.001784
1025.380472	-0.000643
1025.549624	0.000027
1025.718758	-0.001445
1025.887873	-0.000542
1026.056970	0.001527
1026.226049	-0.000544
1026.395110	0.000285
1026.564153	0.001693
1026.733177	0.001450
1026.902183	0.003494
1027.071171	0.002915
1027.240141	0.002772
1027.409092	-0.000473
1027.578026	-0.001529
1027.746940	-0.003616
1027.915837	-0.001638
1028.084716	-0.002216
1028.253576	-0.001146
1028.422418	-0.001512
1028.591242	0.000601
1028.760048	0.002171
1028.928835	0.003376
1029.097604	0.001541
1029.266355	0.003625
1029.435088	0.002344
1029.603803	0.000613
1029.772499	-0.001304
1029.941177	-0.001212
1030.109837	-0.002056
1030.278478	-0.000895
1030.447102	-0.001433
1030.615707	-0.000075
1030.784294	0.001544
1030.952863	0.001608
1031.121413	0.001357
1031.289945	0.001227
1031.458460	0.000410
1031.626955	-0.000588
1031.795433	-0.001013
1031.963892	-0.000860
1032.132334	-0.000261
1032.300756	-0.001295
1032.469161	-0.001489
1032.637548	0.001325
1032.805916	0.002964
1032.974266	0.003555
1033.142598	0.005174
1033.310911	0.005823
1033.479207	0.007251
1033.647484	0.005593
1033.815743	0.004552
1033.983983	0.005037
1034.152206	0.003356
1034.320410	0.001099
1034.488596	0.002862
1034.656764	0.003246
1034.824914	0.001915
1034.993045	-0.000154
1035.161158	0.002328
1035.329253	0.002727
1035.497330	0.001765
1035.665388	0.004523
1035.833428	0.007228
1036.001450	0.006759
1036.169454	0.005021
1036.337440	0.005242
1036.505407	0.006709
1036.673356	0.004526
1036.841287	0.003475
1037.009200	0.003790
1037.177094	0.000473
1037.344970	-0.001244
1037.512828	-0.002941
1037.680668	-0.002230
1037.848489	-0.004497
1038.016293	-0.004678
1038.184078	-0.003319
1038.351845	-0.003991
1038.519593	-0.002432
1038.687324	-0.001422
1038.855036	-0.002648
1039.022730	-0.001369
1039.190406	-0.000683
1039.358063	0.002895
1039.525702	0.004902
1039.693323	0.004508
1039.860926	0.005393
1040.028511	0.005926
1040.196077	0.006329
1040.363625	0.008965
1040.531155	0.008735
1040.698667	0.005781
1040.866161	0.004622
1041.033636	0.002380
1041.201093	0.001625
1041.368532	0.002862
1041.535952	0.001937
1041.703355	0.001483
1041.870739	0.001475
1042.038105	0.004242
1042.205452	0.005148
1042.372782	0.004392
1042.540093	0.004326
1042.707386	0.004438
1042.874661	0.004698
1043.041918	0.003600
1043.209156	0.002131
1043.376376	0.001457
1043.543578	-0.000209
1043.710762	-0.001640
1043.877927	-0.001247
1044.045074	-0.000825
1044.212203	-0.000387
1044.379314	-0.000269
1044.546407	0.001277
1044.713481	0.002815
1044.880537	0.003048
1045.047575	0.002883
1045.214595	0.007425
1045.381596	0.008777
1045.548579	0.009696
1045.715544	0.009848
1045.882491	0.009234
1046.049420	0.009312
1046.216330	0.008852
1046.383222	0.010163
1046.550096	0.009584
1046.716951	0.006118
1046.883789	0.007102
1047.050608	0.007003
1047.217409	0.006904
1047.384192	0.007188
1047.550956	0.006820
1047.717703	0.006513
1047.884431	0.004241
1048.051140	0.005457
1048.217832	0.004917
1048.384505	0.005094
1048.551161	0.005852
1048.717798	0.007587
1048.884416	0.006997
1049.051017	0.004785
1049.217599	0.003675
1049.384163	0.003073
1049.550709	0.002541
1049.717237	0.002903
1049.883746	-0.000975
1050.050237	-0.003722
1050.216710	-0.005103
1050.383165	-0.005298
1050.549601	-0.003048
1050.716019	-0.002731
1050.882420	-0.000040
1051.048801	0.000026
1051.215165	0.003000
1051.381510	0.002338
1051.547837	0.006726
1051.714146	0.008071
1051.880437	0.008194
1052.046709	0.006387
1052.212964	0.007987
1052.379200	0.007285
1052.545417	0.006578
1052.711617	0.004312
1052.877798	0.006031
1053.043961	0.003638
1053.210106	0.001868
1053.376233	0.004481
1053.542341	0.005147
1053.708432	0.005573
1053.874504	0.004501
1054.040557	0.006893
1054.206593	0.007323
1054.372610	0.007089
1054.538609	0.005055
1054.704590	0.005613
1054.870553	0.002831
1055.036497	0.002071
1055.202424	0.000525
1055.368331	0.000480
1055.534221	-0.000958
1055.700093	-0.000229
1055.865946	-0.000359
1056.031781	0.001967
1056.197598	0.002251
1056.363397	0.001026
1056.529177	0.002738
1056.694939	0.003067
1056.860683	0.003099
1057.026409	0.001851
1057.192116	-0.000338
1057.357806	0.000784
1057.523477	0.000607
1057.689130	0.000397
1057.854764	0.000969
1058.020381	-0.000215
1058.185979	0.000999
1058.351559	0.001239
1058.517120	0.000104
1058.682664	0.002538
1058.848189	0.001842
1059.013696	0.001022
1059.179185	0.000405
1059.344656	0.002256
1059.510108	0.000254
1059.675542	0.000130
1059.840958	0.000031
1060.006356	0.002498
1060.171735	0.000728
1060.337096	0.002527
1060.502439	0.002915
1060.667764	0.003026
1060.833071	0.001895
1060.998359	0.004731
1061.163629	0.004939
1061.328881	0.005556
1061.494115	0.004210
1061.659330	0.006175
1061.824527	0.003444
1061.989706	0.001978
1062.154867	0.001348
1062.320010	0.003091
1062.485134	0.002499
1062.650240	-0.000472
1062.815328	-0.001639
1062.980398	-0.002076
1063.145449	-0.004143
1063.310482	-0.003973
1063.475497	-0.000386
1063.640494	0.001342
1063.805473	0.001120
1063.970433	0.000041
1064.135375	0.002158
1064.300299	0.002948
1064.465204	0.004923
1064.630092	0.006683
1064.794961	0.007775
1064.959812	0.006089
1065.124645	0.006718
1065.289459	0.004647
1065.454256	0.005536
1065.619034	0.004485
1065.783793	0.003974
1065.948535	0.001413
1066.113258	-0.000492
1066.277964	0.000438
1066.442651	-0.000276
1066.607319	-0.000813
1066.771970	0.000193
1066.936602	0.002585
1067.101216	0.003931
1067.265812	0.004921
1067.430389	0.004564
1067.594949	0.004562
1067.759490	0.004057
1067.924013	0.003139
1068.088518	0.000696
1068.253004	0.001480
1068.417472	-0.000527
1068.581922	-0.002588
1068.746354	-0.004144
1068.910768	0.000219
1069.075163	0.001449
1069.239540	0.002083
1069.403899	0.003557
1069.568240	0.003765
1069.732562	0.002174
1069.896866	0.002271
1070.061152	0.003507
1070.225420	0.004595
1070.389670	0.003603
1070.553901	0.003239
1070.718114	0.003236
1070.882309	0.003897
1071.046486	0.005085
1071.210644	0.007377
1071.374784	0.005872
1071.538906	0.006741
1071.703010	0.006471
1071.867096	0.002478
1072.031163	0.003095
1072.195212	0.003387
1072.359243	0.000989
1072.523256	-0.000746
1072.687250	-0.002889
1072.851226	-0.001033
1073.015184	-0.002294
1073.179124	-0.001639
1073.343045	0.001585
1073.506949	-0.000546
1073.670834	-0.001783
1073.834701	-0.000968
1073.998549	-0.000838
1074.162380	-0.002879
1074.326192	-0.003326
1074.489986	-0.002284
1074.653761	-0.002118
1074.817519	-0.003253
1074.981258	-0.000637
1075.144979	-0.004079
1075.308682	-0.004271
1075.472367	-0.003495
1075.636033	-0.002432
1075.799681	-0.003160
1075.963311	-0.005774
1076.126923	-0.005704
1076.290516	-0.007720
1076.454092	-0.008471
1076.617649	-0.007456
1076.781187	-0.007000
1076.944708	-0.006514
1077.108210	-0.006615
1077.271695	-0.004232
1077.435160	-0.003163
1077.598608	-0.003271
1077.762038	-0.000213
1077.925449	-0.000072
1078.088842	0.003665
1078.252217	0.003525
1078.415573	0.005094
1078.578912	0.006957
1078.742232	0.003774
1078.905534	0.002785
1079.068817	0.003060
1079.232083	0.002762
1079.395330	0.002049
1079.558559	0.001648
1079.721770	0.000617
1079.884962	-0.001403
1080.048136	-0.000657
1080.211293	-0.001221
1080.374430	0.000493
1080.537550	0.000481
1080.700651	-0.000291
1080.863735	0.001203
1081.026800	0.000449
1081.189846	0.002104
1081.352875	0.002513
1081.515885	0.000714
1081.678877	0.004898
1081.841851	0.003353
1082.004807	0.001990
1082.167744	0.003259
1082.330663	0.002045
1082.493564	0.002854
1082.656447	0.002247
1082.819312	0.003747
1082.982158	0.004825
1083.144986	0.001437
1083.307796	0.002715
1083.470587	0.002650
1083.633361	0.003189
1083.796116	0.003074
1083.958853	0.001085
1084.121571	-0.001526
1084.284272	-0.003518
1084.446954	-0.003285
1084.609618	-0.004576
1084.772264	-0.004653
1084.934892	-0.003737
1085.097501	-0.005740
1085.260092	-0.007352
1085.422665	-0.007424
1085.585220	-0.005579
1085.747756	-0.000242
1085.910274	-0.001498
1086.072774	0.000660
1086.235256	0.003218
1086.397720	0.004821
1086.560165	0.004067
1086.722592	0.005692
1086.885001	0.007580
1087.047392	0.010580
1087.209764	0.006892
1087.372119	0.007552
1087.534455	0.003839
1087.696772	-0.000352
1087.859072	-0.002771
1088.021353	-0.002805
1088.183616	-0.001554
1088.345861	-0.003399
1088.508088	-0.008001
1088.670296	-0.008871
1088.832486	-0.008913
1088.994658	-0.002756
1089.156812	0.000085
1089.318948	-0.002600
1089.481065	0.000277
1089.643164	0.000448
1089.805245	-0.000206
1089.967308	0.001070
1090.129352	-0.000810
1090.291378	0.001257
1090.453386	0.001007
1090.615376	-0.002010
1090.777347	0.004021
1090.939301	0.002768
1091.101236	-0.001990
1091.263153	-0.001386
1091.425051	-0.001145
1091.586932	-0.000124
1091.748794	-0.002709
1091.910638	-0.006307
1092.072463	-0.005138
1092.234271	-0.008765
1092.396060	-0.009405
1092.557831	-0.007456
1092.719584	-0.007706
1092.881319	-0.009725
1093.043035	-0.009114
1093.204733	-0.009465
1093.366413	-0.007967
1093.528075	-0.009075
1093.689718	-0.008275
1093.851343	-0.004201
1094.012950	-0.003105
1094.174539	-0.001929
1094.336110	0.003014
1094.497662	0.001390
1094.659196	0.002466
1094.820712	0.005308
1094.982210	0.007519
1095.143689	0.006102
1095.305151	0.002759
1095.466594	0.002797
1095.628018	0.003129
1095.789425	0.001753
1095.950813	0.001628
1096.112183	-0.001120
1096.273535	-0.004250
1096.434869	-0.004946
1096.596184	-0.002743
1096.757482	-0.004384
1096.918761	-0.006953
1097.080021	-0.007225
1097.241264	-0.009462
1097.402488	-0.006107
1097.563694	-0.001690
1097.724882	-0.001588
1097.886052	-0.000335
1098.047203	-0.000565
1098.208336	0.000272
1098.369451	0.003381
1098.530548	0.002456
1098.691627	0.000234
1098.852687	-0.002773
1099.013729	-0.005231
1099.174753	-0.005110
1099.335758	-0.007493
1099.496746	-0.009987
1099.657715	-0.010838
1099.818666	-0.010007
1099.979599	-0.012115
1100.140513	-0.008286
1100.301409	-0.007314
1100.462287	-0.007969
1100.623147	-0.008705
1100.783989	-0.005200
1100.944812	-0.004569
1101.105617	-0.004953
1101.266404	-0.006514
1101.427173	-0.004726
1101.587923	-0.005833
1101.748656	-0.004995
1101.909370	-0.003852
1102.070066	-0.003862
1102.230743	-0.005663
1102.391403	-0.006038
1102.552044	-0.005303
1102.712667	0.001010
1102.873271	0.003409
1103.033858	0.001543
1103.194426	0.001364
1103.354976	0.002528
1103.515508	0.001542
1103.676021	0.002013
1103.836517	0.002534
1103.996994	0.000951
1104.157453	-0.003807
1104.317893	-0.010242
1104.478316	-0.005540
1104.638720	-0.005695
1104.799106	-0.006176
1104.959474	-0.004671
1105.119823	-0.004653
1105.280155	-0.002104
1105.440468	0.000429
1105.600763	-0.001400
1105.761039	0.001757
1105.921298	-0.003642
1106.081538	-0.003519
1106.241760	-0.002077
1106.401964	-0.004586
1106.562149	-0.005500
1106.722316	-0.006519
1106.882465	-0.005964
1107.042596	-0.005677
1107.202709	-0.006130
1107.362803	-0.001728
1107.522879	-0.004580
1107.682937	-0.009251
1107.842977	-0.006491
1108.002999	-0.006077
1108.163002	-0.006942
1108.322987	-0.007253
1108.482954	-0.009111
1108.642902	-0.007864
1108.802833	-0.008647
1108.962745	-0.003437
1109.122639	0.000038
1109.282515	-0.007572
1109.442372	-0.008136
1109.602211	-0.005643
1109.762032	-0.007245
1109.921835	-0.002158
1110.081620	-0.003807
1110.241386	-0.001731
1110.401134	-0.002465
1110.560864	-0.007078
1110.720576	-0.000729
1110.880269	-0.000371
1111.039945	-0.004576
1111.199602	-0.004417
1111.359240	-0.013693
1111.518861	-0.010764
1111.678463	-0.015542
1111.838047	-0.014743
1111.997613	-0.010887
1112.157161	-0.006705
1112.316690	-0.009535
1112.476202	-0.007535
1112.635695	-0.006333
1112.795169	-0.000984
1112.954626	-0.000841
1113.114064	0.001883
1113.273484	-0.002662
1113.432886	-0.004103
1113.592270	-0.003677
1113.751635	0.000502
1113.910983	-0.001289
1114.070312	0.001318
1114.229622	0.002212
1114.388915	0.004395
1114.548189	0.000214
1114.707445	0.000727
1114.866683	0.001786
1115.025903	-0.004895
1115.185104	-0.003849
1115.344287	-0.001564
1115.503452	-0.005533
1115.662599	-0.004619
1115.821727	-0.009867
1115.980838	-0.007280
1116.139930	-0.008734
1116.299004	-0.009889
1116.458059	-0.006261
1116.617097	-0.006403
1116.776116	-0.010613
1116.935117	-0.012175
1117.094099	-0.014009
1117.253064	-0.011045
1117.412010	-0.009386
1117.570938	-0.007082
1117.729848	-0.010649
1117.888740	-0.008206
1118.047613	-0.014169
1118.206468	-0.012258
1118.365305	-0.011671
1118.524124	-0.008780
1118.682924	-0.007166
1118.841707	-0.009737
1119.000471	-0.007472
1119.159216	0.000187
1119.317944	-0.004567
1119.476653	0.002331
1119.635344	0.000158
1119.794017	-0.000397
1119.952672	-0.000274
1120.111308	0.001205
1120.269927	0.002004
1120.428527	-0.001914
1120.587108	-0.012044
1120.745672	-0.013312
1120.904217	-0.019640
1121.062744	-0.015029
1121.221253	-0.016792
1121.379744	-0.016872
1121.538216	-0.022575
1121.696671	-0.023641
1121.855107	-0.021061
1122.013524	-0.011611
1122.171924	-0.014422
1122.330305	-0.008856
1122.488668	-0.009295
1122.647013	-0.005535
1122.805340	-0.006844
1122.963648	-0.000494
1123.121938	0.005099
1123.280210	-0.001516
1123.438464	-0.000753
1123.596700	0.010017
1123.754917	0.008135
1123.913116	0.010592
1124.071297	0.009112
1124.229459	0.007399
1124.387604	0.003158
1124.545730	-0.003433
1124.703838	0.003830
1124.861928	-0.000384
1125.019999	-0.005482
1125.178052	-0.005640
1125.336088	-0.004971
1125.494104	-0.006851
1125.652103	-0.003664
1125.810083	-0.003830
1125.968045	0.001924
1126.125989	0.001086
1126.283915	-0.004377
1126.441823	-0.003542
1126.599712	-0.005915
1126.757583	-0.012837
1126.915436	-0.009854
1127.073270	-0.011538
1127.231087	-0.010700
1127.388885	-0.014102
1127.546665	-0.019549
1127.704426	-0.017899
1127.862170	-0.018654
1128.019895	-0.014984
1128.177602	-0.011437
1128.335291	-0.015088
1128.492961	-0.019454
1128.650614	-0.018378
1128.808248	-0.017478
1128.965864	-0.008412
1129.123461	-0.007125
1129.281041	-0.007721
1129.438602	-0.013217
1129.596145	-0.018160
1129.753670	-0.013943
1129.911176	-0.011228
1130.068665	-0.014722
1130.226135	-0.015443
1130.383587	-0.021359
1130.541020	-0.012341
1130.698436	-0.010175
1130.855833	-0.005338
1131.013212	0.000688
1131.170573	0.002833
1131.327915	0.006054
1131.485239	0.008815
1131.642545	0.014035
1131.799833	0.011762
1131.957103	0.004823
1132.114354	0.009149
1132.271588	0.005274
1132.428803	0.003872
1132.585999	0.004537
1132.743178	-0.001084
1132.900338	-0.002993
1133.057480	-0.005055
1133.214604	-0.001467
1133.371710	0.000817
1133.528797	-0.007246
1133.685866	-0.002972
1133.842917	-0.006762
1133.999950	-0.009762
1134.156964	-0.009488
1134.313960	-0.009949
1134.470938	-0.010610
1134.627898	-0.008245
1134.784840	-0.009312
1134.941763	-0.009474
1135.098668	-0.003720
1135.255555	-0.006761
1135.412424	-0.009811
1135.569274	-0.002224
1135.726107	-0.001333
1135.882921	-0.004287
1136.039716	-0.004272
1136.196494	-0.006068
1136.353253	-0.011645
1136.509995	-0.021538
1136.666717	-0.009319
1136.823422	-0.003723
1136.980109	-0.006781
1137.136777	-0.008835
1137.293427	-0.004031
1137.450059	-0.005972
1137.606672	0.002338
1137.763267	0.010087
1137.919844	0.007763
1138.076403	-0.000220
1138.232944	-0.006561
1138.389466	-0.008733
1138.545971	-0.011024
1138.702457	-0.014723
1138.858924	-0.015674
1139.015374	-0.021650
1139.171805	-0.024249
1139.328218	-0.022517
1139.484613	-0.017525
1139.640990	-0.014065
1139.797348	-0.018964
1139.953688	-0.013760
1140.110010	-0.015135
1140.266314	-0.015805
1140.422600	-0.016298
1140.578867	-0.019995
1140.735116	-0.017899
1140.891347	-0.023777
1141.047559	-0.019916
1141.203754	-0.018875
1141.359930	-0.024166
1141.516088	-0.021173
1141.672228	-0.020880
1141.828349	-0.026660
1141.984452	-0.022765
1142.140537	-0.027237
1142.296604	-0.026428
1142.452653	-0.026365
1142.608683	-0.023291
1142.764695	-0.025801
1142.920689	-0.028009
1143.076665	-0.033162
1143.232622	-0.026520
1143.388562	-0.023349
1143.544483	-0.013188
1143.700385	-0.013730
1143.856270	-0.023207
1144.012136	-0.021027
1144.167985	-0.019651
1144.323814	-0.016823
1144.479626	-0.009821
1144.635420	-0.015285
1144.791195	-0.009846
1144.946952	-0.022114
1145.102691	-0.023881
1145.258411	-0.013894
1145.414113	-0.018369
1145.569798	-0.009074
1145.725463	-0.013879
1145.881111	-0.021610
1146.036741	-0.017100
1146.192352	-0.031806
1146.347945	-0.025893
1146.503519	-0.021027
1146.659076	-0.028127
1146.814614	-0.024094
1146.970134	-0.029384
1147.125636	-0.019186
1147.281120	-0.012809
1147.436585	-0.007366
1147.592032	0.002804
1147.747461	0.007434
1147.902872	0.008638
1148.058265	0.013228
1148.213639	0.009623
1148.368995	0.009178
1148.524333	-0.005948
1148.679653	-0.009505
1148.834954	-0.015467
1148.990237	-0.021030
1149.145502	-0.024549
1149.300749	-0.039185
1149.455977	-0.038526
1149.611188	-0.043735
1149.766380	-0.035435
1149.921553	-0.025277
1150.076709	-0.029821
1150.231846	-0.032541
1150.386966	-0.027693
1150.542066	-0.029354
1150.697149	-0.017780
1150.852214	-0.019904
1151.007260	-0.010318
1151.162288	-0.007487
1151.317298	-0.012975
1151.472289	-0.008680
1151.627263	-0.003202
1151.782218	-0.002439
1151.937155	0.006239
1152.092073	0.019081
1152.246974	0.018212
1152.401856	0.021400
1152.556720	0.001272
1152.711566	0.000818
1152.866393	-0.003002
1153.021203	0.001260
1153.175994	-0.002378
1153.330767	-0.019876
1153.485521	-0.033595
1153.640258	-0.031831
1153.794976	-0.037366
1153.949676	-0.028200
1154.104358	-0.029427
1154.259021	-0.019188
1154.413667	-0.028422
1154.568294	-0.025357
1154.722903	-0.018120
1154.877493	-0.013055
1155.032066	-0.008471
1155.186620	-0.005069
1155.341156	-0.007946
1155.495674	-0.001923
1155.650173	0.000546
1155.804654	0.004532
1155.959118	0.002042
1156.113562	0.010779
1156.267989	0.012096
1156.422397	-0.000280
1156.576788	0.004399
1156.731160	0.009180
1156.885513	0.007168
1157.039849	-0.006528
1157.194166	-0.002178
1157.348465	-0.008086
1157.502746	-0.009679
1157.657009	-0.020505
1157.811253	-0.014873
1157.965479	-0.026564
1158.119687	-0.035477
1158.273877	-0.037574
1158.428048	-0.025673
1158.582201	-0.027079
1158.736337	-0.014462
1158.890453	-0.006107
1159.044552	-0.001754
1159.198632	0.004510
1159.352694	0.007569
1159.506738	0.009023
1159.660764	0.006421
1159.814771	-0.006041
1159.968761	-0.020824
1160.122732	-0.028517
1160.276685	-0.044026
1160.430619	-0.042224
1160.584535	-0.043726
1160.738434	-0.030505
1160.892313	-0.030303
1161.046175	-0.026278
1161.200019	-0.017812
1161.353844	-0.007414
1161.507651	-0.011927
1161.661440	-0.006789
1161.815210	-0.003780
1161.968962	-0.004862
1162.122697	-0.018898
1162.276412	-0.018026
1162.430110	-0.016991
1162.583789	-0.024504
1162.737451	-0.022775
1162.891094	-0.015082
1163.044718	-0.014890
1163.198325	-0.028926
1163.351913	-0.025628
1163.505483	-0.020921
1163.659035	-0.011450
1163.812569	-0.014509
1163.966084	-0.015232
1164.119581	-0.014190
1164.273060	-0.027861
1164.426521	-0.028634
1164.579964	-0.019067
1164.733388	-0.032087
1164.886794	-0.036688
1165.040182	-0.036449
1165.193551	-0.043607
1165.346903	-0.029603
1165.500236	-0.030886
1165.653551	-0.016530
1165.806848	-0.012656
1165.960126	-0.018413
1166.113386	-0.010237
1166.266628	-0.020295
1166.419852	-0.027927
1166.573058	-0.026070
1166.726245	-0.036405
1166.879414	-0.029608
1167.032565	-0.027439
1167.185698	-0.035582
1167.338812	-0.032843
1167.491909	-0.037492
1167.644987	-0.029906
1167.798046	-0.027926
1167.951088	-0.010669
1168.104111	0.001915
1168.257117	-0.009008
1168.410103	-0.017545
1168.563072	-0.011118
1168.716023	-0.004413
1168.868955	0.005731
1169.021869	0.002009
1169.174765	0.010388
1169.327642	-0.007183
1169.480501	-0.015567
1169.633343	-0.006325
1169.786165	-0.001251
1169.938970	0.000404
1170.091757	0.007126
1170.244525	0.006408
1170.397275	0.025466
1170.550007	0.024547
1170.702720	0.034635
1170.855415	0.033226
1171.008092	0.013886
1171.160751	0.000935
1171.313392	-0.012055
1171.466014	-0.028437
1171.618619	-0.092560
1171.771205	-0.092560
1171.923772	-0.092560
