sample name	sample
index	560
start time	 03-16-2021  02:15:00 PM


Wavelength (nm)	Absorbance
494.344910	NaN
494.563924	NaN
494.782919	NaN
495.001897	-0.186344
495.220856	0.072888
495.439797	0.008567
495.658719	-0.021174
495.877624	-0.063654
496.096510	-0.061593
496.315378	-0.024303
496.534227	-0.021561
496.753059	0.004984
496.971872	-0.037942
497.190667	-0.011832
497.409444	-0.005586
497.628203	-0.006738
497.846943	-0.004764
498.065665	-0.002529
498.284369	-0.000940
498.503055	-0.002418
498.721723	-0.001585
498.940372	0.000826
499.159003	-0.000183
499.377616	0.000203
499.596210	0.000915
499.814787	-0.000166
500.033345	-0.000535
500.251885	-0.002868
500.470406	-0.002255
500.688910	-0.003365
500.907395	-0.004521
501.125862	-0.003725
501.344311	-0.004630
501.562742	-0.004866
501.781154	-0.003786
501.999548	-0.003904
502.217924	-0.001188
502.436282	-0.001869
502.654621	-0.001135
502.872942	-0.001871
503.091245	-0.001383
503.309530	0.000020
503.527797	0.000169
503.746045	-0.000016
503.964275	0.000414
504.182487	-0.000535
504.400681	-0.000056
504.618856	0.000213
504.837013	0.000035
505.055152	-0.000306
505.273273	-0.000300
505.491376	0.000152
505.709460	0.000283
505.927526	0.000023
506.145574	0.001328
506.363604	0.002781
506.581615	0.002384
506.799608	0.002403
507.017583	0.001643
507.235540	0.000939
507.453478	0.000879
507.671399	0.000216
507.889301	0.000530
508.107185	-0.000490
508.325050	-0.001735
508.542898	-0.001958
508.760727	-0.001287
508.978538	-0.000620
509.196330	-0.001139
509.414105	-0.001915
509.631861	-0.000880
509.849599	-0.000990
510.067319	-0.000934
510.285021	-0.001093
510.502704	-0.001045
510.720369	-0.000873
510.938016	-0.000923
511.155645	-0.001085
511.373255	-0.000998
511.590848	-0.002475
511.808422	-0.002649
512.025977	-0.002652
512.243515	-0.002219
512.461034	-0.001739
512.678536	-0.001807
512.896018	-0.002007
513.113483	-0.001792
513.330930	-0.001280
513.548358	-0.000066
513.765768	-0.001049
513.983160	-0.001198
514.200533	-0.001150
514.417889	-0.001563
514.635226	-0.001958
514.852545	-0.002185
515.069845	-0.001638
515.287128	-0.002174
515.504392	-0.002548
515.721638	-0.001994
515.938866	-0.001989
516.156075	-0.001744
516.373267	-0.002650
516.590440	-0.002362
516.807594	-0.002208
517.024731	-0.002115
517.241850	-0.002420
517.458950	-0.002337
517.676032	-0.002479
517.893095	-0.002838
518.110141	-0.003399
518.327168	-0.002633
518.544177	-0.002541
518.761168	-0.002154
518.978141	-0.002434
519.195095	-0.002106
519.412031	-0.001601
519.628949	-0.000999
519.845849	-0.001055
520.062731	-0.001359
520.279594	-0.001283
520.496439	-0.001322
520.713266	-0.001418
520.930074	-0.001045
521.146865	-0.001217
521.363637	-0.002124
521.580391	-0.002781
521.797127	-0.001704
522.013844	-0.001064
522.230543	-0.000416
522.447224	-0.000681
522.663887	-0.000433
522.880532	-0.000296
523.097158	0.000047
523.313766	0.000634
523.530356	0.001257
523.746928	0.000106
523.963481	0.000120
524.180017	-0.000288
524.396534	-0.000422
524.613032	-0.001151
524.829513	-0.001762
525.045975	-0.001319
525.262420	-0.002288
525.478845	-0.002280
525.695253	-0.002041
525.911643	-0.002697
526.128014	-0.002970
526.344367	-0.002193
526.560702	-0.002054
526.777018	-0.002184
526.993316	-0.003179
527.209597	-0.003217
527.425858	-0.003131
527.642102	-0.003669
527.858328	-0.003553
528.074535	-0.003177
528.290724	-0.003515
528.506894	-0.003347
528.723047	-0.002766
528.939181	-0.002135
529.155297	-0.001353
529.371395	-0.002065
529.587475	-0.001021
529.803536	0.000361
530.019579	0.000275
530.235604	-0.000084
530.451611	0.000326
530.667600	0.000130
530.883570	-0.000091
531.099522	-0.000552
531.315456	-0.000155
531.531372	-0.000124
531.747269	-0.001016
531.963148	-0.001329
532.179009	-0.000867
532.394852	-0.001227
532.610676	-0.001391
532.826482	-0.001901
533.042271	-0.001601
533.258040	-0.001208
533.473792	-0.001656
533.689525	-0.002183
533.905240	-0.001993
534.120937	-0.002296
534.336616	-0.002780
534.552277	-0.002541
534.767919	-0.002497
534.983543	-0.002334
535.199149	-0.002533
535.414736	-0.002182
535.630306	-0.001784
535.845857	-0.002243
536.061390	-0.002172
536.276904	-0.001687
536.492401	-0.001809
536.707879	-0.001198
536.923339	-0.001287
537.138781	-0.001214
537.354204	-0.001659
537.569610	-0.001687
537.784997	-0.001532
538.000366	-0.001254
538.215716	-0.001484
538.431049	-0.001318
538.646363	-0.001696
538.861659	-0.002011
539.076937	-0.002204
539.292196	-0.001983
539.507438	-0.001950
539.722661	-0.001444
539.937866	-0.002042
540.153052	-0.001732
540.368221	-0.002003
540.583371	-0.002171
540.798503	-0.001564
541.013617	-0.001685
541.228712	-0.001461
541.443789	-0.001222
541.658848	-0.001571
541.873889	-0.000896
542.088912	-0.000983
542.303916	-0.001113
542.518902	-0.000772
542.733870	-0.000882
542.948820	-0.001051
543.163752	-0.001237
543.378665	-0.001642
543.593560	-0.001505
543.808437	-0.001745
544.023295	-0.001646
544.238136	-0.001418
544.452958	-0.001433
544.667762	-0.001547
544.882548	-0.001455
545.097315	-0.001564
545.312064	-0.000997
545.526795	-0.001355
545.741508	-0.001608
545.956203	-0.001699
546.170879	-0.002231
546.385537	-0.002151
546.600177	-0.002574
546.814799	-0.001945
547.029402	-0.002309
547.243988	-0.002972
547.458555	-0.002746
547.673103	-0.002394
547.887634	-0.002419
548.102146	-0.001940
548.316640	-0.002140
548.531116	-0.001530
548.745574	-0.001343
548.960013	-0.000885
549.174435	-0.000553
549.388838	-0.000385
549.603222	-0.000659
549.817589	-0.000634
550.031937	-0.000442
550.246267	-0.000063
550.460579	-0.000273
550.674873	-0.001091
550.889148	-0.001084
551.103405	-0.001189
551.317644	-0.001330
551.531865	-0.001203
551.746068	-0.001473
551.960252	-0.002121
552.174418	-0.002565
552.388566	-0.002630
552.602696	-0.002357
552.816807	-0.002261
553.030900	-0.002364
553.244975	-0.002406
553.459032	-0.002709
553.673070	-0.002402
553.887091	-0.001822
554.101093	-0.001712
554.315077	-0.001373
554.529042	-0.001349
554.742990	-0.001935
554.956919	-0.001779
555.170830	-0.001724
555.384722	-0.001545
555.598597	-0.001921
555.812453	-0.002058
556.026291	-0.001755
556.240111	-0.001563
556.453913	-0.001218
556.667696	-0.000813
556.881461	-0.000784
557.095208	-0.000752
557.308937	-0.000931
557.522647	-0.000648
557.736339	-0.000697
557.950013	-0.001244
558.163669	-0.001725
558.377307	-0.001925
558.590926	-0.001589
558.804527	-0.001974
559.018110	-0.002191
559.231675	-0.002183
559.445221	-0.002351
559.658749	-0.002127
559.872259	-0.001957
560.085751	-0.002422
560.299225	-0.002127
560.512680	-0.002549
560.726117	-0.002425
560.939536	-0.002242
561.152937	-0.001988
561.366319	-0.001693
561.579683	-0.002056
561.793029	-0.001721
562.006357	-0.001111
562.219667	-0.001272
562.432958	-0.000930
562.646231	-0.000990
562.859486	-0.001276
563.072723	-0.001393
563.285941	-0.001409
563.499141	-0.001070
563.712323	-0.001148
563.925487	-0.001448
564.138632	-0.002121
564.351760	-0.002316
564.564869	-0.002200
564.777960	-0.001972
564.991032	-0.001865
565.204087	-0.001910
565.417123	-0.001859
565.630141	-0.001689
565.843140	-0.001427
566.056122	-0.000914
566.269085	-0.000779
566.482030	-0.000453
566.694957	-0.000284
566.907866	-0.000067
567.120756	-0.000278
567.333628	-0.000663
567.546482	-0.001270
567.759318	-0.001420
567.972135	-0.001717
568.184935	-0.001707
568.397716	-0.002022
568.610478	-0.002060
568.823223	-0.002249
569.035949	-0.002330
569.248657	-0.002041
569.461347	-0.001507
569.674019	-0.001430
569.886672	-0.001110
570.099308	-0.001239
570.311925	-0.000807
570.524523	-0.000777
570.737104	-0.000652
570.949666	-0.000416
571.162210	-0.000473
571.374736	-0.000440
571.587244	-0.000449
571.799733	-0.000422
572.012205	-0.000459
572.224658	-0.000528
572.437092	-0.000966
572.649509	-0.001445
572.861907	-0.001205
573.074287	-0.001264
573.286649	-0.001504
573.498993	-0.001701
573.711318	-0.001725
573.923625	-0.001723
574.135914	-0.001999
574.348185	-0.001841
574.560438	-0.001501
574.772672	-0.001728
574.984888	-0.001974
575.197086	-0.002029
575.409266	-0.002030
575.621427	-0.002176
575.833570	-0.002485
576.045695	-0.002302
576.257802	-0.002154
576.469890	-0.002065
576.681961	-0.002015
576.894013	-0.001900
577.106046	-0.001871
577.318062	-0.001587
577.530059	-0.001802
577.742039	-0.001425
577.954000	-0.001567
578.165942	-0.001547
578.377867	-0.001465
578.589773	-0.001285
578.801661	-0.001212
579.013531	-0.001021
579.225382	-0.000993
579.437216	-0.001153
579.649031	-0.001189
579.860828	-0.001576
580.072606	-0.001554
580.284367	-0.001856
580.496109	-0.002043
580.707833	-0.001949
580.919539	-0.002542
581.131227	-0.002670
581.342896	-0.002429
581.554547	-0.002445
581.766180	-0.001697
581.977795	-0.001399
582.189391	-0.001071
582.400969	-0.001110
582.612529	-0.000956
582.824071	-0.000259
583.035595	-0.000084
583.247100	-0.000078
583.458587	-0.000016
583.670056	-0.000418
583.881506	-0.000737
584.092939	-0.001213
584.304353	-0.001108
584.515749	-0.001727
584.727127	-0.001677
584.938486	-0.001957
585.149828	-0.002054
585.361151	-0.002033
585.572456	-0.001983
585.783742	-0.002069
585.995011	-0.001372
586.206261	-0.001560
586.417493	-0.001001
586.628706	-0.001307
586.839902	-0.001121
587.051079	-0.000946
587.262238	-0.000958
587.473379	-0.000576
587.684502	-0.000647
587.895606	-0.000882
588.106692	-0.001053
588.317760	-0.001361
588.528810	-0.001110
588.739841	-0.001197
588.950855	-0.001207
589.161850	-0.001144
589.372827	-0.001291
589.583785	-0.000952
589.794726	-0.000982
590.005648	-0.000363
590.216552	-0.000355
590.427437	-0.000375
590.638305	-0.000523
590.849154	-0.000564
591.059985	-0.000653
591.270798	-0.000610
591.481592	-0.000657
591.692369	-0.001030
591.903127	-0.001169
592.113867	-0.001057
592.324588	-0.001048
592.535292	-0.000666
592.745977	-0.000793
592.956644	-0.000828
593.167293	-0.000953
593.377923	-0.000752
593.588536	-0.000653
593.799130	-0.000684
594.009706	-0.000763
594.220263	-0.000931
594.430803	-0.001332
594.641324	-0.000812
594.851827	-0.000535
595.062312	-0.000569
595.272778	-0.000934
595.483227	-0.000964
595.693657	-0.001167
595.904069	-0.000901
596.114462	-0.000845
596.324838	-0.000690
596.535195	-0.000673
596.745534	-0.000872
596.955855	-0.001106
597.166157	-0.000914
597.376441	-0.000935
597.586707	-0.000902
597.796955	-0.000768
598.007185	-0.001058
598.217396	-0.001179
598.427589	-0.001189
598.637764	-0.001413
598.847921	-0.001199
599.058060	-0.001364
599.268180	-0.001277
599.478282	-0.001140
599.688366	-0.001536
599.898431	-0.001292
600.108479	-0.001017
600.318508	-0.001327
600.528519	-0.000981
600.738511	-0.000885
600.948486	-0.001062
601.158442	-0.000807
601.368380	-0.000788
601.578300	-0.000831
601.788202	-0.000820
601.998085	-0.001004
602.207950	-0.001166
602.417797	-0.001436
602.627626	-0.001338
602.837436	-0.001035
603.047228	-0.001075
603.257002	-0.001206
603.466758	-0.000821
603.676496	-0.001083
603.886215	-0.000850
604.095916	-0.000861
604.305599	-0.000654
604.515264	-0.000842
604.724910	-0.000884
604.934538	-0.001308
605.144148	-0.001388
605.353740	-0.001584
605.563314	-0.001323
605.772869	-0.001507
605.982406	-0.001317
606.191925	-0.001398
606.401425	-0.001162
606.610908	-0.001243
606.820372	-0.000869
607.029818	-0.000860
607.239246	-0.000940
607.448655	-0.001074
607.658047	-0.001167
607.867420	-0.001132
608.076775	-0.001260
608.286111	-0.001794
608.495430	-0.001752
608.704730	-0.001670
608.914012	-0.001696
609.123275	-0.001539
609.332521	-0.001355
609.541748	-0.001203
609.750957	-0.001121
609.960148	-0.000728
610.169321	-0.000541
610.378475	-0.000681
610.587611	-0.000598
610.796729	-0.000487
611.005829	-0.000683
611.214910	-0.000599
611.423974	-0.000682
611.633019	-0.000766
611.842045	-0.001138
612.051054	-0.001339
612.260044	-0.001227
612.469017	-0.001611
612.677970	-0.001772
612.886906	-0.001646
613.095824	-0.001933
613.304723	-0.002027
613.513604	-0.001988
613.722467	-0.001755
613.931311	-0.001625
614.140138	-0.001775
614.348946	-0.001690
614.557736	-0.001502
614.766507	-0.001492
614.975261	-0.001182
615.183996	-0.000872
615.392713	-0.000981
615.601412	-0.001324
615.810092	-0.001232
616.018754	-0.000990
616.227399	-0.001039
616.436024	-0.001120
616.644632	-0.000881
616.853222	-0.000754
617.061793	-0.000868
617.270346	-0.000884
617.478880	-0.000364
617.687397	-0.000240
617.895895	-0.000144
618.104375	0.000051
618.312837	0.000241
618.521281	0.000267
618.729706	-0.000157
618.938113	-0.000152
619.146502	-0.000034
619.354873	-0.000178
619.563226	-0.000352
619.771560	-0.000363
619.979876	-0.000394
620.188174	-0.000362
620.396453	-0.000362
620.604715	-0.000360
620.812958	-0.000462
621.021183	-0.000272
621.229390	-0.000502
621.437578	-0.000144
621.645748	-0.000189
621.853900	-0.000315
622.062034	-0.000525
622.270150	-0.000666
622.478247	-0.000335
622.686326	-0.000232
622.894387	-0.000494
623.102430	-0.000360
623.310454	-0.000359
623.518461	-0.000449
623.726449	-0.000386
623.934418	-0.000246
624.142370	-0.000328
624.350303	-0.000598
624.558218	-0.000647
624.766115	-0.000859
624.973994	-0.000936
625.181855	-0.000997
625.389697	-0.000970
625.597521	-0.001077
625.805327	-0.001289
626.013114	-0.001236
626.220883	-0.001341
626.428634	-0.001218
626.636367	-0.000969
626.844082	-0.000621
627.051778	-0.000609
627.259457	-0.000323
627.467117	-0.000166
627.674758	-0.000072
627.882382	0.000004
628.089987	0.000257
628.297574	0.000050
628.505143	0.000281
628.712694	-0.000040
628.920226	-0.000255
629.127740	-0.000680
629.335236	-0.000568
629.542714	-0.000450
629.750174	-0.000543
629.957615	-0.000596
630.165038	-0.000505
630.372443	-0.000510
630.579829	-0.000561
630.787198	-0.000543
630.994548	-0.000615
631.201880	-0.001086
631.409194	-0.000923
631.616489	-0.000942
631.823766	-0.000702
632.031025	-0.000493
632.238266	-0.000567
632.445489	-0.000374
632.652693	-0.000342
632.859879	-0.000314
633.067047	0.000159
633.274197	-0.000087
633.481329	0.000054
633.688442	-0.000101
633.895537	-0.000245
634.102614	-0.000328
634.309672	-0.000409
634.516713	-0.000500
634.723735	-0.000372
634.930739	-0.000535
635.137724	-0.000277
635.344692	-0.000566
635.551641	-0.000583
635.758572	-0.000754
635.965485	-0.000513
636.172379	-0.000606
636.379256	-0.000470
636.586114	-0.000310
636.792954	-0.000177
636.999775	-0.000388
637.206579	0.000075
637.413364	0.000034
637.620131	0.000270
637.826880	-0.000174
638.033610	-0.000044
638.240323	-0.000076
638.447017	-0.000150
638.653692	-0.000122
638.860350	-0.000134
639.066990	-0.000462
639.273611	-0.000375
639.480214	-0.000458
639.686798	-0.000213
639.893365	-0.000288
640.099913	-0.000223
640.306443	-0.000270
640.512955	-0.000186
640.719449	-0.000112
640.925924	0.000042
641.132381	0.000046
641.338820	0.000028
641.545241	-0.000005
641.751644	0.000279
641.958028	0.000437
642.164394	0.000434
642.370742	0.000333
642.577071	0.000328
642.783383	0.000112
642.989676	0.000198
643.195951	0.000140
643.402207	-0.000014
643.608446	-0.000265
643.814666	-0.000502
644.020868	-0.000341
644.227052	-0.000180
644.433218	-0.000264
644.639365	0.000012
644.845494	-0.000114
645.051605	-0.000108
645.257698	-0.000202
645.463772	-0.000012
645.669828	0.000121
645.875866	0.000232
646.081886	0.000104
646.287888	0.000248
646.493871	0.000130
646.699836	0.000106
646.905783	0.000367
647.111712	0.000708
647.317622	0.000371
647.523514	0.000179
647.729388	-0.000005
647.935244	-0.000019
648.141082	-0.000077
648.346901	-0.000043
648.552702	0.000111
648.758485	0.000041
648.964250	-0.000052
649.169996	0.000201
649.375724	0.000369
649.581434	0.000380
649.787126	0.000314
649.992800	0.000277
650.198455	0.000133
650.404092	-0.000192
650.609711	-0.000311
650.815311	-0.000271
651.020894	-0.000135
651.226458	-0.000077
651.432004	0.000029
651.637532	0.000147
651.843041	0.000292
652.048532	0.000331
652.254006	0.000431
652.459460	0.000404
652.664897	0.000409
652.870315	0.000142
653.075716	0.000118
653.281097	-0.000126
653.486461	-0.000374
653.691807	-0.000418
653.897134	-0.000475
654.102443	-0.000374
654.307734	-0.000330
654.513006	-0.000323
654.718261	-0.000107
654.923497	-0.000164
655.128715	0.000102
655.333915	0.000228
655.539096	0.000214
655.744259	0.000405
655.949404	0.000573
656.154531	0.000749
656.359640	0.000817
656.564730	0.000662
656.769802	0.000664
656.974856	0.000745
657.179892	0.000849
657.384909	0.000700
657.589908	0.000805
657.794889	0.000765
657.999852	0.000598
658.204797	0.000551
658.409723	0.000719
658.614631	0.000790
658.819521	0.000732
659.024393	0.000573
659.229246	0.000725
659.434081	0.000562
659.638898	0.000490
659.843697	0.000435
660.048478	0.000411
660.253240	0.000425
660.457984	0.000303
660.662710	0.000359
660.867417	0.000444
661.072107	0.000575
661.276778	0.000716
661.481431	0.000657
661.686066	0.000725
661.890682	0.000701
662.095281	0.000540
662.299861	0.000700
662.504422	0.000572
662.708966	0.000641
662.913491	0.000334
663.117999	0.000103
663.322488	0.000238
663.526958	0.000269
663.731411	0.000239
663.935845	0.000385
664.140261	0.000414
664.344659	0.000406
664.549038	0.000207
664.753400	0.000340
664.957743	0.000505
665.162068	0.000448
665.366375	0.000558
665.570663	0.000707
665.774933	0.000639
665.979185	0.000507
666.183419	0.000528
666.387635	0.000783
666.591832	0.000732
666.796011	0.000664
667.000172	0.000714
667.204315	0.000654
667.408439	0.000551
667.612545	0.000621
667.816634	0.000711
668.020703	0.000626
668.224755	0.000676
668.428788	0.000677
668.632803	0.000591
668.836800	0.000528
669.040779	0.000650
669.244739	0.000644
669.448681	0.000483
669.652605	0.000519
669.856511	0.000475
670.060399	0.000562
670.264268	0.000799
670.468119	0.001026
670.671952	0.000938
670.875767	0.000887
671.079563	0.000970
671.283341	0.001112
671.487101	0.001109
671.690843	0.001183
671.894567	0.000999
672.098272	0.001026
672.301959	0.001027
672.505628	0.001048
672.709278	0.000947
672.912911	0.000792
673.116525	0.000785
673.320121	0.000840
673.523699	0.001017
673.727258	0.000996
673.930799	0.001041
674.134322	0.001004
674.337827	0.001100
674.541314	0.001157
674.744782	0.001484
674.948232	0.001417
675.151664	0.001456
675.355078	0.001522
675.558474	0.001611
675.761851	0.001513
675.965210	0.001567
676.168551	0.001600
676.371873	0.001546
676.575178	0.001406
676.778464	0.001484
676.981732	0.001333
677.184981	0.001178
677.388213	0.001142
677.591426	0.001246
677.794621	0.001255
677.997798	0.001496
678.200956	0.001598
678.404097	0.001711
678.607219	0.001796
678.810323	0.001994
679.013408	0.002154
679.216476	0.002323
679.419525	0.002170
679.622556	0.002124
679.825569	0.001862
680.028563	0.001939
680.231540	0.001977
680.434498	0.001821
680.637438	0.001836
680.840359	0.001776
681.043263	0.001687
681.246148	0.001742
681.449015	0.001718
681.651864	0.001669
681.854694	0.001684
682.057506	0.001518
682.260301	0.001584
682.463076	0.001444
682.665834	0.001352
682.868573	0.001425
683.071295	0.001207
683.273998	0.001213
683.476682	0.001289
683.679349	0.001168
683.881997	0.001260
684.084627	0.001163
684.287239	0.001142
684.489833	0.001074
684.692408	0.000896
684.894965	0.001093
685.097504	0.001284
685.300025	0.001325
685.502527	0.001374
685.705012	0.001341
685.907478	0.001453
686.109925	0.001395
686.312355	0.001563
686.514766	0.001554
686.717159	0.001466
686.919534	0.001182
687.121891	0.001229
687.324230	0.001371
687.526550	0.001444
687.728852	0.001379
687.931136	0.001583
688.133401	0.001481
688.335649	0.001545
688.537878	0.001583
688.740089	0.001734
688.942281	0.001846
689.144456	0.001731
689.346612	0.001735
689.548750	0.001928
689.750870	0.001563
689.952971	0.001742
690.155055	0.001737
690.357120	0.001688
690.559167	0.001795
690.761195	0.001598
690.963206	0.001651
691.165198	0.001616
691.367172	0.001511
691.569128	0.001908
691.771065	0.001720
691.972984	0.001747
692.174885	0.001860
692.376768	0.001902
692.578633	0.001928
692.780479	0.001958
692.982308	0.002058
693.184118	0.002061
693.385909	0.001878
693.587683	0.001788
693.789438	0.001693
693.991175	0.001509
694.192894	0.001337
694.394595	0.001515
694.596277	0.001218
694.797941	0.001160
694.999587	0.001166
695.201215	0.001157
695.402824	0.001266
695.604416	0.001371
695.805989	0.001755
696.007543	0.001819
696.209080	0.001769
696.410598	0.002183
696.612099	0.002132
696.813580	0.002134
697.015044	0.002451
697.216490	0.002467
697.417917	0.002399
697.619326	0.002130
697.820717	0.002070
698.022089	0.001985
698.223444	0.001730
698.424780	0.001599
698.626098	0.001452
698.827397	0.001121
699.028679	0.001303
699.229942	0.001324
699.431187	0.001311
699.632414	0.001393
699.833622	0.001443
700.034813	0.001536
700.235985	0.001549
700.437139	0.001674
700.638274	0.001886
700.839392	0.001728
701.040491	0.001845
701.241572	0.001874
701.442635	0.001912
701.643679	0.002099
701.844706	0.002094
702.045714	0.002125
702.246704	0.002281
702.447675	0.002254
702.648629	0.002347
702.849564	0.002291
703.050481	0.002300
703.251380	0.002424
703.452260	0.002112
703.653122	0.001990
703.853966	0.002056
704.054792	0.002022
704.255600	0.001758
704.456389	0.001776
704.657160	0.001794
704.857913	0.001870
705.058648	0.001713
705.259365	0.001804
705.460063	0.001764
705.660743	0.001823
705.861405	0.001618
706.062048	0.001807
706.262674	0.001618
706.463281	0.001599
706.663870	0.001502
706.864441	0.001386
707.064993	0.001383
707.265527	0.001387
707.466043	0.001431
707.666541	0.001596
707.867021	0.001638
708.067482	0.001762
708.267925	0.001815
708.468350	0.001832
708.668757	0.001858
708.869145	0.001847
709.069516	0.002082
709.269868	0.001851
709.470201	0.001688
709.670517	0.001703
709.870814	0.001772
710.071093	0.001795
710.271354	0.001910
710.471597	0.001965
710.671821	0.001986
710.872028	0.001956
711.072216	0.002216
711.272385	0.002185
711.472537	0.002106
711.672670	0.002017
711.872785	0.001985
712.072882	0.001898
712.272961	0.001955
712.473021	0.001941
712.673063	0.001687
712.873087	0.001586
713.073093	0.001884
713.273081	0.001893
713.473050	0.001983
713.673001	0.001812
713.872934	0.001779
714.072849	0.001613
714.272745	0.001503
714.472623	0.001670
714.672483	0.001669
714.872325	0.001428
715.072148	0.001212
715.271954	0.000998
715.471741	0.001183
715.671509	0.001016
715.871260	0.001085
716.070992	0.001021
716.270707	0.001004
716.470403	0.001071
716.670080	0.001204
716.869740	0.001572
717.069381	0.001781
717.269004	0.001672
717.468609	0.001949
717.668195	0.001839
717.867764	0.001864
718.067314	0.001822
718.266846	0.001651
718.466360	0.001538
718.665855	0.001252
718.865332	0.001171
719.064791	0.001061
719.264232	0.001145
719.463655	0.001145
719.663059	0.001120
719.862445	0.001175
720.061813	0.001021
720.261163	0.000967
720.460494	0.001173
720.659807	0.000990
720.859102	0.001038
721.058379	0.000724
721.257638	0.000784
721.456878	0.000803
721.656100	0.000617
721.855304	0.000911
722.054490	0.000862
722.253657	0.000761
722.452806	0.000799
722.651937	0.000808
722.851050	0.000926
723.050145	0.000815
723.249221	0.000844
723.448279	0.000927
723.647319	0.000843
723.846340	0.000786
724.045344	0.000539
724.244329	0.000491
724.443296	0.000294
724.642245	0.000091
724.841175	0.000019
725.040088	-0.000165
725.238982	-0.000266
725.437857	-0.000405
725.636715	-0.000425
725.835554	-0.000213
726.034376	-0.000170
726.233179	-0.000212
726.431963	-0.000200
726.630730	-0.000109
726.829478	-0.000013
727.028208	-0.000025
727.226920	-0.000147
727.425614	-0.000090
727.624289	-0.000154
727.822946	-0.000282
728.021585	-0.000096
728.220206	-0.000060
728.418808	0.000065
728.617392	0.000058
728.815958	0.000026
729.014506	0.000100
729.213036	0.000106
729.411547	-0.000145
729.610040	-0.000144
729.808515	-0.000162
730.006972	-0.000092
730.205410	-0.000262
730.403831	-0.000254
730.602233	-0.000331
730.800616	-0.000349
730.998982	-0.000445
731.197329	-0.000411
731.395658	-0.000429
731.593969	-0.000597
731.792262	-0.000679
731.990536	-0.000835
732.188793	-0.001008
732.387031	-0.000803
732.585250	-0.000611
732.783452	-0.000512
732.981635	-0.000275
733.179800	-0.000229
733.377947	-0.000203
733.576076	-0.000158
733.774186	-0.000011
733.972278	-0.000000
734.170352	-0.000203
734.368408	-0.000495
734.566446	-0.000547
734.764465	-0.000705
734.962466	-0.000712
735.160449	-0.000754
735.358413	-0.000892
735.556360	-0.001149
735.754288	-0.001183
735.952198	-0.001270
736.150090	-0.001273
736.347963	-0.001503
736.545818	-0.001484
736.743655	-0.001716
736.941474	-0.001862
737.139275	-0.001999
737.337057	-0.001628
737.534821	-0.001580
737.732567	-0.001377
737.930295	-0.001470
738.128005	-0.001396
738.325696	-0.001602
738.523369	-0.001548
738.721024	-0.001399
738.918660	-0.001408
739.116279	-0.001823
739.313879	-0.002025
739.511461	-0.002220
739.709024	-0.002055
739.906570	-0.001950
740.104097	-0.001898
740.301606	-0.001824
740.499097	-0.001917
740.696569	-0.001981
740.894024	-0.001756
741.091460	-0.001552
741.288878	-0.001557
741.486277	-0.001688
741.683659	-0.001886
741.881022	-0.001871
742.078367	-0.001872
742.275694	-0.001641
742.473002	-0.001280
742.670293	-0.001354
742.867565	-0.001483
743.064819	-0.001323
743.262054	-0.001215
743.459272	-0.000946
743.656471	-0.001014
743.853652	-0.001066
744.050815	-0.001455
744.247959	-0.001559
744.445085	-0.001434
744.642194	-0.001296
744.839283	-0.001441
745.036355	-0.001642
745.233408	-0.001669
745.430444	-0.001556
745.627461	-0.001645
745.824459	-0.001373
746.021440	-0.001384
746.218402	-0.001696
746.415346	-0.001811
746.612272	-0.001604
746.809180	-0.001428
747.006069	-0.001649
747.202940	-0.001554
747.399793	-0.001344
747.596628	-0.001423
747.793444	-0.001435
747.990243	-0.001312
748.187023	-0.001257
748.383784	-0.001440
748.580528	-0.001423
748.777253	-0.001390
748.973960	-0.001363
749.170649	-0.001237
749.367320	-0.000949
749.563973	-0.000935
749.760607	-0.000824
749.957223	-0.000702
750.153821	-0.000578
750.350400	-0.000652
750.546962	-0.000681
750.743505	-0.000568
750.940030	-0.000599
751.136536	-0.000664
751.333025	-0.000475
751.529495	-0.000445
751.725947	-0.000583
751.922381	-0.000618
752.118796	-0.000472
752.315194	-0.000214
752.511573	-0.000465
752.707934	-0.000631
752.904276	-0.000674
753.100601	-0.000760
753.296907	-0.000836
753.493195	-0.000647
753.689465	-0.000728
753.885716	-0.000980
754.081949	-0.001194
754.278164	-0.001081
754.474361	-0.000953
754.670540	-0.001150
754.866700	-0.001285
755.062843	-0.001022
755.258967	-0.000946
755.455072	-0.000835
755.651160	-0.000821
755.847229	-0.000877
756.043280	-0.000828
756.239313	-0.001130
756.435328	-0.000886
756.631324	-0.000835
756.827302	-0.000952
757.023262	-0.000975
757.219204	-0.001097
757.415127	-0.000869
757.611033	-0.000481
757.806920	-0.000610
758.002788	-0.000513
758.198639	-0.000605
758.394471	-0.000562
758.590286	-0.000563
758.786081	-0.000562
758.981859	-0.000466
759.177619	-0.000532
759.373360	-0.000634
759.569083	-0.000518
759.764788	-0.000475
759.960474	-0.000310
760.156143	-0.000081
760.351793	-0.000168
760.547425	-0.000117
760.743038	0.000086
760.938634	0.000115
761.134211	0.000081
761.329770	0.000179
761.525311	0.000408
761.720833	0.000297
761.916338	-0.000022
762.111824	0.000041
762.307292	0.000031
762.502741	-0.000099
762.698173	-0.000024
762.893586	-0.000076
763.088981	-0.000285
763.284358	-0.000242
763.479716	-0.000150
763.675057	0.000046
763.870379	-0.000078
764.065683	-0.000089
764.260968	-0.000182
764.456236	-0.000157
764.651485	-0.000026
764.846716	0.000381
765.041929	0.000260
765.237123	0.000253
765.432299	0.000263
765.627457	0.000420
765.822597	0.000339
766.017719	0.000442
766.212822	0.000396
766.407907	0.000299
766.602974	0.000003
766.798023	0.000009
766.993054	0.000151
767.188066	-0.000042
767.383060	0.000046
767.578036	0.000158
767.772993	0.000088
767.967933	0.000089
768.162854	0.000144
768.357757	0.000214
768.552642	0.000144
768.747508	0.000010
768.942356	0.000093
769.137186	0.000176
769.331998	0.000298
769.526792	0.000523
769.721567	0.000735
769.916324	0.000794
770.111063	0.000662
770.305784	0.000714
770.500486	0.000557
770.695171	0.000788
770.889837	0.000855
771.084484	0.000708
771.279114	0.000491
771.473725	0.000430
771.668318	0.000346
771.862893	0.000527
772.057450	0.000667
772.251988	0.000898
772.446509	0.000685
772.641011	0.000647
772.835494	0.000530
773.029960	0.000877
773.224407	0.000826
773.418836	0.000942
773.613247	0.000999
773.807640	0.001037
774.002014	0.001093
774.196370	0.000943
774.390708	0.000746
774.585028	0.001016
774.779330	0.000770
774.973613	0.000781
775.167878	0.000830
775.362125	0.000755
775.556354	0.000827
775.750564	0.000752
775.944756	0.001197
776.138930	0.001361
776.333086	0.001450
776.527223	0.001667
776.721343	0.001689
776.915444	0.001591
777.109526	0.001697
777.303591	0.001575
777.497637	0.001437
777.691666	0.001309
777.885676	0.001235
778.079667	0.001088
778.273641	0.000897
778.467596	0.000845
778.661533	0.000923
778.855452	0.000734
779.049352	0.000870
779.243235	0.000954
779.437099	0.001056
779.630945	0.001105
779.824773	0.001097
780.018582	0.001254
780.212373	0.001257
780.406146	0.001287
780.599901	0.001762
780.793638	0.001669
780.987356	0.001904
781.181056	0.001847
781.374738	0.001909
781.568402	0.001621
781.762047	0.001651
781.955674	0.001849
782.149283	0.001711
782.342874	0.001454
782.536447	0.001686
782.730001	0.001444
782.923537	0.001315
783.117055	0.001203
783.310555	0.001945
783.504036	0.001807
783.697499	0.001916
783.890944	0.002002
784.084371	0.002065
784.277780	0.001770
784.471170	0.002150
784.664542	0.002391
784.857896	0.002551
785.051231	0.002256
785.244549	0.002442
785.437848	0.002225
785.631129	0.002163
785.824392	0.002173
786.017636	0.002323
786.210863	0.002028
786.404071	0.001905
786.597260	0.001983
786.790432	0.001875
786.983585	0.001729
787.176721	0.001710
787.369838	0.001925
787.562936	0.001949
787.756017	0.001988
787.949079	0.002068
788.142123	0.002114
788.335149	0.001974
788.528156	0.002132
788.721146	0.001995
788.914117	0.002077
789.107070	0.001904
789.300005	0.001991
789.492921	0.001948
789.685819	0.002026
789.878699	0.002011
790.071561	0.002027
790.264405	0.001858
790.457230	0.002111
790.650037	0.002152
790.842826	0.002536
791.035597	0.002391
791.228349	0.002357
791.421084	0.002227
791.613800	0.002219
791.806497	0.002437
791.999177	0.002353
792.191838	0.002143
792.384481	0.002209
792.577106	0.002026
792.769713	0.001856
792.962301	0.001847
793.154871	0.002056
793.347423	0.002089
793.539957	0.002077
793.732473	0.002199
793.924970	0.002314
794.117449	0.002172
794.309910	0.002103
794.502353	0.002405
794.694777	0.002427
794.887183	0.002402
795.079571	0.002344
795.271941	0.002096
795.464293	0.002029
795.656626	0.002055
795.848941	0.002265
796.041238	0.002375
796.233516	0.002287
796.425777	0.002305
796.618019	0.002253
796.810243	0.002205
797.002449	0.002182
797.194636	0.002218
797.386805	0.002147
797.578956	0.001965
797.771089	0.002009
797.963204	0.002025
798.155300	0.002090
798.347378	0.002166
798.539438	0.002395
798.731480	0.002676
798.923503	0.002765
799.115509	0.002834
799.307496	0.002913
799.499465	0.002650
799.691415	0.002514
799.883348	0.002694
800.075262	0.002600
800.267158	0.002660
800.459035	0.002522
800.650895	0.002449
800.842736	0.002703
801.034559	0.002740
801.226364	0.002849
801.418150	0.002806
801.609919	0.002749
801.801669	0.002798
801.993401	0.002767
802.185114	0.002803
802.376810	0.002857
802.568487	0.002605
802.760146	0.002456
802.951787	0.002344
803.143409	0.002475
803.335014	0.002406
803.526600	0.002380
803.718168	0.002284
803.909717	0.002248
804.101249	0.002170
804.292762	0.002282
804.484257	0.002478
804.675734	0.002698
804.867192	0.002819
805.058632	0.002882
805.250054	0.002910
805.441458	0.002822
805.632844	0.003075
805.824211	0.003238
806.015561	0.003373
806.206891	0.003266
806.398204	0.003245
806.589499	0.003300
806.780775	0.003471
806.972033	0.003509
807.163273	0.003616
807.354495	0.003509
807.545698	0.003332
807.736883	0.003200
807.928050	0.003215
808.119199	0.003378
808.310329	0.003300
808.501441	0.002986
808.692535	0.003065
808.883611	0.003150
809.074669	0.003115
809.265708	0.003356
809.456729	0.003244
809.647732	0.003399
809.838717	0.003226
810.029683	0.003183
810.220632	0.003296
810.411562	0.003101
810.602474	0.002876
810.793367	0.002758
810.984242	0.002802
811.175100	0.002980
811.365938	0.002978
811.556759	0.002951
811.747562	0.002956
811.938346	0.002819
812.129112	0.002965
812.319860	0.003011
812.510589	0.003105
812.701300	0.002809
812.891994	0.002571
813.082668	0.002512
813.273325	0.002475
813.463964	0.002266
813.654584	0.002372
813.845186	0.002271
814.035769	0.002353
814.226335	0.002389
814.416882	0.002621
814.607411	0.002848
814.797922	0.002677
814.988415	0.002887
815.178889	0.003075
815.369345	0.003034
815.559783	0.003106
815.750203	0.002866
815.940605	0.002629
816.130988	0.002556
816.321353	0.002405
816.511700	0.002385
816.702028	0.002059
816.892339	0.002152
817.082631	0.002216
817.272905	0.002197
817.463161	0.002533
817.653398	0.002625
817.843617	0.002539
818.033819	0.002792
818.224001	0.002944
818.414166	0.003024
818.604312	0.002857
818.794440	0.002910
818.984550	0.002683
819.174642	0.002337
819.364716	0.002564
819.554771	0.002627
819.744808	0.002598
819.934827	0.002658
820.124827	0.002808
820.314810	0.002749
820.504774	0.002761
820.694720	0.002877
820.884647	0.003106
821.074557	0.002994
821.264448	0.002923
821.454321	0.002713
821.644176	0.002545
821.834012	0.002532
822.023831	0.002897
822.213631	0.002714
822.403413	0.002717
822.593176	0.002647
822.782922	0.002480
822.972649	0.002615
823.162358	0.002678
823.352049	0.002774
823.541721	0.002653
823.731376	0.002251
823.921012	0.002206
824.110629	0.002217
824.300229	0.002453
824.489811	0.002639
824.679374	0.002612
824.868919	0.002496
825.058445	0.002357
825.247954	0.002266
825.437444	0.002595
825.626916	0.002618
825.816370	0.002849
826.005806	0.002685
826.195223	0.002519
826.384622	0.002573
826.574003	0.002683
826.763366	0.002747
826.952711	0.002796
827.142037	0.002753
827.331345	0.002975
827.520635	0.002632
827.709906	0.002690
827.899160	0.002642
828.088395	0.002254
828.277612	0.002107
828.466810	0.002117
828.655991	0.002275
828.845153	0.001988
829.034297	0.001837
829.223423	0.002145
829.412531	0.002155
829.601620	0.002286
829.790691	0.002576
829.979744	0.002333
830.168779	0.002228
830.357795	0.002009
830.546793	0.002149
830.735773	0.002165
830.924735	0.001828
831.113679	0.001874
831.302604	0.001536
831.491511	0.001166
831.680400	0.001254
831.869271	0.001377
832.058123	0.001322
832.246957	0.001299
832.435773	0.001053
832.624571	0.001071
832.813351	0.000701
833.002112	0.000935
833.190855	0.001161
833.379580	0.001411
833.568287	0.001276
833.756975	0.001383
833.945645	0.001178
834.134297	0.001273
834.322931	0.001422
834.511547	0.001642
834.700144	0.001570
834.888723	0.001618
835.077284	0.001504
835.265826	0.001423
835.454351	0.001391
835.642857	0.001514
835.831345	0.001707
836.019815	0.001655
836.208266	0.001573
836.396699	0.001518
836.585114	0.001639
836.773511	0.001643
836.961890	0.001807
837.150250	0.001784
837.338592	0.001554
837.526916	0.001323
837.715222	0.001211
837.903510	0.001199
838.091779	0.001465
838.280030	0.001208
838.468263	0.001345
838.656477	0.001192
838.844674	0.001622
839.032852	0.001910
839.221012	0.002141
839.409153	0.002383
839.597277	0.002434
839.785382	0.002483
839.973469	0.002480
840.161538	0.002231
840.349589	0.002542
840.537621	0.002171
840.725635	0.002206
840.913631	0.001949
841.101609	0.001731
841.289568	0.001657
841.477509	0.001489
841.665432	0.001353
841.853337	0.001452
842.041224	0.001223
842.229092	0.001257
842.416942	0.001083
842.604774	0.001113
842.792588	0.001070
842.980383	0.001244
843.168160	0.001311
843.355919	0.001569
843.543660	0.001705
843.731382	0.002000
843.919087	0.002035
844.106773	0.002114
844.294441	0.002227
844.482090	0.002307
844.669722	0.002373
844.857335	0.002278
845.044930	0.002398
845.232507	0.002296
845.420065	0.002050
845.607605	0.002133
845.795127	0.002484
845.982631	0.002577
846.170117	0.002629
846.357584	0.002313
846.545033	0.002415
846.732464	0.002103
846.919877	0.002089
847.107272	0.002257
847.294648	0.002153
847.482006	0.001837
847.669346	0.001670
847.856667	0.001777
848.043971	0.001884
848.231256	0.001936
848.418523	0.002420
848.605771	0.002250
848.793002	0.002250
848.980214	0.002009
849.167408	0.002219
849.354584	0.002622
849.541742	0.002475
849.728881	0.002683
849.916002	0.002476
850.103105	0.002362
850.290190	0.002784
850.477256	0.002960
850.664304	0.003193
850.851334	0.002988
851.038346	0.002752
851.225340	0.003068
851.412315	0.003186
851.599272	0.003338
851.786211	0.003345
851.973132	0.003345
852.160034	0.003045
852.346918	0.003155
852.533784	0.003360
852.720632	0.003467
852.907462	0.003308
853.094273	0.003357
853.281066	0.003459
853.467841	0.003562
853.654598	0.003570
853.841336	0.003806
854.028056	0.004031
854.214758	0.004165
854.401442	0.004317
854.588107	0.004469
854.774755	0.004238
854.961384	0.004624
855.147995	0.004522
855.334587	0.004563
855.521162	0.004374
855.707718	0.004284
855.894256	0.004232
856.080775	0.004411
856.267277	0.004411
856.453760	0.004607
856.640225	0.004398
856.826672	0.004150
857.013101	0.004069
857.199511	0.004456
857.385903	0.004586
857.572277	0.004712
857.758633	0.004579
857.944970	0.004373
858.131290	0.004319
858.317591	0.004347
858.503873	0.004528
858.690138	0.004526
858.876384	0.004340
859.062612	0.004399
859.248822	0.004137
859.435014	0.003904
859.621188	0.003742
859.807343	0.004034
859.993480	0.003864
860.179599	0.004158
860.365699	0.004268
860.551781	0.004408
860.737846	0.004484
860.923891	0.004681
861.109919	0.004877
861.295929	0.005176
861.481920	0.004842
861.667893	0.004821
861.853848	0.004836
862.039784	0.004880
862.225702	0.004587
862.411603	0.004435
862.597484	0.004464
862.783348	0.004328
862.969193	0.004285
863.155021	0.004603
863.340830	0.004814
863.526620	0.004596
863.712393	0.004609
863.898147	0.004814
864.083883	0.004867
864.269601	0.004897
864.455301	0.005148
864.640982	0.005191
864.826645	0.004969
865.012290	0.004968
865.197917	0.005228
865.383526	0.005350
865.569116	0.005458
865.754688	0.005418
865.940242	0.005030
866.125777	0.004888
866.311295	0.005416
866.496794	0.005368
866.682275	0.005443
866.867737	0.005705
867.053182	0.005535
867.238608	0.005708
867.424016	0.005762
867.609406	0.005917
867.794778	0.006153
867.980131	0.005604
868.165466	0.005844
868.350783	0.005615
868.536082	0.005436
868.721362	0.005510
868.906625	0.005381
869.091869	0.005604
869.277094	0.005760
869.462302	0.005584
869.647491	0.005773
869.832662	0.005541
870.017815	0.005613
870.202950	0.005508
870.388066	0.005817
870.573165	0.005821
870.758245	0.005273
870.943306	0.005512
871.128350	0.005511
871.313375	0.005591
871.498382	0.006058
871.683371	0.006315
871.868342	0.006172
872.053294	0.006045
872.238229	0.005779
872.423144	0.006393
872.608042	0.006369
872.792922	0.006533
872.977783	0.006698
873.162626	0.006386
873.347451	0.006302
873.532258	0.006526
873.717046	0.006388
873.901816	0.006466
874.086568	0.006066
874.271302	0.005999
874.456017	0.005683
874.640715	0.005586
874.825394	0.005353
875.010055	0.005386
875.194697	0.005269
875.379322	0.005370
875.563928	0.005477
875.748516	0.005666
875.933085	0.005593
876.117637	0.005691
876.302170	0.005723
876.486685	0.006121
876.671182	0.006020
876.855661	0.006084
877.040121	0.005930
877.224563	0.006202
877.408987	0.006101
877.593393	0.006106
877.777780	0.006411
877.962150	0.006224
878.146501	0.005953
878.330833	0.006232
878.515148	0.006450
878.699444	0.006754
878.883722	0.006641
879.067982	0.006897
879.252224	0.007030
879.436447	0.007025
879.620653	0.007383
879.804840	0.007841
879.989008	0.007846
880.173159	0.007532
880.357291	0.007489
880.541405	0.007316
880.725501	0.007300
880.909579	0.007265
881.093638	0.007295
881.277680	0.007214
881.461703	0.006925
881.645707	0.006555
881.829694	0.006723
882.013662	0.006606
882.197612	0.006764
882.381544	0.006594
882.565458	0.006628
882.749353	0.006350
882.933230	0.006299
883.117089	0.006117
883.300930	0.006308
883.484753	0.006268
883.668557	0.006317
883.852343	0.006502
884.036111	0.006676
884.219861	0.006511
884.403592	0.006837
884.587305	0.006868
884.771000	0.006828
884.954677	0.007122
885.138335	0.007195
885.321976	0.007237
885.505598	0.007144
885.689201	0.007438
885.872787	0.007740
886.056354	0.007823
886.239904	0.007692
886.423434	0.008089
886.606947	0.008025
886.790442	0.007900
886.973918	0.007898
887.157376	0.008008
887.340816	0.007770
887.524237	0.007778
887.707641	0.007446
887.891026	0.007386
888.074393	0.007103
888.257741	0.006764
888.441072	0.006782
888.624384	0.007084
888.807678	0.006956
888.990954	0.006971
889.174211	0.006916
889.357451	0.006753
889.540672	0.006667
889.723875	0.006772
889.907059	0.006861
890.090226	0.007051
890.273374	0.006942
890.456504	0.007104
890.639616	0.006927
890.822709	0.006853
891.005785	0.007102
891.188842	0.007352
891.371881	0.007239
891.554901	0.007618
891.737904	0.007739
891.920888	0.007749
892.103854	0.007951
892.286802	0.007953
892.469731	0.007979
892.652643	0.008316
892.835536	0.008421
893.018410	0.008641
893.201267	0.008424
893.384106	0.008492
893.566926	0.008338
893.749728	0.008010
893.932511	0.008206
894.115277	0.007947
894.298024	0.007520
894.480753	0.007521
894.663464	0.007283
894.846157	0.007528
895.028831	0.007126
895.211487	0.007096
895.394125	0.007072
895.576745	0.007025
895.759346	0.007173
895.941930	0.007180
896.124495	0.007111
896.307041	0.007448
896.489570	0.007247
896.672080	0.007574
896.854573	0.007565
897.037046	0.007658
897.219502	0.007598
897.401940	0.007916
897.584359	0.008098
897.766760	0.008150
897.949143	0.008096
898.131507	0.008165
898.313854	0.008021
898.496182	0.008146
898.678492	0.007676
898.860783	0.007508
899.043057	0.007285
899.225312	0.007040
899.407549	0.006885
899.589768	0.006666
899.771968	0.006256
899.954151	0.005990
900.136315	0.005943
900.318461	0.006416
900.500588	0.006508
900.682698	0.006729
900.864789	0.006756
901.046862	0.006879
901.228917	0.006866
901.410953	0.006859
901.592971	0.007190
901.774972	0.007110
901.956953	0.006947
902.138917	0.006585
902.320862	0.006183
902.502790	0.006484
902.684699	0.006505
902.866589	0.006875
903.048462	0.006658
903.230316	0.006987
903.412152	0.006857
903.593970	0.006423
903.775770	0.006548
903.957551	0.006817
904.139314	0.006511
904.321059	0.006135
904.502786	0.005760
904.684494	0.006327
904.866185	0.005989
905.047857	0.006136
905.229510	0.006445
905.411146	0.006584
905.592763	0.006303
905.774363	0.006625
905.955943	0.006620
906.137506	0.006858
906.319051	0.006293
906.500577	0.005996
906.682085	0.005580
906.863575	0.005871
907.045046	0.005703
907.226500	0.005706
907.407935	0.005124
907.589352	0.005625
907.770750	0.005401
907.952131	0.005960
908.133493	0.005804
908.314837	0.006301
908.496163	0.006123
908.677470	0.005746
908.858760	0.005787
909.040031	0.005735
909.221284	0.005335
909.402518	0.005043
909.583735	0.005231
909.764933	0.005753
909.946113	0.005621
910.127275	0.005387
910.308418	0.005882
910.489544	0.005694
910.670651	0.006185
910.851740	0.006199
911.032810	0.006608
911.213863	0.006194
911.394897	0.006163
911.575913	0.005944
911.756911	0.005689
911.937890	0.005457
912.118851	0.005567
912.299794	0.005169
912.480719	0.004884
912.661626	0.004421
912.842514	0.004136
913.023384	0.003898
913.204236	0.003750
913.385070	0.004137
913.565886	0.004403
913.746683	0.004321
913.927462	0.004227
914.108223	0.004495
914.288965	0.004976
914.469690	0.005004
914.650396	0.004333
914.831084	0.004094
915.011754	0.003362
915.192405	0.003193
915.373038	0.003244
915.553653	0.002986
915.734250	0.002923
915.914829	0.002439
916.095389	0.002275
916.275931	0.002719
916.456455	0.003411
916.636961	0.004054
916.817448	0.004124
916.997917	0.003427
917.178368	0.003529
917.358801	0.003398
917.539216	0.003292
917.719612	0.003393
917.899990	0.003337
918.080350	0.003087
918.260692	0.002924
918.441015	0.002990
918.621320	0.003109
918.801607	0.002984
918.981876	0.002748
919.162127	0.002898
919.342359	0.002664
919.522573	0.002357
919.702769	0.001797
919.882947	0.001586
920.063106	0.001236
920.243247	0.001179
920.423370	0.001268
920.603475	0.001185
920.783562	0.001212
920.963630	0.001253
921.143680	0.001446
921.323712	0.001499
921.503725	0.001216
921.683721	0.001068
921.863698	0.001559
922.043657	0.001856
922.223598	0.002035
922.403520	0.001489
922.583424	0.001022
922.763311	0.000486
922.943178	0.000434
923.123028	0.000616
923.302859	0.000138
923.482673	-0.000274
923.662467	-0.000749
923.842244	-0.001414
924.022003	-0.000926
924.201743	-0.000781
924.381465	-0.000452
924.561169	-0.000582
924.740854	-0.001015
924.920522	-0.000687
925.100171	-0.000937
925.279802	-0.000987
925.459414	-0.000531
925.639009	-0.001080
925.818585	-0.001001
925.998143	-0.001289
926.177683	-0.001571
926.357205	-0.001302
926.536708	-0.000984
926.716193	-0.001047
926.895660	-0.001218
927.075109	-0.001677
927.254539	-0.001347
927.433951	-0.001564
927.613345	-0.001215
927.792721	-0.001112
927.972079	-0.000985
928.151418	-0.001569
928.330739	-0.001608
928.510042	-0.001222
928.689327	-0.000855
928.868593	-0.001442
929.047841	-0.002114
929.227071	-0.002743
929.406283	-0.003108
929.585476	-0.003896
929.764652	-0.004629
929.943809	-0.004770
930.122948	-0.005466
930.302068	-0.006488
930.481171	-0.006509
930.660255	-0.006411
930.839321	-0.006475
931.018369	-0.006179
931.197398	-0.007097
931.376409	-0.006542
931.555402	-0.006836
931.734377	-0.007296
931.913334	-0.006773
932.092272	-0.006779
932.271192	-0.007079
932.450094	-0.007634
932.628978	-0.008644
932.807844	-0.007546
932.986691	-0.008247
933.165520	-0.008898
933.344331	-0.008784
933.523123	-0.009273
933.701898	-0.009953
933.880654	-0.009440
934.059392	-0.009486
934.238111	-0.009111
934.416813	-0.009397
934.595496	-0.008926
934.774161	-0.008520
934.952808	-0.008643
935.131437	-0.008725
935.310047	-0.008665
935.488639	-0.009193
935.667213	-0.008748
935.845769	-0.009060
936.024306	-0.009489
936.202825	-0.010308
936.381326	-0.010881
936.559809	-0.011133
936.738274	-0.011316
936.916720	-0.011814
937.095148	-0.011882
937.273558	-0.012196
937.451950	-0.011548
937.630323	-0.011638
937.808678	-0.011375
937.987015	-0.011227
938.165334	-0.010917
938.343635	-0.011545
938.521917	-0.011061
938.700181	-0.010889
938.878427	-0.011598
939.056655	-0.011959
939.234864	-0.012955
939.413055	-0.013405
939.591228	-0.013250
939.769383	-0.014978
939.947519	-0.014838
940.125638	-0.015582
940.303738	-0.015802
940.481820	-0.015833
940.659883	-0.016738
940.837929	-0.016272
941.015956	-0.016251
941.193965	-0.016818
941.371955	-0.015757
941.549928	-0.015686
941.727882	-0.015626
941.905818	-0.015724
942.083736	-0.015423
942.261636	-0.015265
942.439517	-0.015669
942.617380	-0.016171
942.795225	-0.016377
942.973052	-0.015884
943.150860	-0.015990
943.328651	-0.016465
943.506423	-0.017740
943.684176	-0.018212
943.861912	-0.018081
944.039629	-0.016402
944.217328	-0.015260
944.395009	-0.015299
944.572672	-0.015867
944.750317	-0.015393
944.927943	-0.015735
945.105551	-0.014955
945.283141	-0.014502
945.460712	-0.014478
945.638265	-0.016262
945.815801	-0.017067
945.993317	-0.016478
946.170816	-0.017275
946.348297	-0.017126
946.525759	-0.017043
946.703203	-0.017244
946.880629	-0.017874
947.058036	-0.018931
947.235425	-0.018621
947.412797	-0.020160
947.590149	-0.020892
947.767484	-0.019581
947.944800	-0.019786
948.122099	-0.018967
948.299379	-0.019106
948.476640	-0.019028
948.653884	-0.018511
948.831109	-0.019302
949.008316	-0.018588
949.185505	-0.019122
949.362676	-0.020506
949.539828	-0.020611
949.716962	-0.021402
949.894078	-0.021723
950.071176	-0.021249
950.248256	-0.022101
950.425317	-0.020791
950.602360	-0.021273
950.779385	-0.021162
950.956391	-0.021490
951.133380	-0.022684
951.310350	-0.020746
951.487302	-0.019845
951.664235	-0.020735
951.841151	-0.019759
952.018048	-0.020091
952.194927	-0.020234
952.371788	-0.019172
952.548631	-0.019919
952.725455	-0.018994
952.902261	-0.020607
953.079049	-0.022079
953.255819	-0.021212
953.432570	-0.019679
953.609303	-0.019224
953.786018	-0.018263
953.962715	-0.020396
954.139394	-0.017801
954.316054	-0.018721
954.492696	-0.016617
954.669320	-0.015544
954.845926	-0.016768
955.022513	-0.019307
955.199083	-0.020702
955.375634	-0.019710
955.552166	-0.017903
955.728681	-0.018896
955.905177	-0.019427
956.081655	-0.021627
956.258115	-0.021721
956.434557	-0.022931
956.610980	-0.022151
956.787385	-0.021999
956.963772	-0.021798
957.140141	-0.021801
957.316492	-0.021314
957.492824	-0.019823
957.669138	-0.017896
957.845434	-0.017866
958.021712	-0.016436
958.197971	-0.015897
958.374212	-0.015319
958.550435	-0.015791
958.726640	-0.014521
958.902826	-0.012775
959.078995	-0.012479
959.255145	-0.016073
959.431277	-0.015074
959.607390	-0.013766
959.783486	-0.013981
959.959563	-0.011819
960.135622	-0.011812
960.311662	-0.010225
960.487685	-0.012045
960.663689	-0.014316
960.839675	-0.011396
961.015643	-0.011424
961.191593	-0.011350
961.367524	-0.012266
961.543437	-0.012444
961.719332	-0.012398
961.895209	-0.013799
962.071067	-0.013223
962.246907	-0.011508
962.422730	-0.010996
962.598533	-0.011313
962.774319	-0.012366
962.950086	-0.010364
963.125835	-0.013483
963.301566	-0.012628
963.477279	-0.013485
963.652973	-0.015807
963.828650	-0.016208
964.004308	-0.016421
964.179947	-0.015932
964.355569	-0.015958
964.531172	-0.016170
964.706757	-0.014127
964.882324	-0.013998
965.057873	-0.012329
965.233403	-0.011703
965.408916	-0.011555
965.584410	-0.010526
965.759885	-0.009255
965.935343	-0.007744
966.110782	-0.006056
966.286203	-0.005941
966.461606	-0.004885
966.636991	-0.005873
966.812357	-0.004336
966.987705	-0.003643
967.163035	-0.004976
967.338347	-0.007491
967.513641	-0.006441
967.688916	-0.007233
967.864173	-0.005285
968.039412	-0.006261
968.214632	-0.007659
968.389835	-0.008300
968.565019	-0.007130
968.740185	-0.007040
968.915333	-0.006709
969.090462	-0.006308
969.265573	-0.006562
969.440667	-0.006292
969.615741	-0.005281
969.790798	-0.004384
969.965836	-0.005625
970.140856	-0.006264
970.315858	-0.007154
970.490842	-0.007737
970.665808	-0.009121
970.840755	-0.008554
971.015684	-0.011840
971.190595	-0.013495
971.365487	-0.012573
971.540362	-0.009195
971.715218	-0.007072
971.890056	-0.006936
972.064875	-0.004706
972.239677	-0.003122
972.414460	-0.004788
972.589225	-0.002559
972.763972	-0.002375
972.938700	-0.003170
973.113411	-0.004969
973.288103	-0.007668
973.462777	-0.005572
973.637432	-0.005314
973.812070	-0.007632
973.986689	-0.005905
974.161290	-0.006738
974.335873	-0.005753
974.510437	-0.005778
974.684984	-0.005888
974.859512	-0.003926
975.034022	-0.004678
975.208513	-0.005315
975.382987	-0.005302
975.557442	-0.006441
975.731879	-0.007820
975.906298	-0.007787
976.080698	-0.008113
976.255080	-0.008597
976.429445	-0.009265
976.603790	-0.009912
976.778118	-0.009155
976.952427	-0.010182
977.126719	-0.009574
977.300992	-0.008363
977.475246	-0.008573
977.649483	-0.007917
977.823701	-0.008164
977.997901	-0.008300
978.172083	-0.007184
978.346247	-0.007519
978.520392	-0.006329
978.694519	-0.007247
978.868628	-0.005888
979.042719	-0.005880
979.216791	-0.007201
979.390845	-0.005115
979.564882	-0.006381
979.738899	-0.007804
979.912899	-0.008900
980.086880	-0.009842
980.260843	-0.009351
980.434788	-0.010808
980.608715	-0.011017
980.782623	-0.010850
980.956514	-0.013017
981.130386	-0.011184
981.304240	-0.012766
981.478075	-0.012015
981.651892	-0.009296
981.825692	-0.012274
981.999472	-0.012491
982.173235	-0.012746
982.346980	-0.011086
982.520706	-0.010544
982.694414	-0.012147
982.868104	-0.010559
983.041775	-0.012536
983.215428	-0.013742
983.389064	-0.011376
983.562680	-0.011380
983.736279	-0.011177
983.909860	-0.011935
984.083422	-0.010591
984.256966	-0.010229
984.430491	-0.008912
984.603999	-0.006258
984.777488	-0.006462
984.950959	-0.007225
985.124412	-0.005975
985.297847	-0.003852
985.471263	-0.003265
985.644661	-0.002604
985.818041	-0.001895
985.991403	-0.003385
986.164747	-0.004885
986.338072	-0.003397
986.511379	-0.002861
986.684668	-0.003612
986.857938	-0.004457
987.031191	-0.005123
987.204425	-0.005425
987.377641	-0.006233
987.550839	-0.004459
987.724018	-0.001705
987.897179	-0.002272
988.070322	-0.003959
988.243447	-0.004766
988.416554	-0.005766
988.589642	-0.004890
988.762712	-0.005438
988.935764	-0.006226
989.108798	-0.007419
989.281813	-0.008843
989.454811	-0.008962
989.627790	-0.004873
989.800751	-0.002928
989.973693	-0.001832
990.146617	-0.002834
990.319524	-0.002169
990.492412	0.000310
990.665281	0.002384
990.838133	0.001640
991.010966	0.002619
991.183781	0.000543
991.356578	-0.000889
991.529356	-0.000980
991.702117	0.001038
991.874859	-0.000187
992.047583	-0.001239
992.220288	-0.003128
992.392976	-0.002568
992.565645	-0.004972
992.738296	-0.004171
992.910929	-0.002411
993.083543	-0.002763
993.256139	-0.003577
993.428718	-0.001495
993.601277	-0.001897
993.773819	-0.001556
993.946342	-0.001754
994.118848	-0.000381
994.291335	-0.002193
994.463803	-0.002678
994.636254	-0.003572
994.808686	-0.003272
994.981100	-0.005234
995.153496	-0.005903
995.325874	-0.004878
995.498233	-0.002706
995.670574	-0.003058
995.842897	-0.002202
996.015202	-0.001382
996.187488	0.001475
996.359757	0.000190
996.532007	0.001652
996.704239	0.003740
996.876452	0.002141
997.048648	-0.001142
997.220825	-0.001076
997.392984	-0.000151
997.565124	-0.001095
997.737247	-0.003049
997.909351	-0.001332
998.081437	-0.001919
998.253505	-0.003378
998.425554	-0.004462
998.597586	-0.002175
998.769599	-0.001681
998.941594	-0.002898
999.113571	-0.001079
999.285529	-0.002271
999.457469	-0.003396
999.629391	-0.004311
999.801295	-0.004576
999.973181	-0.003760
1000.145048	-0.004865
1000.316897	-0.004735
1000.488728	-0.003773
1000.660541	-0.006468
1000.832335	-0.006161
1001.004111	-0.006310
1001.175869	-0.004777
1001.347609	-0.005488
1001.519331	-0.005624
1001.691034	-0.005821
1001.862719	-0.006206
1002.034386	-0.005744
1002.206035	-0.004476
1002.377665	-0.004008
1002.549277	-0.003085
1002.720871	-0.004833
1002.892447	-0.005657
1003.064004	-0.004210
1003.235544	-0.003681
1003.407065	-0.002458
1003.578568	-0.001899
1003.750052	-0.001916
1003.921519	-0.002797
1004.092967	-0.003021
1004.264397	-0.000844
1004.435809	0.001594
1004.607202	0.002848
1004.778577	0.003011
1004.949934	0.001671
1005.121273	0.000452
1005.292594	0.000699
1005.463896	0.000009
1005.635180	-0.000524
1005.806446	-0.001716
1005.977694	-0.001696
1006.148923	-0.002835
1006.320135	-0.002373
1006.491328	-0.001405
1006.662503	-0.001827
1006.833659	-0.002391
1007.004798	-0.000130
1007.175918	-0.000113
1007.347020	-0.000125
1007.518103	0.000052
1007.689169	-0.001441
1007.860216	-0.001115
1008.031245	-0.002050
1008.202256	-0.001510
1008.373248	-0.000586
1008.544223	-0.000063
1008.715179	0.000224
1008.886117	-0.000850
1009.057036	-0.001114
1009.227938	-0.000488
1009.398821	-0.004148
1009.569686	-0.001628
1009.740533	-0.001823
1009.911361	-0.001388
1010.082172	-0.003517
1010.252964	-0.002600
1010.423738	-0.000778
1010.594493	-0.000407
1010.765231	-0.000957
1010.935950	0.002107
1011.106651	-0.000544
1011.277334	0.000891
1011.447998	-0.000282
1011.618645	0.000901
1011.789273	0.000507
1011.959882	0.000154
1012.130474	-0.000650
1012.301048	-0.002143
1012.471603	-0.001323
1012.642140	-0.000869
1012.812658	-0.002330
1012.983159	-0.001943
1013.153641	-0.000592
1013.324105	-0.002043
1013.494551	-0.001735
1013.664979	-0.003298
1013.835388	0.000877
1014.005779	0.000174
1014.176152	-0.001535
1014.346507	-0.000847
1014.516843	-0.003190
1014.687162	-0.004910
1014.857462	-0.003815
1015.027744	-0.005276
1015.198007	-0.003488
1015.368252	-0.005395
1015.538480	-0.005815
1015.708689	-0.004540
1015.878879	-0.004799
1016.049052	-0.003136
1016.219206	-0.001961
1016.389342	-0.003141
1016.559460	-0.002700
1016.729559	-0.001657
1016.899641	-0.002748
1017.069704	-0.002124
1017.239749	-0.001984
1017.409775	0.000073
1017.579784	0.000346
1017.749774	-0.000583
1017.919746	-0.000258
1018.089700	0.001373
1018.259635	0.001003
1018.429553	0.000515
1018.599452	0.000606
1018.769333	0.001015
1018.939195	-0.000319
1019.109040	-0.001608
1019.278866	-0.000432
1019.448674	-0.000305
1019.618464	-0.001486
1019.788235	-0.002093
1019.957989	-0.000588
1020.127724	-0.001588
1020.297441	-0.001442
1020.467139	-0.002100
1020.636820	-0.000712
1020.806482	-0.001713
1020.976126	-0.000284
1021.145752	-0.003324
1021.315359	-0.003636
1021.484948	-0.004438
1021.654519	-0.004365
1021.824072	-0.005897
1021.993607	-0.004642
1022.163123	-0.004868
1022.332621	-0.005294
1022.502101	-0.004916
1022.671563	-0.001550
1022.841007	-0.000424
1023.010432	0.001478
1023.179839	0.001503
1023.349228	0.003640
1023.518598	0.002706
1023.687951	0.002581
1023.857285	0.001911
1024.026601	0.001569
1024.195899	0.002946
1024.365178	0.002741
1024.534439	0.002910
1024.703682	0.002560
1024.872907	0.002177
1025.042114	0.001730
1025.211302	0.001990
1025.380472	0.004003
1025.549624	0.003832
1025.718758	0.002401
1025.887873	0.002347
1026.056970	0.001632
1026.226049	0.001403
1026.395110	0.001810
1026.564153	0.002064
1026.733177	0.002175
1026.902183	0.001328
1027.071171	0.000211
1027.240141	-0.001336
1027.409092	-0.002815
1027.578026	-0.002852
1027.746940	-0.002146
1027.915837	-0.003453
1028.084716	-0.003585
1028.253576	-0.004535
1028.422418	-0.005039
1028.591242	-0.003992
1028.760048	-0.004007
1028.928835	0.000131
1029.097604	0.000357
1029.266355	0.001070
1029.435088	-0.000273
1029.603803	-0.000087
1029.772499	-0.000917
1029.941177	-0.000262
1030.109837	-0.000744
1030.278478	0.000962
1030.447102	-0.002176
1030.615707	-0.003425
1030.784294	-0.003562
1030.952863	-0.002629
1031.121413	-0.003691
1031.289945	-0.002492
1031.458460	-0.001291
1031.626955	-0.002303
1031.795433	-0.003763
1031.963892	-0.003664
1032.132334	-0.000901
1032.300756	-0.001587
1032.469161	-0.000965
1032.637548	0.000004
1032.805916	-0.000537
1032.974266	-0.002117
1033.142598	0.000013
1033.310911	0.000916
1033.479207	0.000099
1033.647484	-0.000164
1033.815743	0.000808
1033.983983	0.000761
1034.152206	0.001086
1034.320410	0.001069
1034.488596	0.000300
1034.656764	-0.000402
1034.824914	-0.000899
1034.993045	0.000883
1035.161158	-0.001944
1035.329253	-0.003606
1035.497330	-0.003636
1035.665388	-0.002738
1035.833428	-0.002299
1036.001450	-0.002028
1036.169454	-0.002479
1036.337440	-0.002219
1036.505407	-0.003058
1036.673356	-0.000554
1036.841287	0.000092
1037.009200	0.001046
1037.177094	-0.000122
1037.344970	-0.000126
1037.512828	-0.000637
1037.680668	-0.000831
1037.848489	-0.000166
1038.016293	-0.001005
1038.184078	-0.003265
1038.351845	-0.003474
1038.519593	-0.003613
1038.687324	-0.005598
1038.855036	-0.005417
1039.022730	-0.003313
1039.190406	-0.004046
1039.358063	-0.002349
1039.525702	-0.000539
1039.693323	0.000588
1039.860926	0.000031
1040.028511	-0.000486
1040.196077	0.002195
1040.363625	0.003837
1040.531155	0.003673
1040.698667	0.005057
1040.866161	0.004470
1041.033636	0.004027
1041.201093	0.002634
1041.368532	0.002129
1041.535952	0.003473
1041.703355	0.001044
1041.870739	-0.001055
1042.038105	-0.001993
1042.205452	-0.001943
1042.372782	-0.002025
1042.540093	-0.003447
1042.707386	-0.000653
1042.874661	0.000626
1043.041918	-0.001050
1043.209156	0.000742
1043.376376	0.000892
1043.543578	0.000367
1043.710762	-0.000478
1043.877927	-0.001845
1044.045074	-0.002497
1044.212203	-0.004076
1044.379314	-0.003841
1044.546407	-0.003358
1044.713481	-0.003634
1044.880537	-0.002949
1045.047575	-0.001249
1045.214595	-0.003121
1045.381596	-0.002022
1045.548579	-0.000846
1045.715544	-0.000505
1045.882491	-0.000479
1046.049420	-0.000951
1046.216330	-0.001785
1046.383222	0.000117
1046.550096	-0.002109
1046.716951	-0.001317
1046.883789	-0.000796
1047.050608	-0.000332
1047.217409	0.000470
1047.384192	0.000978
1047.550956	0.002104
1047.717703	0.003181
1047.884431	0.002306
1048.051140	-0.000029
1048.217832	0.002206
1048.384505	0.001026
1048.551161	0.000783
1048.717798	-0.000548
1048.884416	-0.000975
1049.051017	-0.001486
1049.217599	-0.001586
1049.384163	-0.002694
1049.550709	0.000466
1049.717237	-0.001786
1049.883746	-0.002296
1050.050237	-0.002011
1050.216710	-0.002816
1050.383165	-0.002740
1050.549601	-0.005023
1050.716019	-0.004018
1050.882420	-0.003120
1051.048801	-0.003499
1051.215165	-0.001408
1051.381510	-0.000881
1051.547837	-0.000309
1051.714146	0.000225
1051.880437	-0.000117
1052.046709	0.000823
1052.212964	-0.000690
1052.379200	-0.002389
1052.545417	-0.001958
1052.711617	-0.001660
1052.877798	-0.002202
1053.043961	-0.003683
1053.210106	-0.001308
1053.376233	-0.001388
1053.542341	0.000281
1053.708432	0.001648
1053.874504	0.000882
1054.040557	0.002173
1054.206593	0.000517
1054.372610	0.000276
1054.538609	-0.000048
1054.704590	-0.001240
1054.870553	0.000371
1055.036497	-0.001377
1055.202424	-0.002702
1055.368331	-0.001121
1055.534221	-0.003144
1055.700093	-0.003571
1055.865946	-0.002078
1056.031781	-0.002981
1056.197598	-0.002964
1056.363397	-0.002343
1056.529177	-0.001803
1056.694939	-0.000313
1056.860683	-0.000714
1057.026409	-0.000773
1057.192116	0.001263
1057.357806	-0.000572
1057.523477	0.001933
1057.689130	0.002209
1057.854764	-0.001177
1058.020381	-0.000141
1058.185979	-0.001318
1058.351559	0.000872
1058.517120	0.000931
1058.682664	-0.001551
1058.848189	-0.001538
1059.013696	-0.004490
1059.179185	-0.005767
1059.344656	-0.004775
1059.510108	-0.005351
1059.675542	-0.006028
1059.840958	-0.009222
1060.006356	-0.007236
1060.171735	-0.006781
1060.337096	-0.005938
1060.502439	-0.002882
1060.667764	-0.002231
1060.833071	-0.002279
1060.998359	0.000591
1061.163629	-0.000544
1061.328881	0.001744
1061.494115	0.000757
1061.659330	0.001885
1061.824527	0.003051
1061.989706	0.002476
1062.154867	0.002041
1062.320010	0.001846
1062.485134	-0.002275
1062.650240	-0.001112
1062.815328	-0.001881
1062.980398	-0.003588
1063.145449	-0.003483
1063.310482	-0.005642
1063.475497	-0.006615
1063.640494	-0.007070
1063.805473	-0.006233
1063.970433	-0.002626
1064.135375	-0.001985
1064.300299	-0.002568
1064.465204	-0.001297
1064.630092	-0.001639
1064.794961	-0.000766
1064.959812	0.000348
1065.124645	0.000960
1065.289459	-0.000280
1065.454256	-0.002628
1065.619034	-0.002064
1065.783793	-0.002303
1065.948535	-0.004370
1066.113258	-0.001640
1066.277964	-0.002887
1066.442651	-0.003923
1066.607319	-0.004489
1066.771970	-0.004427
1066.936602	-0.004631
1067.101216	-0.004685
1067.265812	-0.003422
1067.430389	-0.001269
1067.594949	-0.002467
1067.759490	-0.002526
1067.924013	-0.001917
1068.088518	-0.003534
1068.253004	-0.001670
1068.417472	-0.000242
1068.581922	-0.001608
1068.746354	-0.002882
1068.910768	-0.003462
1069.075163	-0.004614
1069.239540	-0.001960
1069.403899	-0.002605
1069.568240	-0.001205
1069.732562	-0.001893
1069.896866	-0.003321
1070.061152	-0.001985
1070.225420	-0.000651
1070.389670	0.001258
1070.553901	-0.000941
1070.718114	-0.003827
1070.882309	-0.003356
1071.046486	-0.002299
1071.210644	-0.002312
1071.374784	-0.003674
1071.538906	-0.004163
1071.703010	-0.004981
1071.867096	-0.008016
1072.031163	-0.004283
1072.195212	-0.002336
1072.359243	-0.003565
1072.523256	-0.003309
1072.687250	-0.003511
1072.851226	-0.002482
1073.015184	-0.001993
1073.179124	-0.002840
1073.343045	0.000244
1073.506949	0.000420
1073.670834	0.000465
1073.834701	0.003177
1073.998549	0.003241
1074.162380	0.002964
1074.326192	0.004892
1074.489986	0.003891
1074.653761	0.004520
1074.817519	0.003237
1074.981258	0.000078
1075.144979	-0.002428
1075.308682	-0.003559
1075.472367	-0.005619
1075.636033	-0.005626
1075.799681	-0.007520
1075.963311	-0.006931
1076.126923	-0.008358
1076.290516	-0.008216
1076.454092	-0.007761
1076.617649	-0.006066
1076.781187	-0.005281
1076.944708	-0.003688
1077.108210	-0.002981
1077.271695	-0.001590
1077.435160	-0.001236
1077.598608	0.001150
1077.762038	0.000972
1077.925449	0.003035
1078.088842	0.002547
1078.252217	0.000822
1078.415573	-0.001253
1078.578912	-0.003008
1078.742232	-0.004626
1078.905534	-0.006056
1079.068817	-0.007681
1079.232083	-0.006728
1079.395330	-0.006640
1079.558559	-0.008147
1079.721770	-0.006532
1079.884962	-0.005842
1080.048136	-0.004621
1080.211293	-0.005098
1080.374430	-0.006051
1080.537550	-0.006658
1080.700651	-0.006632
1080.863735	-0.007074
1081.026800	-0.003583
1081.189846	-0.003826
1081.352875	-0.002727
1081.515885	-0.002978
1081.678877	-0.004449
1081.841851	-0.002593
1082.004807	-0.001867
1082.167744	-0.003564
1082.330663	-0.003721
1082.493564	-0.006128
1082.656447	-0.006648
1082.819312	-0.006835
1082.982158	-0.004753
1083.144986	-0.000414
1083.307796	-0.001833
1083.470587	-0.000183
1083.633361	-0.000436
1083.796116	0.000232
1083.958853	0.001368
1084.121571	0.002309
1084.284272	0.001716
1084.446954	-0.001384
1084.609618	-0.006028
1084.772264	-0.003939
1084.934892	-0.004839
1085.097501	-0.001845
1085.260092	-0.003438
1085.422665	-0.003995
1085.585220	-0.003067
1085.747756	-0.000665
1085.910274	-0.002569
1086.072774	-0.000195
1086.235256	-0.002781
1086.397720	-0.001752
1086.560165	-0.006978
1086.722592	-0.008186
1086.885001	-0.008942
1087.047392	-0.010573
1087.209764	-0.010160
1087.372119	-0.006189
1087.534455	-0.005207
1087.696772	-0.006248
1087.859072	-0.005986
1088.021353	-0.002747
1088.183616	-0.000792
1088.345861	-0.000939
1088.508088	-0.000343
1088.670296	-0.002341
1088.832486	-0.002262
1088.994658	-0.002450
1089.156812	-0.001417
1089.318948	-0.001656
1089.481065	-0.003660
1089.643164	-0.005642
1089.805245	-0.005579
1089.967308	-0.006739
1090.129352	-0.004360
1090.291378	-0.006792
1090.453386	-0.007158
1090.615376	-0.005660
1090.777347	-0.006743
1090.939301	-0.005109
1091.101236	-0.005704
1091.263153	-0.004795
1091.425051	-0.007212
1091.586932	-0.009526
1091.748794	-0.008385
1091.910638	-0.009509
1092.072463	-0.010943
1092.234271	-0.014071
1092.396060	-0.012159
1092.557831	-0.011262
1092.719584	-0.010203
1092.881319	-0.010311
1093.043035	-0.007910
1093.204733	-0.010643
1093.366413	-0.007987
1093.528075	-0.006348
1093.689718	-0.003539
1093.851343	-0.006544
1094.012950	-0.005109
1094.174539	-0.007486
1094.336110	-0.006481
1094.497662	-0.008937
1094.659196	-0.007559
1094.820712	-0.009346
1094.982210	-0.011675
1095.143689	-0.013311
1095.305151	-0.012754
1095.466594	-0.014735
1095.628018	-0.012915
1095.789425	-0.010399
1095.950813	-0.012273
1096.112183	-0.012612
1096.273535	-0.011999
1096.434869	-0.009504
1096.596184	-0.010809
1096.757482	-0.007015
1096.918761	-0.003401
1097.080021	-0.005174
1097.241264	-0.007363
1097.402488	-0.005577
1097.563694	-0.005397
1097.724882	-0.005890
1097.886052	-0.007051
1098.047203	-0.001821
1098.208336	-0.004753
1098.369451	-0.004742
1098.530548	-0.006538
1098.691627	-0.006485
1098.852687	-0.006366
1099.013729	-0.006659
1099.174753	-0.005187
1099.335758	-0.003605
1099.496746	-0.001226
1099.657715	-0.000707
1099.818666	-0.000242
1099.979599	0.004212
1100.140513	0.008015
1100.301409	0.004514
1100.462287	0.005056
1100.623147	0.003246
1100.783989	0.003209
1100.944812	-0.004051
1101.105617	-0.002432
1101.266404	-0.006031
1101.427173	-0.007549
1101.587923	-0.011871
1101.748656	-0.007371
1101.909370	-0.007419
1102.070066	-0.009066
1102.230743	-0.010075
1102.391403	-0.006756
1102.552044	-0.007977
1102.712667	-0.009286
1102.873271	-0.009320
1103.033858	-0.005796
1103.194426	-0.006407
1103.354976	-0.005827
1103.515508	-0.002488
1103.676021	-0.003176
1103.836517	-0.003819
1103.996994	-0.005978
1104.157453	-0.003883
1104.317893	-0.006046
1104.478316	-0.007267
1104.638720	-0.007077
1104.799106	-0.005241
1104.959474	-0.006231
1105.119823	-0.004058
1105.280155	-0.003091
1105.440468	-0.001411
1105.600763	-0.003668
1105.761039	-0.003063
1105.921298	-0.006614
1106.081538	-0.005103
1106.241760	-0.006565
1106.401964	-0.009370
1106.562149	-0.009282
1106.722316	-0.012387
1106.882465	-0.014102
1107.042596	-0.010664
1107.202709	-0.008183
1107.362803	-0.004573
1107.522879	-0.006112
1107.682937	-0.007115
1107.842977	-0.006478
1108.002999	-0.007517
1108.163002	-0.006423
1108.322987	-0.006965
1108.482954	-0.008126
1108.642902	-0.007098
1108.802833	-0.010560
1108.962745	-0.010866
1109.122639	-0.010444
1109.282515	-0.010160
1109.442372	-0.010121
1109.602211	-0.010457
1109.762032	-0.006860
1109.921835	-0.006926
1110.081620	-0.009217
1110.241386	-0.010898
1110.401134	-0.008355
1110.560864	-0.009130
1110.720576	-0.007274
1110.880269	-0.009643
1111.039945	-0.012046
1111.199602	-0.015434
1111.359240	-0.013500
1111.518861	-0.012705
1111.678463	-0.008792
1111.838047	-0.013617
1111.997613	-0.007625
1112.157161	-0.005765
1112.316690	-0.000889
1112.476202	0.004823
1112.635695	0.006317
1112.795169	0.002292
1112.954626	0.002017
1113.114064	0.002796
1113.273484	0.000246
1113.432886	-0.004099
1113.592270	-0.005330
1113.751635	-0.005571
1113.910983	-0.007976
1114.070312	-0.007493
1114.229622	-0.005744
1114.388915	-0.008644
1114.548189	-0.005700
1114.707445	-0.001579
1114.866683	-0.001861
1115.025903	-0.006145
1115.185104	-0.011074
1115.344287	-0.012383
1115.503452	-0.015813
1115.662599	-0.016001
1115.821727	-0.013428
1115.980838	-0.019242
1116.139930	-0.020317
1116.299004	-0.021555
1116.458059	-0.017283
1116.617097	-0.018644
1116.776116	-0.014923
1116.935117	-0.017205
1117.094099	-0.015401
1117.253064	-0.014994
1117.412010	-0.013156
1117.570938	-0.013651
1117.729848	-0.014363
1117.888740	-0.020215
1118.047613	-0.019267
1118.206468	-0.018830
1118.365305	-0.013051
1118.524124	-0.013106
1118.682924	-0.017072
1118.841707	-0.016563
1119.000471	-0.019229
1119.159216	-0.019268
1119.317944	-0.015370
1119.476653	-0.013643
1119.635344	-0.013120
1119.794017	-0.014316
1119.952672	-0.017557
1120.111308	-0.016687
1120.269927	-0.016969
1120.428527	-0.012305
1120.587108	-0.010740
1120.745672	-0.006965
1120.904217	-0.006181
1121.062744	-0.008858
1121.221253	-0.006004
1121.379744	-0.005902
1121.538216	-0.004856
1121.696671	-0.005943
1121.855107	-0.007252
1122.013524	-0.006828
1122.171924	-0.012461
1122.330305	-0.014262
1122.488668	-0.016739
1122.647013	-0.019644
1122.805340	-0.018596
1122.963648	-0.016393
1123.121938	-0.013063
1123.280210	-0.011012
1123.438464	-0.012922
1123.596700	-0.009805
1123.754917	-0.008160
1123.913116	-0.008069
1124.071297	-0.007386
1124.229459	-0.008154
1124.387604	-0.012068
1124.545730	-0.015587
1124.703838	-0.019417
1124.861928	-0.017500
1125.019999	-0.018989
1125.178052	-0.018109
1125.336088	-0.021234
1125.494104	-0.022943
1125.652103	-0.023285
1125.810083	-0.018630
1125.968045	-0.015068
1126.125989	-0.011139
1126.283915	-0.014932
1126.441823	-0.017473
1126.599712	-0.018398
1126.757583	-0.013961
1126.915436	-0.014698
1127.073270	-0.013437
1127.231087	-0.015161
1127.388885	-0.018822
1127.546665	-0.024488
1127.704426	-0.020585
1127.862170	-0.018449
1128.019895	-0.022421
1128.177602	-0.019905
1128.335291	-0.016993
1128.492961	-0.018631
1128.650614	-0.017364
1128.808248	-0.013349
1128.965864	-0.011246
1129.123461	-0.013827
1129.281041	-0.014220
1129.438602	-0.010998
1129.596145	-0.015577
1129.753670	-0.013800
1129.911176	-0.016128
1130.068665	-0.014819
1130.226135	-0.021247
1130.383587	-0.020580
1130.541020	-0.015993
1130.698436	-0.011664
1130.855833	-0.014967
1131.013212	-0.016526
1131.170573	-0.020633
1131.327915	-0.015632
1131.485239	-0.020950
1131.642545	-0.019502
1131.799833	-0.016970
1131.957103	-0.022661
1132.114354	-0.023000
1132.271588	-0.020649
1132.428803	-0.016422
1132.585999	-0.014352
1132.743178	-0.014405
1132.900338	-0.012870
1133.057480	-0.011453
1133.214604	-0.011471
1133.371710	-0.007197
1133.528797	-0.010925
1133.685866	-0.011107
1133.842917	-0.013742
1133.999950	-0.015130
1134.156964	-0.018576
1134.313960	-0.021271
1134.470938	-0.019276
1134.627898	-0.022450
1134.784840	-0.024700
1134.941763	-0.022115
1135.098668	-0.015622
1135.255555	-0.011721
1135.412424	-0.011973
1135.569274	-0.013328
1135.726107	-0.007966
1135.882921	-0.007539
1136.039716	-0.004389
1136.196494	-0.005327
1136.353253	-0.007988
1136.509995	-0.013558
1136.666717	-0.018849
1136.823422	-0.020344
1136.980109	-0.019696
1137.136777	-0.020411
1137.293427	-0.022253
1137.450059	-0.021580
1137.606672	-0.019288
1137.763267	-0.017850
1137.919844	-0.016519
1138.076403	-0.011107
1138.232944	-0.011696
1138.389466	-0.006360
1138.545971	-0.010997
1138.702457	-0.008837
1138.858924	-0.009245
1139.015374	-0.006402
1139.171805	-0.009875
1139.328218	-0.007576
1139.484613	-0.008711
1139.640990	-0.002115
1139.797348	-0.006096
1139.953688	-0.000360
1140.110010	0.000331
1140.266314	-0.007126
1140.422600	-0.012387
1140.578867	-0.010534
1140.735116	-0.010908
1140.891347	-0.012637
1141.047559	-0.015101
1141.203754	-0.015135
1141.359930	-0.015080
1141.516088	-0.020093
1141.672228	-0.012328
1141.828349	-0.005440
1141.984452	-0.009854
1142.140537	-0.017325
1142.296604	-0.011776
1142.452653	-0.014862
1142.608683	-0.013090
1142.764695	-0.015939
1142.920689	-0.010938
1143.076665	-0.013075
1143.232622	-0.017634
1143.388562	-0.014015
1143.544483	-0.008537
1143.700385	-0.009852
1143.856270	-0.003992
1144.012136	-0.002404
1144.167985	-0.001716
1144.323814	-0.006123
1144.479626	-0.008508
1144.635420	-0.008609
1144.791195	-0.005434
1144.946952	-0.005590
1145.102691	-0.005932
1145.258411	-0.007522
1145.414113	-0.009144
1145.569798	-0.010868
1145.725463	-0.007362
1145.881111	-0.001989
1146.036741	0.001456
1146.192352	0.002936
1146.347945	0.000293
1146.503519	-0.002433
1146.659076	-0.009931
1146.814614	-0.014929
1146.970134	-0.014437
1147.125636	-0.012979
1147.281120	-0.020905
1147.436585	-0.025527
1147.592032	-0.023833
1147.747461	-0.016802
1147.902872	-0.014401
1148.058265	-0.017190
1148.213639	-0.011167
1148.368995	-0.009719
1148.524333	-0.013044
1148.679653	-0.007381
1148.834954	-0.003187
1148.990237	-0.007235
1149.145502	-0.016305
1149.300749	-0.019462
1149.455977	-0.013104
1149.611188	-0.020464
1149.766380	-0.026302
1149.921553	-0.022715
1150.076709	-0.023175
1150.231846	-0.021181
1150.386966	-0.021352
1150.542066	-0.013052
1150.697149	-0.016187
1150.852214	-0.015145
1151.007260	-0.014587
1151.162288	-0.003093
1151.317298	-0.011166
1151.472289	-0.007764
1151.627263	-0.012881
1151.782218	-0.014447
1151.937155	-0.020455
1152.092073	-0.015606
1152.246974	-0.014944
1152.401856	-0.007522
1152.556720	-0.015231
1152.711566	-0.007545
1152.866393	-0.016513
1153.021203	-0.013449
1153.175994	-0.007511
1153.330767	-0.008458
1153.485521	-0.009981
1153.640258	-0.010510
1153.794976	-0.009788
1153.949676	-0.013327
1154.104358	-0.014642
1154.259021	-0.008183
1154.413667	-0.011845
1154.568294	-0.020825
1154.722903	-0.014341
1154.877493	-0.014407
1155.032066	-0.017457
1155.186620	-0.021287
1155.341156	-0.015031
1155.495674	-0.015008
1155.650173	-0.013081
1155.804654	-0.019327
1155.959118	-0.019658
1156.113562	-0.020707
1156.267989	-0.025470
1156.422397	-0.029791
1156.576788	-0.023208
1156.731160	-0.024438
1156.885513	-0.028944
1157.039849	-0.032987
1157.194166	-0.024929
1157.348465	-0.020629
1157.502746	-0.022807
1157.657009	-0.013112
1157.811253	-0.005204
1157.965479	-0.009566
1158.119687	-0.012035
1158.273877	-0.009460
1158.428048	-0.011319
1158.582201	-0.013632
1158.736337	-0.017915
1158.890453	-0.017873
1159.044552	-0.026433
1159.198632	-0.025671
1159.352694	-0.030733
1159.506738	-0.031386
1159.660764	-0.031280
1159.814771	-0.025005
1159.968761	-0.023935
1160.122732	-0.019921
1160.276685	-0.017000
1160.430619	-0.008928
1160.584535	-0.011496
1160.738434	-0.007074
1160.892313	-0.002346
1161.046175	-0.001886
1161.200019	-0.006461
1161.353844	-0.004471
1161.507651	-0.001682
1161.661440	-0.007083
1161.815210	-0.008019
1161.968962	-0.004945
1162.122697	-0.007650
1162.276412	-0.012997
1162.430110	-0.012821
1162.583789	-0.009185
1162.737451	-0.009488
1162.891094	-0.018214
1163.044718	-0.017289
1163.198325	-0.024993
1163.351913	-0.029966
1163.505483	-0.024717
1163.659035	-0.022864
1163.812569	-0.028755
1163.966084	-0.033454
1164.119581	-0.040654
1164.273060	-0.039549
1164.426521	-0.041232
1164.579964	-0.041359
1164.733388	-0.034699
1164.886794	-0.043615
1165.040182	-0.038595
1165.193551	-0.031511
1165.346903	-0.033092
1165.500236	-0.021375
1165.653551	-0.015674
1165.806848	-0.007734
1165.960126	-0.003524
1166.113386	-0.007966
1166.266628	-0.005389
1166.419852	-0.004951
1166.573058	-0.012881
1166.726245	-0.009572
1166.879414	-0.015897
1167.032565	-0.016730
1167.185698	-0.020096
1167.338812	-0.015783
1167.491909	-0.018686
1167.644987	-0.024442
1167.798046	-0.024031
1167.951088	-0.015015
1168.104111	-0.027073
1168.257117	-0.020735
1168.410103	-0.022085
1168.563072	-0.029841
1168.716023	-0.041272
1168.868955	-0.040402
1169.021869	-0.038316
1169.174765	-0.044288
1169.327642	-0.048370
1169.480501	-0.039555
1169.633343	-0.046395
1169.786165	-0.036186
1169.938970	-0.031257
1170.091757	-0.026859
1170.244525	-0.028196
1170.397275	-0.016743
1170.550007	-0.010175
1170.702720	-0.006712
1170.855415	-0.004898
1171.008092	-0.003874
1171.160751	-0.010712
1171.313392	-0.008737
1171.466014	-0.021036
1171.618619	0.002683
1171.771205	0.002683
1171.923772	0.002683
