sample name	sample
index	15
start time	 02-11-2021  11:48:27 AM
880	0.020882
Peak Time (s)	82.537
Peak Height 	0.02088
calc peak height	80,83
Baseline Time (s)	10.036
Baseline Value 	-0.004379
subtract baseline	10,4
Abs	0.006723
Peak Time (s)	81.038
Peak Height 	0.006723
calc peak height	80,83
Baseline Time (s)	8.536
Baseline Value 	0.002112
subtract baseline	10,3
PK_550	-0.005654
Peak Time (s)	80.04
Peak Height 	-0.005654
calc peak height	80,83
Baseline Time (s)	10.537
Baseline Value 	4.2448E-4
subtract baseline	10,2
PK_880	-0.026355
Peak Time (s)	80.04
Peak Height 	-0.02636
calc peak height	80,83
Baseline Time (s)	11.042
Baseline Value 	0.003701
subtract baseline	10,1


Time (s)	A880-A510	A880-A775	A880-A975	A880	I510	I775	I975	I880	
0.038500	-0.002283	-0.001330	0.000910	0.000300	4434.731058	18758.790652	3214.929813	10113.001612
0.536000	-0.004507	-0.000870	-0.003408	0.002869	4418.148939	18682.396836	3209.359266	10070.489742
1.069000	-0.006838	-0.001378	-0.014718	0.005261	4401.988818	18577.977922	3198.535144	10031.141365
1.539500	0.002481	0.000295	-0.005252	0.001002	4448.929614	18792.331805	3209.377977	10101.366665
2.039500	-0.002992	0.001235	0.000985	0.000863	4430.311768	18831.622603	3214.532589	10103.660643
2.537000	-0.002122	0.000454	0.003008	0.002638	4427.178630	18738.688091	3214.734472	10074.306916
3.040500	-0.003776	-0.000209	-0.007582	0.003217	4419.470665	18693.724828	3205.749142	10064.758089
3.534500	-0.002751	-0.000804	-0.004351	0.002655	4424.942750	18692.500888	3208.774807	10074.023285
4.035500	-0.004576	-0.000085	-0.007858	0.003296	4416.445781	18695.352593	3205.467697	10063.455178
4.535500	-0.006013	-0.000682	-0.004163	0.002016	4415.904462	18720.048058	3209.437623	10084.570664
5.038500	-0.004208	-0.001356	-0.010835	0.000906	4425.953696	18735.833639	3205.001875	10102.948365
5.536500	0.004387	0.000897	-0.005379	-0.000146	4459.691417	18856.136243	3210.197817	10120.407251
6.036500	-0.000424	-0.000536	-0.004373	-0.000828	4445.158415	18828.712523	3211.559220	10131.750027
6.537000	-0.006004	-0.000456	-0.000083	0.002191	4415.334831	18721.914191	3212.587037	10081.691468
7.040000	-0.003389	0.001018	-0.005416	0.002674	4422.672135	18757.814364	3207.907318	10073.707859
7.534000	-0.000174	-0.000602	-0.011312	-0.000385	4444.483002	18810.174591	3205.648011	10124.385594
8.040500	-0.003673	0.000886	0.004731	0.000166	4430.368292	18844.322248	3218.169376	10115.222765
8.535500	0.001791	0.000002	0.000000	-0.000503	4451.792883	18836.464990	3214.843039	10126.341347
9.038500	-0.002126	-0.000291	-0.003751	-0.001256	4440.703156	18853.264158	3212.408065	10138.873869
9.535500	0.005488	0.001172	-0.006946	-0.002924	4473.465407	18967.998924	3211.173047	10166.698449
10.036000	0.001570	-0.000557	0.007107	0.000000	4449.246224	18797.788314	3220.266857	10117.981188
10.536500	-0.002157	0.000000	0.000181	0.000599	4434.128077	18796.245237	3214.092915	10108.037495
11.041500	0.000000	0.000439	0.003682	0.000960	4440.388721	18799.105016	3216.656217	10102.060054
11.536500	-0.001858	-0.000165	-0.003548	0.000016	4437.200246	18811.472800	3211.543142	10117.717261
12.034500	-0.002611	0.002512	-0.001815	0.002389	4426.348914	18822.552536	3211.027056	10078.417429
12.534500	0.000641	0.001540	0.016826	0.002424	4437.517892	18785.890475	3226.356056	10077.840726
13.038000	-0.002547	-0.000503	-0.011363	0.000814	4432.026390	18770.126977	3204.656859	10104.473241
13.535000	-0.000331	0.001181	-0.000438	0.001704	4436.640398	18799.041625	3212.693952	10089.743059
14.035500	-0.001919	0.000341	0.000526	0.001202	4432.858280	18786.696071	3213.882769	10098.041431
14.536000	-0.004275	-0.000690	0.011425	-0.000069	4429.094641	18795.446159	3223.915746	10119.122028
15.035500	-0.000980	0.000510	-0.003145	0.000948	4437.012493	18802.130893	3211.116843	10102.260031
15.539000	0.000711	0.001566	0.015245	0.002595	4437.163090	18780.606581	3224.883831	10075.009777
16.039500	-0.000800	0.001174	-0.005591	0.001763	4434.801119	18796.591602	3208.495617	10088.755873
16.537000	-0.002962	0.001177	0.003422	0.001559	4428.004690	18804.117693	3215.952897	10092.129865
17.040000	0.003129	0.000563	-0.003390	0.001070	4450.964798	18799.612790	3210.820215	10100.231842
17.535000	-0.001488	0.001417	0.007154	0.001832	4432.169724	18802.957144	3218.793582	10087.628573
18.035000	-0.003980	0.000416	-0.000238	0.001017	4426.355881	18796.172122	3213.413263	10101.112575
18.535500	0.002037	0.000417	-0.005218	0.001628	4445.174127	18773.999685	3208.902756	10090.990621
19.036000	-0.000087	0.002152	-0.003686	0.002576	4434.453234	18802.607318	3209.371057	10075.320720
19.535500	-0.000631	0.001059	0.006965	0.001276	4437.085766	18810.167230	3219.095770	10096.825122
20.039000	0.001001	0.000677	0.008546	-0.002253	4455.174151	18925.205202	3223.335728	10155.492783
20.536500	-0.000706	-0.000368	0.000565	-0.001159	4445.328677	18846.902443	3215.839372	10137.250207
21.042500	-0.001531	0.000351	-0.000576	-0.000090	4438.711798	18834.153157	3214.038295	10119.483113
21.537000	0.002683	0.000011	0.011813	-0.001226	4457.481822	18863.169448	3225.210135	10138.362468
22.040000	-0.001982	0.000889	0.000319	-0.000128	4437.268281	18855.154827	3214.797285	10120.099438
22.535000	0.001267	0.000736	-0.000069	-0.000083	4448.475353	18847.950473	3214.444609	10119.361078
23.042500	-0.001860	-0.000092	0.000453	0.000750	4434.639702	18787.407222	3214.191791	10105.541616
23.536000	-0.001153	-0.001040	0.001960	0.001723	4433.710823	18717.668183	3214.625681	10089.416413
24.038500	0.000642	0.001531	0.003529	0.001486	4440.794315	18819.731465	3216.100832	10093.351772
24.599000	-0.002749	0.000737	0.001524	-0.000325	4435.284729	18856.808282	3215.942224	10123.382857
25.042000	-0.000672	0.002082	0.014115	0.002225	4433.638934	18812.834363	3224.247834	10081.123365
25.536500	0.001566	0.001951	0.010150	0.000554	4447.290094	18869.059847	3222.333680	10108.794774
26.040000	0.000132	0.001281	-0.000239	0.000160	4443.646171	18858.962020	3214.108390	10115.321428
26.537500	-0.001219	0.000783	0.006806	-0.001546	4444.889189	18903.159951	3221.299253	10143.705840
27.035000	-0.006377	0.000471	0.002921	0.002324	4413.596247	18750.661114	3214.919227	10079.484421
27.535500	-0.001667	0.000962	-0.011887	0.001667	4432.121847	18792.410962	3203.568950	10090.357965
28.035000	-0.001643	0.000728	0.009074	0.002525	4429.226957	18752.702443	3219.805769	10076.167733
28.536000	0.000977	0.002273	-0.002150	0.003876	4433.630238	18759.754966	3209.560770	10053.895131
29.039000	-0.001936	0.000869	0.008498	0.002508	4428.272385	18758.445276	3219.343854	10076.454519
29.536000	-0.000187	-0.000153	-0.003431	0.001574	4437.593290	18755.256252	3210.381523	10091.886484
30.036500	-0.003409	0.001160	0.014175	0.001772	4425.719599	18795.764929	3224.677214	10088.609681
30.536500	-0.000187	0.000527	0.000395	0.002211	4435.373121	18756.809675	3212.957288	10081.348729
31.037000	-0.001996	0.001113	0.002693	0.002131	4429.368561	18781.027360	3214.890825	10082.678563
31.535000	-0.002588	0.000551	0.006557	0.001858	4428.265517	18770.530434	3218.280130	10087.196643
32.035000	0.000092	0.000517	-0.005462	0.002652	4434.810655	18740.466900	3207.888091	10074.074901
32.535000	-0.001474	0.000089	0.005147	0.001641	4432.882490	18761.625145	3217.299427	10090.780479
33.035500	0.000165	0.000831	-0.000193	0.002611	4435.209035	18753.345258	3212.157502	10074.752198
33.536000	0.000668	-0.000072	0.002488	0.002044	4438.937249	18741.149687	3214.795254	10084.116057
34.039000	0.001950	0.000894	0.000442	0.002986	4440.120631	18742.006902	3212.367871	10068.560431
34.539000	-0.000026	-0.001514	0.013340	0.000569	4441.665831	18742.355354	3224.985564	10108.544656
35.039500	-0.000870	-0.000212	-0.007848	0.001433	4435.706035	18758.240050	3206.956826	10094.218185
35.537000	-0.001753	-0.000080	0.000759	0.001576	4432.137905	18757.813338	3213.768642	10091.850236
36.039500	0.000198	-0.000821	0.003553	0.000685	4442.041730	18763.301396	3216.776576	10106.618713
36.534000	0.001761	0.002414	0.011527	-0.000287	4450.927692	18916.809372	3224.184418	10122.752248
37.040500	0.002284	0.001453	-0.009370	-0.001267	4456.219980	18917.489558	3207.897335	10139.052788
37.535500	0.000092	0.001873	-0.000194	-0.000021	4444.137736	18887.227097	3214.291872	10118.322544
38.038500	0.002628	0.001303	0.004021	-0.000686	4455.387052	18890.722881	3218.286516	10129.385837
38.536000	-0.000318	0.002291	0.011459	0.000653	4440.349244	18877.835129	3223.340909	10107.137453
39.036500	-0.002049	-0.001240	0.011026	-0.000563	4438.552110	18793.436818	3223.996065	10127.343603
39.539000	-0.001313	0.000876	0.014662	-0.000610	4441.286967	18872.318452	3227.088898	10128.125758
40.041500	0.000587	0.001933	0.003188	0.001144	4441.796072	18846.820978	3216.101211	10099.006087
40.534500	-0.001866	0.000402	0.001863	0.002063	4430.056376	18757.643269	3214.270302	10083.794917
41.040000	-0.005792	-0.000371	-0.004265	0.002156	4416.184113	18726.256770	3209.244157	10082.271752
41.537500	-0.000545	0.000722	0.007287	0.000011	4441.800518	18843.990239	3220.407356	10117.804705
42.035000	-0.004297	0.000837	0.003935	-0.000579	4430.789795	18869.765467	3218.128132	10127.608583
42.535500	0.000411	0.000682	-0.001513	0.000030	4445.077188	18841.855159	3213.179380	10117.486123
43.036000	0.001240	0.002860	0.001763	0.002126	4440.644113	18844.828118	3214.137016	10082.753404
43.536000	0.000999	0.000619	0.005215	-0.002480	4455.967206	18931.414518	3220.754695	10159.289893
44.041500	0.005646	0.001068	0.006034	-0.010384	4500.886554	19240.930041	3228.055554	10292.502553
44.536500	-0.027471	-0.017163	0.001082	0.159913	3911.146036	13518.936603	3106.126499	7896.347843
45.039500	-0.043702	-0.022960	-0.009123	0.172133	3848.544786	13091.142539	3093.781919	7757.871281
45.539500	-0.029099	-0.022351	-0.006401	0.001497	4340.361013	17972.478760	3208.060969	10093.165963
46.037500	-0.029052	-0.017481	0.000829	-0.170346	5028.106161	25494.740398	3385.259875	13582.014612
46.535000	-0.018430	-0.016158	0.003997	-0.196617	5214.662100	26970.845210	3422.040347	14247.759606
47.038000	-0.017264	-0.010791	-0.000989	-0.153613	5004.283728	24980.343838	3363.330032	13178.475285
47.535500	-0.016844	-0.009373	-0.010265	-0.114350	4826.298920	23145.396128	3310.194619	12290.492086
48.036000	-0.016867	-0.006440	-0.010143	-0.110573	4809.724311	23106.253024	3306.428745	12209.225329
48.539000	-0.015846	-0.005923	-0.011452	-0.117150	4843.009501	23437.517166	3311.866920	12351.192777
49.038500	-0.025352	-0.005970	-0.022016	-0.099991	4728.722069	22643.352849	3283.974330	11985.261188
49.536500	-0.027111	-0.008258	-0.013164	-0.091588	4686.986206	22165.489387	3284.411818	11811.269240
50.036000	-0.026696	-0.007020	-0.008658	-0.079861	4641.657855	21707.998406	3277.428174	11574.026518
50.539500	-0.022496	-0.007603	-0.008064	-0.064697	4598.836686	21041.539589	3263.684769	11276.579734
51.038000	-0.020120	-0.003643	-0.009282	-0.049804	4551.250368	20592.815321	3249.012733	10994.368459
51.535500	-0.021169	-0.005826	-0.001892	-0.037514	4502.032386	20015.941700	3244.658872	10768.684125
52.071000	-0.025238	-0.003470	-0.017073	-0.027351	4451.157837	19712.657063	3222.901682	10586.815716
52.535500	-0.024810	-0.004801	-0.008561	-0.022267	4434.869204	19467.479642	3225.770168	10497.410436
53.038500	-0.022467	-0.005251	-0.014231	-0.022556	4444.055174	19461.375045	3221.276186	10502.469488
53.536000	-0.021496	-0.003571	-0.010399	-0.021828	4444.906926	19497.547699	3223.862176	10489.748570
54.036000	-0.019509	-0.004736	-0.008044	-0.022000	4452.485887	19459.834110	3225.979866	10492.744179
54.537500	-0.019690	-0.001423	-0.016169	-0.019017	4441.390626	19472.372677	3216.759517	10440.816622
55.037000	-0.018508	-0.001541	0.004101	-0.018289	4442.977872	19440.280778	3233.141276	10428.199093
55.538500	-0.022000	-0.002768	-0.014443	-0.019761	4435.930695	19449.556052	3218.789606	10453.738960
56.038000	-0.021562	-0.002619	-0.020358	-0.019082	4435.089764	19429.514648	3213.395912	10441.950902
56.535500	-0.022554	-0.002196	-0.005755	-0.017297	4425.459315	19378.020150	3223.956542	10411.038487
57.036000	-0.025952	-0.002734	-0.019504	-0.013862	4402.020242	19228.827141	3209.869637	10351.910651
57.536000	-0.027507	-0.004394	-0.006226	-0.012791	4393.109230	19127.028173	3219.818920	10333.563692
58.042000	-0.028732	-0.003077	-0.006213	-0.009774	4378.829446	19064.008238	3217.344734	10282.148108
58.536500	-0.026564	-0.005255	-0.017288	-0.007276	4377.724772	18891.892109	3206.375448	10239.840248
59.037000	-0.024758	-0.005774	-0.012740	-0.005856	4379.017989	18821.055291	3208.872633	10215.898326
59.533500	-0.029967	-0.006517	-0.011836	-0.004449	4357.016010	18742.877867	3208.469848	10192.242258
60.040000	-0.030548	-0.005693	-0.014326	-0.001545	4345.562389	18667.633046	3204.178420	10143.678497
60.537500	-0.032593	-0.008374	-0.027285	-0.000564	4335.691767	18536.003511	3193.333264	10127.346131
61.035000	-0.026834	-0.006985	-0.000822	0.000609	4350.680364	18543.728383	3213.270062	10107.867450
61.537500	-0.026250	-0.004607	-0.015500	0.003462	4343.245479	18526.752920	3199.326737	10060.714772
62.038500	-0.026801	-0.005107	-0.010290	0.004021	4339.623148	18488.917107	3202.971339	10051.510853
62.535000	-0.029302	-0.005477	-0.014752	0.004641	4329.486114	18453.625234	3198.991567	10041.320075
63.039000	-0.031022	-0.005901	-0.000559	0.004624	4323.982952	18439.132002	3210.238011	10041.591463
63.536500	-0.027720	-0.005375	0.000567	0.005074	4333.211413	18441.856192	3210.782655	10034.209829
64.039500	-0.022700	-0.004211	-0.007258	0.005245	4349.031505	18477.206549	3204.398860	10031.404810
64.540000	-0.027995	-0.005296	-0.000585	0.005352	4331.415959	18434.756354	3209.631691	10029.640792
65.037000	-0.025138	-0.004507	-0.011259	0.004052	4344.952492	18509.243626	3202.184394	10051.006701
65.534500	-0.027407	-0.004493	-0.001082	0.003434	4339.558670	18531.798482	3210.775356	10061.169380
66.035000	-0.025650	-0.005390	-0.016434	0.002441	4348.554961	18535.267495	3199.394576	10077.560586
66.535000	-0.026846	-0.004334	-0.016984	0.003253	4341.981215	18543.994822	3198.334535	10064.161139
67.036000	-0.028164	-0.004994	0.003962	0.002533	4340.029779	18546.148707	3215.598500	10076.032639
67.538000	-0.026541	-0.005163	-0.008029	0.002053	4346.901803	18557.269075	3206.318866	10083.960387
68.039000	-0.024279	-0.004717	-0.026993	0.002078	4354.251014	18572.358081	3191.538934	10083.551834
68.537000	-0.027906	-0.004101	-0.000698	0.003533	4337.612569	18542.302055	3211.004437	10059.539311
69.037000	-0.024176	-0.002661	-0.003676	0.003217	4350.845487	18605.318255	3208.865489	10064.760526
69.537000	-0.022281	-0.002099	-0.010520	0.003469	4356.255465	18616.485223	3203.225363	10060.606570
70.037500	-0.024299	-0.003323	0.001897	0.002882	4351.542640	18593.576606	3213.631895	10070.280532
70.534500	-0.025441	-0.003292	-0.003003	0.004531	4342.398717	18535.548527	3208.352639	10043.131470
71.038000	-0.026287	-0.004040	0.000818	0.002376	4346.678724	18585.995820	3213.167502	10078.637591
71.535500	-0.029571	-0.004039	-0.010619	0.003182	4333.340270	18557.088569	3203.373142	10065.325771
72.039000	-0.028662	-0.003920	-0.010746	0.004133	4333.205336	18527.323078	3202.524073	10049.669947
72.536000	-0.029370	-0.002983	0.001797	0.005814	4325.478200	18500.727879	3211.178073	10022.078612
73.036000	-0.029490	-0.003278	-0.016439	0.005168	4327.174491	18513.265897	3197.271481	10032.659833
73.536500	-0.031379	-0.003154	-0.019084	0.005932	4318.627915	18490.431803	3194.641321	10020.139944
74.040000	-0.030870	-0.003801	-0.012828	0.006199	4319.405703	18457.839638	3199.276920	10015.772479
74.534500	-0.030844	-0.007138	-0.018230	0.006882	4317.296160	18315.331986	3194.567387	10004.585555
75.034500	-0.028283	-0.005612	-0.013958	0.006763	4325.918478	18373.476556	3197.958948	10006.533755
75.535000	-0.029493	-0.004144	-0.022625	0.007901	4318.360270	18385.159282	3190.432760	9987.954787
76.035500	-0.032123	-0.005374	-0.008082	0.008159	4309.118863	18332.532360	3201.453962	9983.746506
76.535500	-0.034616	-0.004918	-0.012529	0.010236	4294.620398	18275.398154	3196.375677	9949.981275
77.038500	-0.027610	-0.005238	-0.009614	0.010123	4317.272839	18268.088274	3198.723273	9951.809663
77.536000	-0.032027	-0.006610	-0.016156	0.010154	4303.075765	18218.805249	3193.648361	9951.307198
78.036500	-0.028958	-0.004648	-0.006108	0.012168	4306.431044	18217.015306	3199.861981	9918.715047
78.536500	-0.036370	-0.007111	-0.024022	0.014998	4274.208383	18032.573308	3184.049275	9873.153876
79.037500	-0.027789	-0.005681	-0.006114	0.012722	4308.390484	18161.453933	3199.424855	9909.768799
79.534500	-0.031686	-0.005683	-0.008456	0.013286	4294.241484	18141.716780	3197.167648	9900.684989
80.040000	-0.026355	-0.005654	-0.003096	0.015258	4304.878482	18074.055802	3199.800442	9868.981270
80.535000	-0.034274	-0.009001	-0.022378	0.017221	4273.814845	17890.821776	3183.618690	9837.586180
81.038500	-0.032437	-0.006996	0.006723	0.015937	4283.549495	18004.050837	3207.010016	9858.107306
81.538500	-0.035003	-0.008293	-0.007297	0.015453	4277.048134	17975.999354	3196.387020	9865.862542
82.038000	-0.032253	-0.006648	-0.021994	0.017887	4278.030423	17948.780219	3183.408544	9826.956498
82.536500	-0.037542	-0.008221	-0.021187	0.020882	4252.447715	17792.307012	3181.787936	9779.393794
83.039500	-0.030734	-0.005872	-0.012652	0.019695	4277.132820	17913.293465	3189.053627	9798.211178
83.606000	-0.032047	-0.007902	-0.011957	0.019123	4274.824259	17863.271914	3190.012692	9807.293934
84.037000	-0.030879	-0.007513	-0.019907	0.019772	4276.437841	17854.386566	3183.558734	9796.983199
84.562500	-0.032987	-0.007702	-0.008990	0.026334	4249.710487	17625.169099	3186.812050	9693.649895
85.035000	-0.029949	-0.006850	-0.026530	0.022008	4272.377997	17800.646208	3177.042633	9761.593369
85.539000	-0.026265	-0.008345	-0.005489	0.020984	4287.077210	17784.597338	3193.523114	9777.786645
86.041500	-0.026637	-0.005836	-0.016733	0.023502	4278.035216	17784.297153	3183.146481	9738.046885
86.564500	-0.032274	-0.008559	-0.011496	0.027327	4248.854683	17562.950219	3184.196539	9678.147152
87.036500	-0.033121	-0.008170	-0.005620	0.022845	4259.988927	17727.278634	3192.001159	9748.399825
