sample name	sample
index	981
start time	 04-14-2021  03:18:06 PM


Wavelength (nm)	Absorbance
494.344910	-0.067777
494.563924	-0.067777
494.782919	-0.067777
495.001897	-0.071399
495.220856	-0.028350
495.439797	-0.026745
495.658719	-0.015940
495.877624	0.001845
496.096510	0.018360
496.315378	0.010955
496.534227	-0.019319
496.753059	-0.009457
496.971872	0.000000
497.190667	0.035399
497.409444	0.039213
497.628203	0.041033
497.846943	0.040687
498.065665	0.042049
498.284369	0.042270
498.503055	0.042985
498.721723	0.042204
498.940372	0.041787
499.159003	0.040621
499.377616	0.040911
499.596210	0.040800
499.814787	0.040212
500.033345	0.039501
500.251885	0.040615
500.470406	0.041099
500.688910	0.041642
500.907395	0.041982
501.125862	0.042566
501.344311	0.041911
501.562742	0.041044
501.781154	0.040536
501.999548	0.040642
502.217924	0.040345
502.436282	0.040178
502.654621	0.039646
502.872942	0.038977
503.091245	0.038146
503.309530	0.038236
503.527797	0.039095
503.746045	0.038965
503.964275	0.038582
504.182487	0.037160
504.400681	0.036644
504.618856	0.037171
504.837013	0.037428
505.055152	0.037702
505.273273	0.038284
505.491376	0.038320
505.709460	0.039304
505.927526	0.039648
506.145574	0.040794
506.363604	0.041078
506.581615	0.041172
506.799608	0.040907
507.017583	0.040775
507.235540	0.040248
507.453478	0.039848
507.671399	0.040626
507.889301	0.040663
508.107185	0.040563
508.325050	0.040752
508.542898	0.040362
508.760727	0.041410
508.978538	0.042128
509.196330	0.042192
509.414105	0.042548
509.631861	0.042026
509.849599	0.041706
510.067319	0.041555
510.285021	0.041703
510.502704	0.042091
510.720369	0.042029
510.938016	0.041590
511.155645	0.040784
511.373255	0.041039
511.590848	0.040959
511.808422	0.041426
512.025977	0.041127
512.243515	0.040339
512.461034	0.040610
512.678536	0.040048
512.896018	0.040585
513.113483	0.041647
513.330930	0.040841
513.548358	0.040429
513.765768	0.040771
513.983160	0.040926
514.200533	0.041156
514.417889	0.041556
514.635226	0.041915
514.852545	0.041897
515.069845	0.042448
515.287128	0.043416
515.504392	0.043605
515.721638	0.042479
515.938866	0.042502
516.156075	0.043077
516.373267	0.041993
516.590440	0.042022
516.807594	0.042588
517.024731	0.042426
517.241850	0.041666
517.458950	0.041870
517.676032	0.042657
517.893095	0.043135
518.110141	0.043089
518.327168	0.044276
518.544177	0.044563
518.761168	0.043521
518.978141	0.042938
519.195095	0.042923
519.412031	0.043001
519.628949	0.043183
519.845849	0.043728
520.062731	0.044222
520.279594	0.043890
520.496439	0.044239
520.713266	0.044810
520.930074	0.045653
521.146865	0.046038
521.363637	0.046272
521.580391	0.046066
521.797127	0.045877
522.013844	0.044814
522.230543	0.044390
522.447224	0.044598
522.663887	0.044823
522.880532	0.044319
523.097158	0.044702
523.313766	0.044771
523.530356	0.045284
523.746928	0.044750
523.963481	0.045475
524.180017	0.045971
524.396534	0.045449
524.613032	0.045433
524.829513	0.045853
525.045975	0.045711
525.262420	0.045793
525.478845	0.045728
525.695253	0.046307
525.911643	0.047027
526.128014	0.046529
526.344367	0.047433
526.560702	0.047536
526.777018	0.047354
526.993316	0.047585
527.209597	0.048207
527.425858	0.048170
527.642102	0.048144
527.858328	0.048104
528.074535	0.049029
528.290724	0.048492
528.506894	0.048681
528.723047	0.049239
528.939181	0.049297
529.155297	0.048629
529.371395	0.048836
529.587475	0.048908
529.803536	0.048903
530.019579	0.048286
530.235604	0.048565
530.451611	0.048452
530.667600	0.048601
530.883570	0.049291
531.099522	0.049572
531.315456	0.049786
531.531372	0.049851
531.747269	0.049388
531.963148	0.050018
532.179009	0.049952
532.394852	0.050381
532.610676	0.050085
532.826482	0.050272
533.042271	0.050858
533.258040	0.050823
533.473792	0.051604
533.689525	0.052101
533.905240	0.052439
534.120937	0.052868
534.336616	0.053331
534.552277	0.053698
534.767919	0.053601
534.983543	0.053936
535.199149	0.053864
535.414736	0.053688
535.630306	0.054184
535.845857	0.054482
536.061390	0.054785
536.276904	0.054389
536.492401	0.054917
536.707879	0.055053
536.923339	0.054990
537.138781	0.055485
537.354204	0.055710
537.569610	0.055729
537.784997	0.055751
538.000366	0.055543
538.215716	0.056085
538.431049	0.056410
538.646363	0.056139
538.861659	0.055633
539.076937	0.055981
539.292196	0.056394
539.507438	0.056078
539.722661	0.056153
539.937866	0.056065
540.153052	0.056192
540.368221	0.056060
540.583371	0.056846
540.798503	0.057279
541.013617	0.057268
541.228712	0.056971
541.443789	0.057620
541.658848	0.057687
541.873889	0.057722
542.088912	0.057998
542.303916	0.058202
542.518902	0.057698
542.733870	0.058121
542.948820	0.058395
543.163752	0.058575
543.378665	0.058569
543.593560	0.058713
543.808437	0.059270
544.023295	0.059176
544.238136	0.059084
544.452958	0.059447
544.667762	0.059397
544.882548	0.059292
545.097315	0.059384
545.312064	0.059415
545.526795	0.059771
545.741508	0.060199
545.956203	0.060701
546.170879	0.060921
546.385537	0.061323
546.600177	0.061406
546.814799	0.061648
547.029402	0.061638
547.243988	0.061545
547.458555	0.061677
547.673103	0.061319
547.887634	0.060993
548.102146	0.060827
548.316640	0.060658
548.531116	0.061157
548.745574	0.061425
548.960013	0.061820
549.174435	0.062461
549.388838	0.062471
549.603222	0.062737
549.817589	0.062867
550.031937	0.063361
550.246267	0.063478
550.460579	0.063315
550.674873	0.063421
550.889148	0.063309
551.103405	0.063435
551.317644	0.063220
551.531865	0.063460
551.746068	0.063501
551.960252	0.063517
552.174418	0.063570
552.388566	0.063421
552.602696	0.063398
552.816807	0.063637
553.030900	0.063552
553.244975	0.064090
553.459032	0.063834
553.673070	0.064270
553.887091	0.064288
554.101093	0.064397
554.315077	0.064577
554.529042	0.064868
554.742990	0.064877
554.956919	0.065009
555.170830	0.064848
555.384722	0.064902
555.598597	0.064799
555.812453	0.065313
556.026291	0.065280
556.240111	0.065421
556.453913	0.065026
556.667696	0.065414
556.881461	0.065529
557.095208	0.065877
557.308937	0.066601
557.522647	0.066575
557.736339	0.066043
557.950013	0.066557
558.163669	0.066635
558.377307	0.067233
558.590926	0.067081
558.804527	0.067041
559.018110	0.066938
559.231675	0.066748
559.445221	0.066619
559.658749	0.066857
559.872259	0.066820
560.085751	0.066679
560.299225	0.066552
560.512680	0.066919
560.726117	0.067145
560.939536	0.067077
561.152937	0.067180
561.366319	0.067467
561.579683	0.067710
561.793029	0.067504
562.006357	0.067733
562.219667	0.067569
562.432958	0.067245
562.646231	0.067375
562.859486	0.067544
563.072723	0.067095
563.285941	0.067288
563.499141	0.067288
563.712323	0.067532
563.925487	0.067617
564.138632	0.067692
564.351760	0.067913
564.564869	0.067766
564.777960	0.067749
564.991032	0.068241
565.204087	0.067874
565.417123	0.068048
565.630141	0.068088
565.843140	0.068773
566.056122	0.068848
566.269085	0.069034
566.482030	0.068920
566.694957	0.069013
566.907866	0.068928
567.120756	0.069554
567.333628	0.069647
567.546482	0.069860
567.759318	0.069191
567.972135	0.069615
568.184935	0.069322
568.397716	0.069949
568.610478	0.069740
568.823223	0.070030
569.035949	0.069867
569.248657	0.069758
569.461347	0.069694
569.674019	0.070216
569.886672	0.069917
570.099308	0.070000
570.311925	0.070202
570.524523	0.070588
570.737104	0.070414
570.949666	0.070458
571.162210	0.070752
571.374736	0.070768
571.587244	0.070622
571.799733	0.070796
572.012205	0.070911
572.224658	0.070420
572.437092	0.070593
572.649509	0.070900
572.861907	0.071096
573.074287	0.071092
573.286649	0.071070
573.498993	0.071220
573.711318	0.071627
573.923625	0.071696
574.135914	0.072011
574.348185	0.072247
574.560438	0.072147
574.772672	0.072370
574.984888	0.072304
575.197086	0.072362
575.409266	0.072311
575.621427	0.071854
575.833570	0.072217
576.045695	0.072281
576.257802	0.072140
576.469890	0.072289
576.681961	0.072566
576.894013	0.072900
577.106046	0.073561
577.318062	0.073716
577.530059	0.074060
577.742039	0.073916
577.954000	0.073801
578.165942	0.073952
578.377867	0.073909
578.589773	0.073530
578.801661	0.073104
579.013531	0.072808
579.225382	0.072731
579.437216	0.072722
579.649031	0.072874
579.860828	0.072906
580.072606	0.073037
580.284367	0.073236
580.496109	0.073530
580.707833	0.074022
580.919539	0.074023
581.131227	0.074217
581.342896	0.074396
581.554547	0.074323
581.766180	0.074605
581.977795	0.074504
582.189391	0.074457
582.400969	0.074039
582.612529	0.073829
582.824071	0.073785
583.035595	0.074006
583.247100	0.074080
583.458587	0.074200
583.670056	0.074312
583.881506	0.074404
584.092939	0.074516
584.304353	0.074862
584.515749	0.074956
584.727127	0.075232
584.938486	0.075229
585.149828	0.075134
585.361151	0.075113
585.572456	0.075024
585.783742	0.074901
585.995011	0.074933
586.206261	0.074800
586.417493	0.075126
586.628706	0.075086
586.839902	0.074976
587.051079	0.075176
587.262238	0.075430
587.473379	0.075683
587.684502	0.075626
587.895606	0.075544
588.106692	0.075846
588.317760	0.075616
588.528810	0.076053
588.739841	0.076623
588.950855	0.076555
589.161850	0.076855
589.372827	0.076747
589.583785	0.077056
589.794726	0.077573
590.005648	0.077600
590.216552	0.077711
590.427437	0.077946
590.638305	0.077781
590.849154	0.078223
591.059985	0.077924
591.270798	0.078015
591.481592	0.078326
591.692369	0.078002
591.903127	0.078084
592.113867	0.078042
592.324588	0.077696
592.535292	0.077710
592.745977	0.077849
592.956644	0.078090
593.167293	0.078387
593.377923	0.078132
593.588536	0.078525
593.799130	0.078849
594.009706	0.079241
594.220263	0.079435
594.430803	0.079495
594.641324	0.079392
594.851827	0.079508
595.062312	0.079437
595.272778	0.079706
595.483227	0.079791
595.693657	0.079686
595.904069	0.079385
596.114462	0.079297
596.324838	0.079255
596.535195	0.079030
596.745534	0.079093
596.955855	0.079130
597.166157	0.079226
597.376441	0.079356
597.586707	0.079430
597.796955	0.079878
598.007185	0.079970
598.217396	0.080125
598.427589	0.080160
598.637764	0.080026
598.847921	0.080259
599.058060	0.080391
599.268180	0.080238
599.478282	0.080411
599.688366	0.080139
599.898431	0.080256
600.108479	0.080332
600.318508	0.080725
600.528519	0.081081
600.738511	0.081115
600.948486	0.081096
601.158442	0.081446
601.368380	0.081686
601.578300	0.082109
601.788202	0.081964
601.998085	0.082250
602.207950	0.082372
602.417797	0.082209
602.627626	0.082049
602.837436	0.082012
603.047228	0.081931
603.257002	0.081862
603.466758	0.081644
603.676496	0.081769
603.886215	0.081632
604.095916	0.081546
604.305599	0.081729
604.515264	0.081725
604.724910	0.081988
604.934538	0.082271
605.144148	0.082337
605.353740	0.082629
605.563314	0.082962
605.772869	0.083203
605.982406	0.083377
606.191925	0.083496
606.401425	0.083806
606.610908	0.083948
606.820372	0.083907
607.029818	0.084062
607.239246	0.084230
607.448655	0.084452
607.658047	0.084338
607.867420	0.084517
608.076775	0.084602
608.286111	0.084776
608.495430	0.084981
608.704730	0.085132
608.914012	0.084895
609.123275	0.085223
609.332521	0.085223
609.541748	0.085154
609.750957	0.085344
609.960148	0.085487
610.169321	0.085331
610.378475	0.085408
610.587611	0.085240
610.796729	0.085575
611.005829	0.085330
611.214910	0.085552
611.423974	0.085925
611.633019	0.085752
611.842045	0.085723
612.051054	0.085939
612.260044	0.085850
612.469017	0.086071
612.677970	0.085862
612.886906	0.085927
613.095824	0.085895
613.304723	0.085798
613.513604	0.085931
613.722467	0.086153
613.931311	0.086159
614.140138	0.086305
614.348946	0.086155
614.557736	0.086248
614.766507	0.086389
614.975261	0.086326
615.183996	0.086755
615.392713	0.086827
615.601412	0.086842
615.810092	0.086873
616.018754	0.086752
616.227399	0.087025
616.436024	0.087402
616.644632	0.087674
616.853222	0.087888
617.061793	0.087609
617.270346	0.087699
617.478880	0.087667
617.687397	0.087831
617.895895	0.087863
618.104375	0.087956
618.312837	0.087893
618.521281	0.087731
618.729706	0.087658
618.938113	0.087782
619.146502	0.087841
619.354873	0.087799
619.563226	0.087902
619.771560	0.088137
619.979876	0.088330
620.188174	0.088439
620.396453	0.088373
620.604715	0.088537
620.812958	0.088795
621.021183	0.089023
621.229390	0.089223
621.437578	0.089230
621.645748	0.089363
621.853900	0.089345
622.062034	0.089434
622.270150	0.089729
622.478247	0.089886
622.686326	0.089963
622.894387	0.090033
623.102430	0.090198
623.310454	0.090306
623.518461	0.090402
623.726449	0.090461
623.934418	0.090754
624.142370	0.090771
624.350303	0.090711
624.558218	0.090887
624.766115	0.090730
624.973994	0.090905
625.181855	0.091036
625.389697	0.091138
625.597521	0.091203
625.805327	0.090908
626.013114	0.090868
626.220883	0.090939
626.428634	0.090989
626.636367	0.091366
626.844082	0.091318
627.051778	0.091525
627.259457	0.091533
627.467117	0.091484
627.674758	0.091637
627.882382	0.091841
628.089987	0.091992
628.297574	0.092126
628.505143	0.091881
628.712694	0.091646
628.920226	0.091500
629.127740	0.091369
629.335236	0.091249
629.542714	0.091524
629.750174	0.091591
629.957615	0.091594
630.165038	0.091330
630.372443	0.091468
630.579829	0.091915
630.787198	0.092141
630.994548	0.092216
631.201880	0.092652
631.409194	0.092646
631.616489	0.093050
631.823766	0.093310
632.031025	0.093673
632.238266	0.093992
632.445489	0.093975
632.652693	0.094009
632.859879	0.094315
633.067047	0.094370
633.274197	0.094522
633.481329	0.094139
633.688442	0.093967
633.895537	0.093695
634.102614	0.093623
634.309672	0.093807
634.516713	0.093689
634.723735	0.093668
634.930739	0.093701
635.137724	0.093524
635.344692	0.093673
635.551641	0.093985
635.758572	0.094159
635.965485	0.094380
636.172379	0.094283
636.379256	0.094434
636.586114	0.094557
636.792954	0.094568
636.999775	0.094758
637.206579	0.094814
637.413364	0.094602
637.620131	0.094669
637.826880	0.094598
638.033610	0.094688
638.240323	0.094759
638.447017	0.094802
638.653692	0.094933
638.860350	0.095088
639.066990	0.095408
639.273611	0.095469
639.480214	0.095550
639.686798	0.095686
639.893365	0.095824
640.099913	0.095951
640.306443	0.095976
640.512955	0.096158
640.719449	0.096103
640.925924	0.095955
641.132381	0.096160
641.338820	0.096308
641.545241	0.096134
641.751644	0.096096
641.958028	0.096081
642.164394	0.096384
642.370742	0.096229
642.577071	0.096268
642.783383	0.096454
642.989676	0.096455
643.195951	0.096612
643.402207	0.096876
643.608446	0.097005
643.814666	0.097001
644.020868	0.096928
644.227052	0.097095
644.433218	0.097316
644.639365	0.097417
644.845494	0.097605
645.051605	0.097509
645.257698	0.097534
645.463772	0.097687
645.669828	0.097696
645.875866	0.097511
646.081886	0.097613
646.287888	0.097576
646.493871	0.097534
646.699836	0.097659
646.905783	0.097757
647.111712	0.097794
647.317622	0.097799
647.523514	0.098330
647.729388	0.098583
647.935244	0.098609
648.141082	0.098609
648.346901	0.098588
648.552702	0.098424
648.758485	0.098609
648.964250	0.098617
649.169996	0.098794
649.375724	0.098772
649.581434	0.099055
649.787126	0.099076
649.992800	0.099418
650.198455	0.099664
650.404092	0.100111
650.609711	0.100278
650.815311	0.100522
651.020894	0.100538
651.226458	0.100506
651.432004	0.100618
651.637532	0.100994
651.843041	0.101204
652.048532	0.101270
652.254006	0.101277
652.459460	0.101486
652.664897	0.101679
652.870315	0.101932
653.075716	0.102241
653.281097	0.102440
653.486461	0.102450
653.691807	0.102630
653.897134	0.102881
654.102443	0.103072
654.307734	0.103096
654.513006	0.103172
654.718261	0.103245
654.923497	0.103292
655.128715	0.103171
655.333915	0.103127
655.539096	0.103047
655.744259	0.103071
655.949404	0.103045
656.154531	0.103092
656.359640	0.103134
656.564730	0.103219
656.769802	0.103529
656.974856	0.103711
657.179892	0.104138
657.384909	0.104200
657.589908	0.104304
657.794889	0.104517
657.999852	0.104685
658.204797	0.104799
658.409723	0.104775
658.614631	0.104441
658.819521	0.104418
659.024393	0.104440
659.229246	0.104517
659.434081	0.104539
659.638898	0.104663
659.843697	0.104687
660.048478	0.104842
660.253240	0.105005
660.457984	0.105327
660.662710	0.105548
660.867417	0.105472
661.072107	0.105453
661.276778	0.105736
661.481431	0.105755
661.686066	0.105765
661.890682	0.105881
662.095281	0.106228
662.299861	0.106361
662.504422	0.106542
662.708966	0.106857
662.913491	0.107037
663.117999	0.107199
663.322488	0.107276
663.526958	0.107368
663.731411	0.107403
663.935845	0.107349
664.140261	0.107377
664.344659	0.107273
664.549038	0.107256
664.753400	0.107433
664.957743	0.107488
665.162068	0.107700
665.366375	0.108088
665.570663	0.108234
665.774933	0.108193
665.979185	0.108244
666.183419	0.108523
666.387635	0.108591
666.591832	0.108626
666.796011	0.108576
667.000172	0.108731
667.204315	0.108682
667.408439	0.108811
667.612545	0.109147
667.816634	0.109253
668.020703	0.109502
668.224755	0.109671
668.428788	0.109825
668.632803	0.110231
668.836800	0.110139
669.040779	0.110314
669.244739	0.110425
669.448681	0.110428
669.652605	0.110627
669.856511	0.110407
670.060399	0.110534
670.264268	0.110525
670.468119	0.110285
670.671952	0.110408
670.875767	0.110359
671.079563	0.110580
671.283341	0.110778
671.487101	0.111125
671.690843	0.111507
671.894567	0.111617
672.098272	0.111956
672.301959	0.112221
672.505628	0.112414
672.709278	0.112627
672.912911	0.112832
673.116525	0.113027
673.320121	0.113039
673.523699	0.112988
673.727258	0.112745
673.930799	0.112882
674.134322	0.112995
674.337827	0.113038
674.541314	0.113087
674.744782	0.112801
674.948232	0.112743
675.151664	0.112452
675.355078	0.112528
675.558474	0.112922
675.761851	0.112669
675.965210	0.112691
676.168551	0.112671
676.371873	0.112671
676.575178	0.112764
676.778464	0.112872
676.981732	0.113219
677.184981	0.113422
677.388213	0.113683
677.591426	0.113893
677.794621	0.114160
677.997798	0.114399
678.200956	0.114662
678.404097	0.114912
678.607219	0.115081
678.810323	0.115214
679.013408	0.115296
679.216476	0.115370
679.419525	0.115618
679.622556	0.115779
679.825569	0.115976
680.028563	0.116181
680.231540	0.116430
680.434498	0.116586
680.637438	0.116667
680.840359	0.116826
681.043263	0.116922
681.246148	0.117098
681.449015	0.117203
681.651864	0.117147
681.854694	0.117365
682.057506	0.117449
682.260301	0.117565
682.463076	0.117878
682.665834	0.118059
682.868573	0.118035
683.071295	0.118206
683.273998	0.118125
683.476682	0.118471
683.679349	0.118465
683.881997	0.118489
684.084627	0.118654
684.287239	0.118503
684.489833	0.118592
684.692408	0.118899
684.894965	0.119011
685.097504	0.119340
685.300025	0.119303
685.502527	0.119468
685.705012	0.119589
685.907478	0.119437
686.109925	0.119591
686.312355	0.119708
686.514766	0.119825
686.717159	0.119800
686.919534	0.119794
687.121891	0.120022
687.324230	0.120084
687.526550	0.120118
687.728852	0.120101
687.931136	0.120124
688.133401	0.119921
688.335649	0.119640
688.537878	0.119810
688.740089	0.119749
688.942281	0.119621
689.144456	0.119426
689.346612	0.119417
689.548750	0.119676
689.750870	0.119720
689.952971	0.119866
690.155055	0.120189
690.357120	0.120265
690.559167	0.120321
690.761195	0.120474
690.963206	0.120655
691.165198	0.120795
691.367172	0.120882
691.569128	0.121077
691.771065	0.121552
691.972984	0.121651
692.174885	0.121591
692.376768	0.121752
692.578633	0.121822
692.780479	0.122026
692.982308	0.122220
693.184118	0.122421
693.385909	0.122692
693.587683	0.122621
693.789438	0.122572
693.991175	0.122776
694.192894	0.122969
694.394595	0.123190
694.596277	0.123351
694.797941	0.123618
694.999587	0.123627
695.201215	0.123455
695.402824	0.123378
695.604416	0.123536
695.805989	0.123556
696.007543	0.123447
696.209080	0.123415
696.410598	0.123439
696.612099	0.123424
696.813580	0.123223
697.015044	0.123219
697.216490	0.123300
697.417917	0.123370
697.619326	0.123304
697.820717	0.123307
698.022089	0.123432
698.223444	0.123353
698.424780	0.123359
698.626098	0.123598
698.827397	0.123768
699.028679	0.123717
699.229942	0.123585
699.431187	0.123490
699.632414	0.123770
699.833622	0.123549
700.034813	0.123568
700.235985	0.123471
700.437139	0.123554
700.638274	0.123687
700.839392	0.123982
701.040491	0.124300
701.241572	0.124588
701.442635	0.124410
701.643679	0.124665
701.844706	0.124843
702.045714	0.125120
702.246704	0.125126
702.447675	0.125110
702.648629	0.125063
702.849564	0.125156
703.050481	0.125280
703.251380	0.125394
703.452260	0.125413
703.653122	0.125409
703.853966	0.125281
704.054792	0.125285
704.255600	0.125306
704.456389	0.124987
704.657160	0.124807
704.857913	0.124720
705.058648	0.124714
705.259365	0.124640
705.460063	0.124458
705.660743	0.124235
705.861405	0.124346
706.062048	0.124236
706.262674	0.124503
706.463281	0.124597
706.663870	0.124623
706.864441	0.124570
707.064993	0.124694
707.265527	0.124770
707.466043	0.124956
707.666541	0.125074
707.867021	0.125387
708.067482	0.125348
708.267925	0.125504
708.468350	0.125672
708.668757	0.125896
708.869145	0.125917
709.069516	0.126349
709.269868	0.126591
709.470201	0.126387
709.670517	0.126438
709.870814	0.126602
710.071093	0.126612
710.271354	0.126513
710.471597	0.126451
710.671821	0.126429
710.872028	0.126256
711.072216	0.126065
711.272385	0.126200
711.472537	0.126101
711.672670	0.125944
711.872785	0.125839
712.072882	0.125859
712.272961	0.125567
712.473021	0.125497
712.673063	0.125380
712.873087	0.125229
713.073093	0.125033
713.273081	0.124707
713.473050	0.124575
713.673001	0.124329
713.872934	0.124199
714.072849	0.124229
714.272745	0.124217
714.472623	0.124089
714.672483	0.124136
714.872325	0.124009
715.072148	0.123999
715.271954	0.124097
715.471741	0.124034
715.671509	0.123910
715.871260	0.124147
716.070992	0.124093
716.270707	0.124270
716.470403	0.124339
716.670080	0.124489
716.869740	0.124644
717.069381	0.124711
717.269004	0.124662
717.468609	0.124637
717.668195	0.124433
717.867764	0.124423
718.067314	0.124230
718.266846	0.124365
718.466360	0.124459
718.665855	0.124431
718.865332	0.124352
719.064791	0.124334
719.264232	0.124474
719.463655	0.124391
719.663059	0.124310
719.862445	0.124145
720.061813	0.123904
720.261163	0.123616
720.460494	0.123555
720.659807	0.123527
720.859102	0.123627
721.058379	0.123466
721.257638	0.123614
721.456878	0.123606
721.656100	0.123852
721.855304	0.123892
722.054490	0.124053
722.253657	0.124037
722.452806	0.123933
722.651937	0.124000
722.851050	0.124041
723.050145	0.123960
723.249221	0.123902
723.448279	0.123820
723.647319	0.123779
723.846340	0.123602
724.045344	0.123465
724.244329	0.123709
724.443296	0.123592
724.642245	0.123445
724.841175	0.123414
725.040088	0.123490
725.238982	0.123375
725.437857	0.123423
725.636715	0.123415
725.835554	0.123511
726.034376	0.123350
726.233179	0.123175
726.431963	0.123330
726.630730	0.123142
726.829478	0.123002
727.028208	0.122823
727.226920	0.122615
727.425614	0.122775
727.624289	0.122586
727.822946	0.122292
728.021585	0.122305
728.220206	0.122045
728.418808	0.122129
728.617392	0.122072
728.815958	0.122038
729.014506	0.121723
729.213036	0.121353
729.411547	0.121175
729.610040	0.121157
729.808515	0.121009
730.006972	0.121013
730.205410	0.120758
730.403831	0.120704
730.602233	0.120451
730.800616	0.120666
730.998982	0.120504
731.197329	0.120526
731.395658	0.120282
731.593969	0.120237
731.792262	0.119962
731.990536	0.119867
732.188793	0.119761
732.387031	0.119580
732.585250	0.119282
732.783452	0.119105
732.981635	0.118974
733.179800	0.118788
733.377947	0.118667
733.576076	0.118587
733.774186	0.118351
733.972278	0.118302
734.170352	0.118326
734.368408	0.118289
734.566446	0.118439
734.764465	0.118334
734.962466	0.118388
735.160449	0.118417
735.358413	0.118446
735.556360	0.118427
735.754288	0.118351
735.952198	0.118462
736.150090	0.118361
736.347963	0.118139
736.545818	0.117921
736.743655	0.118145
736.941474	0.117939
737.139275	0.117931
737.337057	0.118125
737.534821	0.117793
737.732567	0.117817
737.930295	0.117483
738.128005	0.117344
738.325696	0.117295
738.523369	0.116753
738.721024	0.116624
738.918660	0.116384
739.116279	0.115990
739.313879	0.115972
739.511461	0.115671
739.709024	0.115754
739.906570	0.115817
740.104097	0.115600
740.301606	0.115778
740.499097	0.115707
740.696569	0.115542
740.894024	0.115649
741.091460	0.115658
741.288878	0.115459
741.486277	0.115344
741.683659	0.115255
741.881022	0.115317
742.078367	0.114935
742.275694	0.114910
742.473002	0.114841
742.670293	0.114661
742.867565	0.114464
743.064819	0.114468
743.262054	0.114487
743.459272	0.114368
743.656471	0.114258
743.853652	0.114369
744.050815	0.114331
744.247959	0.114384
744.445085	0.114197
744.642194	0.114009
744.839283	0.113612
745.036355	0.113357
745.233408	0.113501
745.430444	0.113428
745.627461	0.113237
745.824459	0.112734
746.021440	0.112636
746.218402	0.112671
746.415346	0.112656
746.612272	0.112781
746.809180	0.112696
747.006069	0.112012
747.202940	0.111915
747.399793	0.111849
747.596628	0.111789
747.793444	0.111573
747.990243	0.111373
748.187023	0.111301
748.383784	0.111178
748.580528	0.111201
748.777253	0.111327
748.973960	0.111218
749.170649	0.111493
749.367320	0.111466
749.563973	0.111362
749.760607	0.111416
749.957223	0.111239
750.153821	0.111204
750.350400	0.111018
750.546962	0.110969
750.743505	0.110856
750.940030	0.110509
751.136536	0.110678
751.333025	0.110627
751.529495	0.110407
751.725947	0.110531
751.922381	0.110418
752.118796	0.110322
752.315194	0.110377
752.511573	0.110253
752.707934	0.110228
752.904276	0.110151
753.100601	0.110070
753.296907	0.109981
753.493195	0.109780
753.689465	0.109691
753.885716	0.109674
754.081949	0.109563
754.278164	0.109675
754.474361	0.109546
754.670540	0.109462
754.866700	0.109418
755.062843	0.109208
755.258967	0.109140
755.455072	0.109213
755.651160	0.109228
755.847229	0.109240
756.043280	0.108948
756.239313	0.108770
756.435328	0.108757
756.631324	0.108546
756.827302	0.108761
757.023262	0.108600
757.219204	0.108477
757.415127	0.108436
757.611033	0.108268
757.806920	0.108305
758.002788	0.108191
758.198639	0.107959
758.394471	0.107939
758.590286	0.107654
758.786081	0.107399
758.981859	0.107321
759.177619	0.107170
759.373360	0.107040
759.569083	0.106830
759.764788	0.106786
759.960474	0.106851
760.156143	0.106858
760.351793	0.106896
760.547425	0.106905
760.743038	0.106992
760.938634	0.106954
761.134211	0.106999
761.329770	0.107019
761.525311	0.106819
761.720833	0.106486
761.916338	0.106375
762.111824	0.106223
762.307292	0.106094
762.502741	0.105772
762.698173	0.105500
762.893586	0.105292
763.088981	0.105021
763.284358	0.104982
763.479716	0.104923
763.675057	0.104913
763.870379	0.104691
764.065683	0.104781
764.260968	0.104633
764.456236	0.104661
764.651485	0.104280
764.846716	0.104186
765.041929	0.104403
765.237123	0.104268
765.432299	0.103940
765.627457	0.103818
765.822597	0.103623
766.017719	0.103564
766.212822	0.103392
766.407907	0.103572
766.602974	0.103799
766.798023	0.103476
766.993054	0.103567
767.188066	0.103474
767.383060	0.103631
767.578036	0.103599
767.772993	0.103442
767.967933	0.103586
768.162854	0.103584
768.357757	0.103551
768.552642	0.103480
768.747508	0.103421
768.942356	0.103594
769.137186	0.103570
769.331998	0.103564
769.526792	0.103511
769.721567	0.103378
769.916324	0.103323
770.111063	0.103050
770.305784	0.103067
770.500486	0.102981
770.695171	0.102889
770.889837	0.102806
771.084484	0.102815
771.279114	0.103031
771.473725	0.103008
771.668318	0.103124
771.862893	0.103225
772.057450	0.103335
772.251988	0.103330
772.446509	0.103328
772.641011	0.103412
772.835494	0.103332
773.029960	0.103280
773.224407	0.103064
773.418836	0.102865
773.613247	0.102871
773.807640	0.102482
774.002014	0.102520
774.196370	0.102360
774.390708	0.102406
774.585028	0.102198
774.779330	0.101942
774.973613	0.102031
775.167878	0.102028
775.362125	0.101871
775.556354	0.102050
775.750564	0.101827
775.944756	0.101828
776.138930	0.101677
776.333086	0.101682
776.527223	0.101872
776.721343	0.101795
776.915444	0.101900
777.109526	0.101956
777.303591	0.102004
777.497637	0.102043
777.691666	0.101914
777.885676	0.101798
778.079667	0.101868
778.273641	0.101658
778.467596	0.101770
778.661533	0.101636
778.855452	0.101548
779.049352	0.101377
779.243235	0.101451
779.437099	0.101578
779.630945	0.101688
779.824773	0.101754
780.018582	0.101792
780.212373	0.101669
780.406146	0.101802
780.599901	0.101683
780.793638	0.101706
780.987356	0.101700
781.181056	0.101720
781.374738	0.101575
781.568402	0.101502
781.762047	0.101558
781.955674	0.101556
782.149283	0.101178
782.342874	0.101390
782.536447	0.101518
782.730001	0.101604
782.923537	0.101715
783.117055	0.101772
783.310555	0.101858
783.504036	0.101853
783.697499	0.101777
783.890944	0.102005
784.084371	0.101948
784.277780	0.101773
784.471170	0.101697
784.664542	0.101455
784.857896	0.101490
785.051231	0.101504
785.244549	0.101592
785.437848	0.101720
785.631129	0.101739
785.824392	0.101823
786.017636	0.101925
786.210863	0.102019
786.404071	0.102373
786.597260	0.102461
786.790432	0.102577
786.983585	0.102489
787.176721	0.102770
787.369838	0.102668
787.562936	0.102713
787.756017	0.103056
787.949079	0.103258
788.142123	0.103238
788.335149	0.103447
788.528156	0.103581
788.721146	0.103771
788.914117	0.103769
789.107070	0.104151
789.300005	0.104163
789.492921	0.104144
789.685819	0.104145
789.878699	0.104359
790.071561	0.104328
790.264405	0.104271
790.457230	0.104321
790.650037	0.104354
790.842826	0.104404
791.035597	0.104485
791.228349	0.104669
791.421084	0.104625
791.613800	0.104666
791.806497	0.104725
791.999177	0.104902
792.191838	0.105320
792.384481	0.105545
792.577106	0.105603
792.769713	0.105917
792.962301	0.106008
793.154871	0.106190
793.347423	0.106255
793.539957	0.106274
793.732473	0.106273
793.924970	0.106238
794.117449	0.106409
794.309910	0.106654
794.502353	0.106753
794.694777	0.106685
794.887183	0.106802
795.079571	0.106678
795.271941	0.106930
795.464293	0.107010
795.656626	0.107143
795.848941	0.107207
796.041238	0.107250
796.233516	0.107255
796.425777	0.107416
796.618019	0.107374
796.810243	0.107716
797.002449	0.107706
797.194636	0.107685
797.386805	0.107543
797.578956	0.107385
797.771089	0.107313
797.963204	0.107329
798.155300	0.107339
798.347378	0.107451
798.539438	0.107369
798.731480	0.107369
798.923503	0.107640
799.115509	0.107838
799.307496	0.107862
799.499465	0.107996
799.691415	0.108101
799.883348	0.108250
800.075262	0.108272
800.267158	0.108472
800.459035	0.108818
800.650895	0.108836
800.842736	0.108836
801.034559	0.108897
801.226364	0.108919
801.418150	0.108898
801.609919	0.108658
801.801669	0.108717
801.993401	0.108835
802.185114	0.108685
802.376810	0.108952
802.568487	0.109127
802.760146	0.109414
802.951787	0.109526
803.143409	0.109703
803.335014	0.110191
803.526600	0.110254
803.718168	0.110276
803.909717	0.110450
804.101249	0.110447
804.292762	0.110249
804.484257	0.110498
804.675734	0.110629
804.867192	0.110888
805.058632	0.110897
805.250054	0.111136
805.441458	0.111472
805.632844	0.111834
805.824211	0.112293
806.015561	0.112822
806.206891	0.112893
806.398204	0.113185
806.589499	0.113350
806.780775	0.113607
806.972033	0.113904
807.163273	0.114140
807.354495	0.114262
807.545698	0.114100
807.736883	0.114072
807.928050	0.114338
808.119199	0.114643
808.310329	0.114867
808.501441	0.115188
808.692535	0.115410
808.883611	0.115436
809.074669	0.115561
809.265708	0.115898
809.456729	0.116302
809.647732	0.116567
809.838717	0.116743
810.029683	0.116991
810.220632	0.116830
810.411562	0.116895
810.602474	0.117181
810.793367	0.117229
810.984242	0.117460
811.175100	0.117362
811.365938	0.117192
811.556759	0.117118
811.747562	0.117009
811.938346	0.117404
812.129112	0.117631
812.319860	0.117625
812.510589	0.117802
812.701300	0.117838
812.891994	0.118022
813.082668	0.118540
813.273325	0.118870
813.463964	0.119286
813.654584	0.119228
813.845186	0.119754
814.035769	0.120199
814.226335	0.120481
814.416882	0.120702
814.607411	0.120990
814.797922	0.121065
814.988415	0.120975
815.178889	0.121001
815.369345	0.121242
815.559783	0.121054
815.750203	0.120818
815.940605	0.121159
816.130988	0.121254
816.321353	0.121523
816.511700	0.121448
816.702028	0.121841
816.892339	0.122052
817.082631	0.122553
817.272905	0.122727
817.463161	0.123078
817.653398	0.122805
817.843617	0.122967
818.033819	0.123052
818.224001	0.123044
818.414166	0.123127
818.604312	0.123013
818.794440	0.122833
818.984550	0.122845
819.174642	0.123054
819.364716	0.123397
819.554771	0.123610
819.744808	0.123769
819.934827	0.124113
820.124827	0.124103
820.314810	0.124389
820.504774	0.124857
820.694720	0.125052
820.884647	0.125191
821.074557	0.125493
821.264448	0.125573
821.454321	0.126064
821.644176	0.126412
821.834012	0.126908
822.023831	0.127280
822.213631	0.127457
822.403413	0.127812
822.593176	0.127893
822.782922	0.128111
822.972649	0.128587
823.162358	0.128632
823.352049	0.129035
823.541721	0.129271
823.731376	0.129733
823.921012	0.129941
824.110629	0.130209
824.300229	0.130531
824.489811	0.130910
824.679374	0.131195
824.868919	0.131332
825.058445	0.131411
825.247954	0.131641
825.437444	0.131809
825.626916	0.131960
825.816370	0.132282
826.005806	0.132547
826.195223	0.132682
826.384622	0.132821
826.574003	0.132991
826.763366	0.133164
826.952711	0.133195
827.142037	0.133208
827.331345	0.133375
827.520635	0.133317
827.709906	0.133383
827.899160	0.133501
828.088395	0.133581
828.277612	0.133812
828.466810	0.133934
828.655991	0.134265
828.845153	0.134395
829.034297	0.134618
829.223423	0.135072
829.412531	0.135336
829.601620	0.135705
829.790691	0.135932
829.979744	0.136231
830.168779	0.136643
830.357795	0.136612
830.546793	0.136889
830.735773	0.137067
830.924735	0.137238
831.113679	0.137802
831.302604	0.137819
831.491511	0.138212
831.680400	0.138967
831.869271	0.139218
832.058123	0.139745
832.246957	0.139991
832.435773	0.140356
832.624571	0.140649
832.813351	0.140613
833.002112	0.141126
833.190855	0.141409
833.379580	0.141327
833.568287	0.141634
833.756975	0.142011
833.945645	0.142737
834.134297	0.143095
834.322931	0.143400
834.511547	0.144048
834.700144	0.144403
834.888723	0.144528
835.077284	0.144890
835.265826	0.145181
835.454351	0.145145
835.642857	0.145233
835.831345	0.145310
836.019815	0.145472
836.208266	0.145691
836.396699	0.145671
836.585114	0.146292
836.773511	0.146170
836.961890	0.146467
837.150250	0.146943
837.338592	0.147062
837.526916	0.147361
837.715222	0.147765
837.903510	0.147798
838.091779	0.148224
838.280030	0.148082
838.468263	0.148615
838.656477	0.148775
838.844674	0.148968
839.032852	0.149633
839.221012	0.149984
839.409153	0.150574
839.597277	0.150922
839.785382	0.151217
839.973469	0.151596
840.161538	0.151834
840.349589	0.152381
840.537621	0.153045
840.725635	0.153093
840.913631	0.153348
841.101609	0.153427
841.289568	0.153911
841.477509	0.154524
841.665432	0.155040
841.853337	0.155677
842.041224	0.155901
842.229092	0.156277
842.416942	0.156613
842.604774	0.157285
842.792588	0.157648
842.980383	0.157957
843.168160	0.158129
843.355919	0.158237
843.543660	0.158313
843.731382	0.158341
843.919087	0.158531
844.106773	0.158783
844.294441	0.158851
844.482090	0.158977
844.669722	0.159116
844.857335	0.159203
845.044930	0.159318
845.232507	0.159166
845.420065	0.159510
845.607605	0.159251
845.795127	0.159569
845.982631	0.159876
846.170117	0.160255
846.357584	0.160841
846.545033	0.161055
846.732464	0.161693
846.919877	0.162525
847.107272	0.162998
847.294648	0.163638
847.482006	0.163721
847.669346	0.163946
847.856667	0.164170
848.043971	0.163899
848.231256	0.164399
848.418523	0.164334
848.605771	0.164476
848.793002	0.164873
848.980214	0.165330
849.167408	0.165925
849.354584	0.166603
849.541742	0.166684
849.728881	0.167158
849.916002	0.167465
850.103105	0.168138
850.290190	0.168620
850.477256	0.168780
850.664304	0.169344
850.851334	0.169174
851.038346	0.168986
851.225340	0.169387
851.412315	0.169706
851.599272	0.170007
851.786211	0.170385
851.973132	0.170525
852.160034	0.170723
852.346918	0.170688
852.533784	0.171383
852.720632	0.171732
852.907462	0.172337
853.094273	0.172641
853.281066	0.172972
853.467841	0.173080
853.654598	0.173583
853.841336	0.174092
854.028056	0.174576
854.214758	0.174919
854.401442	0.175228
854.588107	0.175634
854.774755	0.175790
854.961384	0.175956
855.147995	0.176195
855.334587	0.176087
855.521162	0.176285
855.707718	0.176557
855.894256	0.176730
856.080775	0.177090
856.267277	0.176950
856.453760	0.177386
856.640225	0.177666
856.826672	0.178033
857.013101	0.178505
857.199511	0.178952
857.385903	0.178772
857.572277	0.178913
857.758633	0.179303
857.944970	0.179816
858.131290	0.180163
858.317591	0.180461
858.503873	0.180686
858.690138	0.180988
858.876384	0.181083
859.062612	0.181707
859.248822	0.182390
859.435014	0.182798
859.621188	0.182876
859.807343	0.183529
859.993480	0.184110
860.179599	0.184282
860.365699	0.184683
860.551781	0.184866
860.737846	0.185460
860.923891	0.185396
861.109919	0.185676
861.295929	0.186159
861.481920	0.186348
861.667893	0.186389
861.853848	0.186826
862.039784	0.186899
862.225702	0.187384
862.411603	0.187079
862.597484	0.187279
862.783348	0.187748
862.969193	0.187860
863.155021	0.187899
863.340830	0.188276
863.526620	0.188474
863.712393	0.188718
863.898147	0.188851
864.083883	0.189269
864.269601	0.189843
864.455301	0.189849
864.640982	0.189936
864.826645	0.190144
865.012290	0.190246
865.197917	0.190508
865.383526	0.191067
865.569116	0.191390
865.754688	0.191694
865.940242	0.191841
866.125777	0.192041
866.311295	0.192211
866.496794	0.192289
866.682275	0.192424
866.867737	0.192639
867.053182	0.192320
867.238608	0.192017
867.424016	0.192139
867.609406	0.192173
867.794778	0.192301
867.980131	0.193031
868.165466	0.193426
868.350783	0.193830
868.536082	0.193899
868.721362	0.194299
868.906625	0.194785
869.091869	0.194894
869.277094	0.195188
869.462302	0.195267
869.647491	0.195461
869.832662	0.195829
870.017815	0.195781
870.202950	0.196190
870.388066	0.196383
870.573165	0.196770
870.758245	0.196927
870.943306	0.196797
871.128350	0.196708
871.313375	0.196640
871.498382	0.196737
871.683371	0.197059
871.868342	0.197093
872.053294	0.197331
872.238229	0.197653
872.423144	0.198062
872.608042	0.198748
872.792922	0.199450
872.977783	0.200029
873.162626	0.199931
873.347451	0.199813
873.532258	0.200162
873.717046	0.200336
873.901816	0.200248
874.086568	0.200724
874.271302	0.201013
874.456017	0.200751
874.640715	0.200644
874.825394	0.200922
875.010055	0.201534
875.194697	0.201778
875.379322	0.201973
875.563928	0.202377
875.748516	0.202535
875.933085	0.202293
876.117637	0.202432
876.302170	0.202491
876.486685	0.202713
876.671182	0.202313
876.855661	0.202213
877.040121	0.202393
877.224563	0.202090
877.408987	0.202076
877.593393	0.202416
877.777780	0.202967
877.962150	0.203126
878.146501	0.203463
878.330833	0.203903
878.515148	0.204076
878.699444	0.203951
878.883722	0.204399
879.067982	0.204611
879.252224	0.204725
879.436447	0.204767
879.620653	0.204808
879.804840	0.204766
879.989008	0.205150
880.173159	0.205289
880.357291	0.205753
880.541405	0.206093
880.725501	0.205892
880.909579	0.205912
881.093638	0.205975
881.277680	0.206000
881.461703	0.206198
881.645707	0.206341
881.829694	0.206307
882.013662	0.206276
882.197612	0.206456
882.381544	0.206609
882.565458	0.206565
882.749353	0.206596
882.933230	0.206670
883.117089	0.206380
883.300930	0.206201
883.484753	0.206441
883.668557	0.206621
883.852343	0.206674
884.036111	0.206603
884.219861	0.206807
884.403592	0.207045
884.587305	0.207447
884.771000	0.207691
884.954677	0.207899
885.138335	0.207951
885.321976	0.208038
885.505598	0.207392
885.689201	0.207599
885.872787	0.207586
886.056354	0.207544
886.239904	0.207384
886.423434	0.207263
886.606947	0.207241
886.790442	0.207000
886.973918	0.206954
887.157376	0.207345
887.340816	0.207294
887.524237	0.207350
887.707641	0.207238
887.891026	0.207240
888.074393	0.207176
888.257741	0.207435
888.441072	0.208028
888.624384	0.208095
888.807678	0.208421
888.990954	0.208567
889.174211	0.208766
889.357451	0.208978
889.540672	0.208900
889.723875	0.209337
889.907059	0.208973
890.090226	0.208967
890.273374	0.208765
890.456504	0.208550
890.639616	0.208598
890.822709	0.208386
891.005785	0.207914
891.188842	0.208108
891.371881	0.207818
891.554901	0.207698
891.737904	0.207423
891.920888	0.207693
892.103854	0.207761
892.286802	0.207596
892.469731	0.207490
892.652643	0.207710
892.835536	0.207541
893.018410	0.207399
893.201267	0.207163
893.384106	0.207028
893.566926	0.206849
893.749728	0.206487
893.932511	0.206116
894.115277	0.206583
894.298024	0.206424
894.480753	0.206230
894.663464	0.206113
894.846157	0.205984
895.028831	0.205859
895.211487	0.205553
895.394125	0.205367
895.576745	0.205476
895.759346	0.204994
895.941930	0.205020
896.124495	0.204982
896.307041	0.205172
896.489570	0.205417
896.672080	0.205168
896.854573	0.205418
897.037046	0.205472
897.219502	0.205607
897.401940	0.205523
897.584359	0.205270
897.766760	0.205092
897.949143	0.204972
898.131507	0.204813
898.313854	0.204714
898.496182	0.204353
898.678492	0.204152
898.860783	0.203894
899.043057	0.203937
899.225312	0.203973
899.407549	0.204129
899.589768	0.203890
899.771968	0.203664
899.954151	0.203970
900.136315	0.203656
900.318461	0.203666
900.500588	0.203508
900.682698	0.202944
900.864789	0.202684
901.046862	0.202372
901.228917	0.201970
901.410953	0.201784
901.592971	0.201123
901.774972	0.200841
901.956953	0.200724
902.138917	0.200259
902.320862	0.200110
902.502790	0.200190
902.684699	0.199996
902.866589	0.200134
903.048462	0.199752
903.230316	0.199650
903.412152	0.199692
903.593970	0.199494
903.775770	0.199352
903.957551	0.199511
904.139314	0.199548
904.321059	0.199391
904.502786	0.198834
904.684494	0.199114
904.866185	0.199272
905.047857	0.199256
905.229510	0.198902
905.411146	0.199148
905.592763	0.198647
905.774363	0.198395
905.955943	0.198263
906.137506	0.198416
906.319051	0.198071
906.500577	0.198403
906.682085	0.198424
906.863575	0.198152
907.045046	0.198008
907.226500	0.197916
907.407935	0.197337
907.589352	0.196795
907.770750	0.196344
907.952131	0.196425
908.133493	0.195335
908.314837	0.194680
908.496163	0.194335
908.677470	0.193401
908.858760	0.192724
909.040031	0.192897
909.221284	0.192980
909.402518	0.193034
909.583735	0.192526
909.764933	0.192363
909.946113	0.192408
910.127275	0.192374
910.308418	0.192932
910.489544	0.192585
910.670651	0.191559
910.851740	0.191295
911.032810	0.191135
911.213863	0.190666
911.394897	0.191125
911.575913	0.190746
911.756911	0.190383
911.937890	0.190060
912.118851	0.189970
912.299794	0.189882
912.480719	0.189252
912.661626	0.188965
912.842514	0.188899
913.023384	0.187521
913.204236	0.187143
913.385070	0.186353
913.565886	0.185490
913.746683	0.185201
913.927462	0.185124
914.108223	0.184771
914.288965	0.183854
914.469690	0.183240
914.650396	0.183002
914.831084	0.182247
915.011754	0.182492
915.192405	0.181813
915.373038	0.181558
915.553653	0.181050
915.734250	0.180731
915.914829	0.180758
916.095389	0.180159
916.275931	0.179752
916.456455	0.179321
916.636961	0.178405
916.817448	0.178377
916.997917	0.177809
917.178368	0.177505
917.358801	0.177032
917.539216	0.176153
917.719612	0.176003
917.899990	0.175582
918.080350	0.175333
918.260692	0.174764
918.441015	0.174022
918.621320	0.173443
918.801607	0.172214
918.981876	0.171628
919.162127	0.171138
919.342359	0.170918
919.522573	0.170380
919.702769	0.169337
919.882947	0.168891
920.063106	0.168638
920.243247	0.168246
920.423370	0.168436
920.603475	0.168312
920.783562	0.168143
920.963630	0.167611
921.143680	0.167264
921.323712	0.167228
921.503725	0.166885
921.683721	0.166620
921.863698	0.166124
922.043657	0.165072
922.223598	0.164193
922.403520	0.163536
922.583424	0.163098
922.763311	0.162482
922.943178	0.162599
923.123028	0.162226
923.302859	0.161346
923.482673	0.161049
923.662467	0.161222
923.842244	0.160896
924.022003	0.160653
924.201743	0.159783
924.381465	0.158684
924.561169	0.157437
924.740854	0.156771
924.920522	0.156135
925.100171	0.155449
925.279802	0.154053
925.459414	0.152970
925.639009	0.151426
925.818585	0.150080
925.998143	0.150016
926.177683	0.149835
926.357205	0.149445
926.536708	0.148965
926.716193	0.148349
926.895660	0.148045
927.075109	0.147823
927.254539	0.147711
927.433951	0.147525
927.613345	0.147396
927.792721	0.146892
927.972079	0.145963
928.151418	0.145278
928.330739	0.144126
928.510042	0.143244
928.689327	0.142796
928.868593	0.141937
929.047841	0.141622
929.227071	0.141276
929.406283	0.140145
929.585476	0.139309
929.764652	0.138448
929.943809	0.137819
930.122948	0.137202
930.302068	0.136464
930.481171	0.136901
930.660255	0.135820
930.839321	0.134448
931.018369	0.133591
931.197398	0.133219
931.376409	0.133032
931.555402	0.133684
931.734377	0.133866
931.913334	0.133801
932.092272	0.132442
932.271192	0.132424
932.450094	0.131718
932.628978	0.130862
932.807844	0.131141
932.986691	0.129887
933.165520	0.128913
933.344331	0.127551
933.523123	0.126076
933.701898	0.125324
933.880654	0.124160
934.059392	0.123456
934.238111	0.123504
934.416813	0.121994
934.595496	0.121351
934.774161	0.120197
934.952808	0.119671
935.131437	0.119732
935.310047	0.119059
935.488639	0.118723
935.667213	0.117835
935.845769	0.116812
936.024306	0.116751
936.202825	0.116043
936.381326	0.115548
936.559809	0.115171
936.738274	0.114064
936.916720	0.114096
937.095148	0.113964
937.273558	0.113210
937.451950	0.112433
937.630323	0.110446
937.808678	0.110552
937.987015	0.109291
938.165334	0.108419
938.343635	0.108218
938.521917	0.106558
938.700181	0.104000
938.878427	0.104114
939.056655	0.103656
939.234864	0.103804
939.413055	0.102667
939.591228	0.101874
939.769383	0.100585
939.947519	0.098537
940.125638	0.097255
940.303738	0.097454
940.481820	0.095573
940.659883	0.094693
940.837929	0.093999
941.015956	0.092890
941.193965	0.092426
941.371955	0.092278
941.549928	0.091700
941.727882	0.091388
941.905818	0.091418
942.083736	0.090833
942.261636	0.090095
942.439517	0.089229
942.617380	0.089141
942.795225	0.089051
942.973052	0.087842
943.150860	0.088343
943.328651	0.087543
943.506423	0.086919
943.684176	0.087102
943.861912	0.086547
944.039629	0.086361
944.217328	0.084734
944.395009	0.083330
944.572672	0.082861
944.750317	0.081133
944.927943	0.080489
945.105551	0.079083
945.283141	0.077666
945.460712	0.076828
945.638265	0.075728
945.815801	0.074976
945.993317	0.074398
946.170816	0.073361
946.348297	0.072041
946.525759	0.071256
946.703203	0.071453
946.880629	0.071309
947.058036	0.070269
947.235425	0.069449
947.412797	0.069772
947.590149	0.068993
947.767484	0.068829
947.944800	0.067987
948.122099	0.068386
948.299379	0.065969
948.476640	0.063460
948.653884	0.063249
948.831109	0.062713
949.008316	0.061975
949.185505	0.061950
949.362676	0.061815
949.539828	0.062676
949.716962	0.061728
949.894078	0.062680
950.071176	0.064951
950.248256	0.064013
950.425317	0.063033
950.602360	0.062393
950.779385	0.060153
950.956391	0.058121
951.133380	0.056641
951.310350	0.055926
951.487302	0.054148
951.664235	0.052311
951.841151	0.051253
952.018048	0.050214
952.194927	0.049139
952.371788	0.050262
952.548631	0.051727
952.725455	0.051779
952.902261	0.051351
953.079049	0.051425
953.255819	0.049888
953.432570	0.050504
953.609303	0.049677
953.786018	0.050100
953.962715	0.048960
954.139394	0.048258
954.316054	0.047405
954.492696	0.046932
954.669320	0.047369
954.845926	0.048395
955.022513	0.048986
955.199083	0.050965
955.375634	0.050845
955.552166	0.050464
955.728681	0.049748
955.905177	0.049035
956.081655	0.048568
956.258115	0.047711
956.434557	0.047491
956.610980	0.045856
956.787385	0.045471
956.963772	0.043977
957.140141	0.044311
957.316492	0.043056
957.492824	0.044290
957.669138	0.043415
957.845434	0.042120
958.021712	0.041333
958.197971	0.041095
958.374212	0.038433
958.550435	0.039055
958.726640	0.038965
958.902826	0.040672
959.078995	0.039921
959.255145	0.042310
959.431277	0.041502
959.607390	0.042195
959.783486	0.042055
959.959563	0.042438
960.135622	0.042589
960.311662	0.042624
960.487685	0.041491
960.663689	0.040317
960.839675	0.038448
961.015643	0.039120
961.191593	0.038993
961.367524	0.039218
961.543437	0.041223
961.719332	0.041290
961.895209	0.041687
962.071067	0.041710
962.246907	0.042147
962.422730	0.041673
962.598533	0.042556
962.774319	0.041155
962.950086	0.043388
963.125835	0.041592
963.301566	0.041622
963.477279	0.041205
963.652973	0.041214
963.828650	0.041652
964.004308	0.042077
964.179947	0.042860
964.355569	0.043526
964.531172	0.042390
964.706757	0.042780
964.882324	0.041773
965.057873	0.041367
965.233403	0.040188
965.408916	0.040669
965.584410	0.042383
965.759885	0.042200
965.935343	0.043419
966.110782	0.042543
966.286203	0.043268
966.461606	0.043427
966.636991	0.043291
966.812357	0.045439
966.987705	0.044909
967.163035	0.042930
967.338347	0.042825
967.513641	0.040928
967.688916	0.039768
967.864173	0.039187
968.039412	0.039479
968.214632	0.040057
968.389835	0.038736
968.565019	0.039988
968.740185	0.042220
968.915333	0.043066
969.090462	0.043981
969.265573	0.044254
969.440667	0.045582
969.615741	0.043574
969.790798	0.042317
969.965836	0.043233
970.140856	0.042222
970.315858	0.039769
970.490842	0.039320
970.665808	0.040156
970.840755	0.041861
971.015684	0.040470
971.190595	0.044054
971.365487	0.046533
971.540362	0.046464
971.715218	0.047011
971.890056	0.046032
972.064875	0.046693
972.239677	0.044378
972.414460	0.045083
972.589225	0.047411
972.763972	0.044678
972.938700	0.043192
973.113411	0.042968
973.288103	0.041086
973.462777	0.045068
973.637432	0.043617
973.812070	0.045057
973.986689	0.042524
974.161290	0.040304
974.335873	0.042041
974.510437	0.043461
974.684984	0.042723
974.859512	0.046324
975.034022	0.044124
975.208513	0.043602
975.382987	0.043350
975.557442	0.044906
975.731879	0.045885
975.906298	0.044746
976.080698	0.043137
976.255080	0.041809
976.429445	0.040113
976.603790	0.040778
976.778118	0.041427
976.952427	0.041899
977.126719	0.041988
977.300992	0.041641
977.475246	0.041308
977.649483	0.039467
977.823701	0.040206
977.997901	0.040884
978.172083	0.039175
978.346247	0.039917
978.520392	0.040250
978.694519	0.040235
978.868628	0.040254
979.042719	0.040987
979.216791	0.042447
979.390845	0.042281
979.564882	0.040607
979.738899	0.041153
979.912899	0.039066
980.086880	0.039586
980.260843	0.037023
980.434788	0.035332
980.608715	0.035319
980.782623	0.034549
980.956514	0.035683
981.130386	0.035255
981.304240	0.035034
981.478075	0.036767
981.651892	0.036442
981.825692	0.037485
981.999472	0.038637
982.173235	0.038187
982.346980	0.039521
982.520706	0.039821
982.694414	0.040343
982.868104	0.043117
983.041775	0.041692
983.215428	0.041432
983.389064	0.041527
983.562680	0.040511
983.736279	0.041837
983.909860	0.040171
984.083422	0.039209
984.256966	0.039947
984.430491	0.039011
984.603999	0.038670
984.777488	0.037957
984.950959	0.038975
985.124412	0.039770
985.297847	0.040971
985.471263	0.041209
985.644661	0.040815
985.818041	0.041359
985.991403	0.041557
986.164747	0.042714
986.338072	0.042332
986.511379	0.043413
986.684668	0.043684
986.857938	0.040765
987.031191	0.041631
987.204425	0.041453
987.377641	0.041065
987.550839	0.038804
987.724018	0.038589
987.897179	0.040331
988.070322	0.040394
988.243447	0.037291
988.416554	0.037428
988.589642	0.038325
988.762712	0.037689
988.935764	0.038076
989.108798	0.038811
989.281813	0.038175
989.454811	0.036033
989.627790	0.034626
989.800751	0.037169
989.973693	0.037599
990.146617	0.037624
990.319524	0.039058
990.492412	0.036695
990.665281	0.037536
990.838133	0.038005
991.010966	0.039377
991.183781	0.038642
991.356578	0.040169
991.529356	0.040238
991.702117	0.037805
991.874859	0.037718
992.047583	0.039778
992.220288	0.040248
992.392976	0.040999
992.565645	0.042250
992.738296	0.042459
992.910929	0.040556
993.083543	0.041680
993.256139	0.043875
993.428718	0.044391
993.601277	0.044833
993.773819	0.045469
993.946342	0.044524
994.118848	0.043360
994.291335	0.043024
994.463803	0.043501
994.636254	0.042997
994.808686	0.042446
994.981100	0.040722
995.153496	0.039653
995.325874	0.037891
995.498233	0.038246
995.670574	0.036723
995.842897	0.037022
996.015202	0.038229
996.187488	0.037607
996.359757	0.038248
996.532007	0.039720
996.704239	0.039599
996.876452	0.040979
997.048648	0.040948
997.220825	0.042803
997.392984	0.043844
997.565124	0.041762
997.737247	0.042733
997.909351	0.041383
998.081437	0.040381
998.253505	0.039784
998.425554	0.038602
998.597586	0.037908
998.769599	0.037442
998.941594	0.035724
999.113571	0.037763
999.285529	0.036121
999.457469	0.037257
999.629391	0.038496
999.801295	0.039152
999.973181	0.038639
1000.145048	0.038486
1000.316897	0.037030
1000.488728	0.037999
1000.660541	0.037287
1000.832335	0.037275
1001.004111	0.038612
1001.175869	0.037312
1001.347609	0.037828
1001.519331	0.038111
1001.691034	0.038899
1001.862719	0.039632
1002.034386	0.038825
1002.206035	0.038146
1002.377665	0.039182
1002.549277	0.037855
1002.720871	0.036954
1002.892447	0.036333
1003.064004	0.035172
1003.235544	0.036218
1003.407065	0.036174
1003.578568	0.036753
1003.750052	0.038002
1003.921519	0.035987
1004.092967	0.035726
1004.264397	0.036785
1004.435809	0.037101
1004.607202	0.037248
1004.778577	0.036260
1004.949934	0.037753
1005.121273	0.037533
1005.292594	0.037094
1005.463896	0.038823
1005.635180	0.039937
1005.806446	0.040136
1005.977694	0.041478
1006.148923	0.040643
1006.320135	0.041391
1006.491328	0.040166
1006.662503	0.039343
1006.833659	0.040607
1007.004798	0.042402
1007.175918	0.039978
1007.347020	0.039756
1007.518103	0.037581
1007.689169	0.038564
1007.860216	0.037519
1008.031245	0.036535
1008.202256	0.037528
1008.373248	0.036227
1008.544223	0.034051
1008.715179	0.036198
1008.886117	0.037861
1009.057036	0.037666
1009.227938	0.038440
1009.398821	0.039640
1009.569686	0.039855
1009.740533	0.039187
1009.911361	0.038241
1010.082172	0.037760
1010.252964	0.036427
1010.423738	0.034322
1010.594493	0.035460
1010.765231	0.035508
1010.935950	0.035236
1011.106651	0.035720
1011.277334	0.035301
1011.447998	0.035529
1011.618645	0.037895
1011.789273	0.039119
1011.959882	0.039035
1012.130474	0.038491
1012.301048	0.039283
1012.471603	0.039752
1012.642140	0.039247
1012.812658	0.040598
1012.983159	0.039799
1013.153641	0.037742
1013.324105	0.037249
1013.494551	0.038444
1013.664979	0.038199
1013.835388	0.038450
1014.005779	0.037157
1014.176152	0.036747
1014.346507	0.035945
1014.516843	0.035295
1014.687162	0.035169
1014.857462	0.035612
1015.027744	0.034147
1015.198007	0.034443
1015.368252	0.033245
1015.538480	0.032538
1015.708689	0.033817
1015.878879	0.033628
1016.049052	0.034772
1016.219206	0.035605
1016.389342	0.033354
1016.559460	0.035260
1016.729559	0.036779
1016.899641	0.037098
1017.069704	0.038009
1017.239749	0.036561
1017.409775	0.036775
1017.579784	0.035475
1017.749774	0.033786
1017.919746	0.036434
1018.089700	0.036619
1018.259635	0.036001
1018.429553	0.035633
1018.599452	0.035152
1018.769333	0.035765
1018.939195	0.035941
1019.109040	0.038323
1019.278866	0.038905
1019.448674	0.037902
1019.618464	0.037422
1019.788235	0.034944
1019.957989	0.034714
1020.127724	0.033921
1020.297441	0.034764
1020.467139	0.035832
1020.636820	0.035029
1020.806482	0.033538
1020.976126	0.032501
1021.145752	0.032111
1021.315359	0.034540
1021.484948	0.034436
1021.654519	0.033555
1021.824072	0.033406
1021.993607	0.032252
1022.163123	0.032670
1022.332621	0.033083
1022.502101	0.032946
1022.671563	0.033309
1022.841007	0.031751
1023.010432	0.029517
1023.179839	0.030602
1023.349228	0.029628
1023.518598	0.029105
1023.687951	0.029716
1023.857285	0.031233
1024.026601	0.030177
1024.195899	0.029735
1024.365178	0.030176
1024.534439	0.031689
1024.703682	0.033328
1024.872907	0.033231
1025.042114	0.034993
1025.211302	0.033402
1025.380472	0.032325
1025.549624	0.034233
1025.718758	0.033555
1025.887873	0.033801
1026.056970	0.034512
1026.226049	0.034425
1026.395110	0.035197
1026.564153	0.033374
1026.733177	0.035044
1026.902183	0.035382
1027.071171	0.033668
1027.240141	0.032457
1027.409092	0.030460
1027.578026	0.030624
1027.746940	0.029555
1027.915837	0.030000
1028.084716	0.030235
1028.253576	0.027683
1028.422418	0.027372
1028.591242	0.028842
1028.760048	0.027366
1028.928835	0.028428
1029.097604	0.029724
1029.266355	0.029313
1029.435088	0.030399
1029.603803	0.030017
1029.772499	0.032457
1029.941177	0.034418
1030.109837	0.034632
1030.278478	0.038653
1030.447102	0.038493
1030.615707	0.035813
1030.784294	0.036942
1030.952863	0.035730
1031.121413	0.037863
1031.289945	0.037378
1031.458460	0.035756
1031.626955	0.036008
1031.795433	0.034362
1031.963892	0.034872
1032.132334	0.036805
1032.300756	0.036765
1032.469161	0.035295
1032.637548	0.031927
1032.805916	0.030251
1032.974266	0.031394
1033.142598	0.030508
1033.310911	0.030113
1033.479207	0.029766
1033.647484	0.028776
1033.815743	0.029287
1033.983983	0.028842
1034.152206	0.030419
1034.320410	0.030424
1034.488596	0.029860
1034.656764	0.029818
1034.824914	0.032041
1034.993045	0.033631
1035.161158	0.034114
1035.329253	0.033703
1035.497330	0.034935
1035.665388	0.036876
1035.833428	0.037989
1036.001450	0.036950
1036.169454	0.038038
1036.337440	0.037651
1036.505407	0.036905
1036.673356	0.037513
1036.841287	0.035765
1037.009200	0.035953
1037.177094	0.033734
1037.344970	0.032228
1037.512828	0.032660
1037.680668	0.030695
1037.848489	0.029558
1038.016293	0.029580
1038.184078	0.029578
1038.351845	0.030152
1038.519593	0.029968
1038.687324	0.028884
1038.855036	0.028081
1039.022730	0.027392
1039.190406	0.027479
1039.358063	0.028289
1039.525702	0.028619
1039.693323	0.027554
1039.860926	0.027288
1040.028511	0.028154
1040.196077	0.030535
1040.363625	0.032493
1040.531155	0.033473
1040.698667	0.034209
1040.866161	0.034462
1041.033636	0.034675
1041.201093	0.034006
1041.368532	0.034140
1041.535952	0.032177
1041.703355	0.032117
1041.870739	0.030729
1042.038105	0.030458
1042.205452	0.029116
1042.372782	0.027819
1042.540093	0.026958
1042.707386	0.028718
1042.874661	0.028853
1043.041918	0.030635
1043.209156	0.030330
1043.376376	0.031159
1043.543578	0.030422
1043.710762	0.031119
1043.877927	0.030874
1044.045074	0.029242
1044.212203	0.028505
1044.379314	0.028287
1044.546407	0.027115
1044.713481	0.026732
1044.880537	0.026301
1045.047575	0.027493
1045.214595	0.026557
1045.381596	0.027401
1045.548579	0.028756
1045.715544	0.027691
1045.882491	0.028769
1046.049420	0.029842
1046.216330	0.028087
1046.383222	0.027232
1046.550096	0.026614
1046.716951	0.027441
1046.883789	0.026851
1047.050608	0.027707
1047.217409	0.028724
1047.384192	0.027811
1047.550956	0.027514
1047.717703	0.029964
1047.884431	0.031697
1048.051140	0.030369
1048.217832	0.032560
1048.384505	0.032208
1048.551161	0.032076
1048.717798	0.031010
1048.884416	0.031472
1049.051017	0.032051
1049.217599	0.031246
1049.384163	0.031588
1049.550709	0.034831
1049.717237	0.032869
1049.883746	0.033370
1050.050237	0.033169
1050.216710	0.033770
1050.383165	0.033875
1050.549601	0.034215
1050.716019	0.034457
1050.882420	0.035495
1051.048801	0.033541
1051.215165	0.034589
1051.381510	0.033731
1051.547837	0.033683
1051.714146	0.034445
1051.880437	0.034632
1052.046709	0.032210
1052.212964	0.032347
1052.379200	0.030016
1052.545417	0.030332
1052.711617	0.028670
1052.877798	0.031005
1053.043961	0.031816
1053.210106	0.030593
1053.376233	0.029407
1053.542341	0.029821
1053.708432	0.029090
1053.874504	0.029680
1054.040557	0.030039
1054.206593	0.030300
1054.372610	0.027709
1054.538609	0.026276
1054.704590	0.026848
1054.870553	0.028223
1055.036497	0.028645
1055.202424	0.028151
1055.368331	0.029057
1055.534221	0.028907
1055.700093	0.028565
1055.865946	0.029780
1056.031781	0.031045
1056.197598	0.030398
1056.363397	0.029653
1056.529177	0.030429
1056.694939	0.031588
1056.860683	0.031409
1057.026409	0.032533
1057.192116	0.033098
1057.357806	0.032789
1057.523477	0.032494
1057.689130	0.032508
1057.854764	0.032479
1058.020381	0.031905
1058.185979	0.032648
1058.351559	0.031324
1058.517120	0.028282
1058.682664	0.029340
1058.848189	0.029116
1059.013696	0.028080
1059.179185	0.028400
1059.344656	0.028075
1059.510108	0.028253
1059.675542	0.028209
1059.840958	0.029622
1060.006356	0.033068
1060.171735	0.033729
1060.337096	0.033345
1060.502439	0.033382
1060.667764	0.033801
1060.833071	0.035045
1060.998359	0.034550
1061.163629	0.031865
1061.328881	0.031628
1061.494115	0.030320
1061.659330	0.029749
1061.824527	0.030991
1061.989706	0.030763
1062.154867	0.031543
1062.320010	0.030932
1062.485134	0.030823
1062.650240	0.034394
1062.815328	0.033101
1062.980398	0.032127
1063.145449	0.030937
1063.310482	0.030550
1063.475497	0.030015
1063.640494	0.029500
1063.805473	0.029393
1063.970433	0.030871
1064.135375	0.028852
1064.300299	0.027818
1064.465204	0.029497
1064.630092	0.029383
1064.794961	0.029120
1064.959812	0.027848
1065.124645	0.027274
1065.289459	0.027764
1065.454256	0.026590
1065.619034	0.027389
1065.783793	0.029305
1065.948535	0.029203
1066.113258	0.029869
1066.277964	0.028566
1066.442651	0.028970
1066.607319	0.027011
1066.771970	0.027010
1066.936602	0.026637
1067.101216	0.027000
1067.265812	0.027688
1067.430389	0.027533
1067.594949	0.028432
1067.759490	0.029083
1067.924013	0.032012
1068.088518	0.033903
1068.253004	0.034442
1068.417472	0.034933
1068.581922	0.033685
1068.746354	0.032440
1068.910768	0.032855
1069.075163	0.031022
1069.239540	0.032678
1069.403899	0.032189
1069.568240	0.032082
1069.732562	0.028330
1069.896866	0.027151
1070.061152	0.028267
1070.225420	0.030044
1070.389670	0.028367
1070.553901	0.031667
1070.718114	0.031285
1070.882309	0.030596
1071.046486	0.032542
1071.210644	0.035765
1071.374784	0.038196
1071.538906	0.038372
1071.703010	0.037273
1071.867096	0.038131
1072.031163	0.035464
1072.195212	0.034047
1072.359243	0.035405
1072.523256	0.035538
1072.687250	0.036004
1072.851226	0.035231
1073.015184	0.033779
1073.179124	0.033242
1073.343045	0.033864
1073.506949	0.034356
1073.670834	0.036343
1073.834701	0.034368
1073.998549	0.032149
1074.162380	0.031206
1074.326192	0.030179
1074.489986	0.030969
1074.653761	0.030685
1074.817519	0.028727
1074.981258	0.028014
1075.144979	0.028797
1075.308682	0.028705
1075.472367	0.030531
1075.636033	0.032004
1075.799681	0.031780
1075.963311	0.031299
1076.126923	0.031527
1076.290516	0.033410
1076.454092	0.034946
1076.617649	0.033707
1076.781187	0.034910
1076.944708	0.034335
1077.108210	0.032100
1077.271695	0.032184
1077.435160	0.033195
1077.598608	0.034483
1077.762038	0.035377
1077.925449	0.033532
1078.088842	0.032493
1078.252217	0.032707
1078.415573	0.032920
1078.578912	0.034499
1078.742232	0.035449
1078.905534	0.035719
1079.068817	0.035530
1079.232083	0.032883
1079.395330	0.034654
1079.558559	0.034427
1079.721770	0.033384
1079.884962	0.034243
1080.048136	0.032723
1080.211293	0.033649
1080.374430	0.033804
1080.537550	0.034285
1080.700651	0.035656
1080.863735	0.034166
1081.026800	0.035183
1081.189846	0.037056
1081.352875	0.034966
1081.515885	0.036225
1081.678877	0.035404
1081.841851	0.035227
1082.004807	0.036045
1082.167744	0.036426
1082.330663	0.038467
1082.493564	0.038967
1082.656447	0.037131
1082.819312	0.037539
1082.982158	0.039458
1083.144986	0.039196
1083.307796	0.038626
1083.470587	0.037195
1083.633361	0.035849
1083.796116	0.034162
1083.958853	0.034574
1084.121571	0.035645
1084.284272	0.037174
1084.446954	0.036288
1084.609618	0.035904
1084.772264	0.034217
1084.934892	0.034168
1085.097501	0.034208
1085.260092	0.035806
1085.422665	0.034860
1085.585220	0.033721
1085.747756	0.032073
1085.910274	0.030539
1086.072774	0.029874
1086.235256	0.031332
1086.397720	0.031522
1086.560165	0.031950
1086.722592	0.031412
1086.885001	0.031523
1087.047392	0.031917
1087.209764	0.033388
1087.372119	0.031313
1087.534455	0.033212
1087.696772	0.032374
1087.859072	0.034596
1088.021353	0.035427
1088.183616	0.033578
1088.345861	0.032984
1088.508088	0.032864
1088.670296	0.032584
1088.832486	0.035653
1088.994658	0.034416
1089.156812	0.036148
1089.318948	0.035228
1089.481065	0.035070
1089.643164	0.036429
1089.805245	0.036352
1089.967308	0.038574
1090.129352	0.040267
1090.291378	0.040458
1090.453386	0.041766
1090.615376	0.039526
1090.777347	0.037182
1090.939301	0.038502
1091.101236	0.039035
1091.263153	0.043120
1091.425051	0.042113
1091.586932	0.039179
1091.748794	0.040204
1091.910638	0.042755
1092.072463	0.043163
1092.234271	0.046505
1092.396060	0.045237
1092.557831	0.045037
1092.719584	0.040914
1092.881319	0.040934
1093.043035	0.041784
1093.204733	0.041036
1093.366413	0.038831
1093.528075	0.039984
1093.689718	0.037007
1093.851343	0.038028
1094.012950	0.037903
1094.174539	0.039203
1094.336110	0.037603
1094.497662	0.037857
1094.659196	0.036396
1094.820712	0.037139
1094.982210	0.036345
1095.143689	0.038518
1095.305151	0.039944
1095.466594	0.038636
1095.628018	0.039605
1095.789425	0.041446
1095.950813	0.039825
1096.112183	0.037899
1096.273535	0.036156
1096.434869	0.034873
1096.596184	0.034605
1096.757482	0.032725
1096.918761	0.034465
1097.080021	0.031918
1097.241264	0.033665
1097.402488	0.033245
1097.563694	0.037754
1097.724882	0.037697
1097.886052	0.037751
1098.047203	0.037393
1098.208336	0.035157
1098.369451	0.035392
1098.530548	0.035481
1098.691627	0.032359
1098.852687	0.034365
1099.013729	0.031605
1099.174753	0.031944
1099.335758	0.036523
1099.496746	0.034012
1099.657715	0.034477
1099.818666	0.034447
1099.979599	0.035698
1100.140513	0.035149
1100.301409	0.034310
1100.462287	0.035656
1100.623147	0.037525
1100.783989	0.033391
1100.944812	0.036414
1101.105617	0.040614
1101.266404	0.041570
1101.427173	0.040802
1101.587923	0.043317
1101.748656	0.042340
1101.909370	0.043366
1102.070066	0.040961
1102.230743	0.042213
1102.391403	0.038917
1102.552044	0.034408
1102.712667	0.035313
1102.873271	0.036720
1103.033858	0.034881
1103.194426	0.036226
1103.354976	0.035125
1103.515508	0.036025
1103.676021	0.037722
1103.836517	0.037764
1103.996994	0.039304
1104.157453	0.033702
1104.317893	0.032196
1104.478316	0.034614
1104.638720	0.034136
1104.799106	0.036041
1104.959474	0.033551
1105.119823	0.031387
1105.280155	0.033588
1105.440468	0.033248
1105.600763	0.036275
1105.761039	0.038543
1105.921298	0.038525
1106.081538	0.040987
1106.241760	0.039703
1106.401964	0.040384
1106.562149	0.041700
1106.722316	0.040863
1106.882465	0.042588
1107.042596	0.042745
1107.202709	0.038161
1107.362803	0.032900
1107.522879	0.033324
1107.682937	0.033545
1107.842977	0.036068
1108.002999	0.035307
1108.163002	0.035805
1108.322987	0.036829
1108.482954	0.037504
1108.642902	0.041714
1108.802833	0.047907
1108.962745	0.049624
1109.122639	0.049699
1109.282515	0.050472
1109.442372	0.050729
1109.602211	0.048565
1109.762032	0.046607
1109.921835	0.047226
1110.081620	0.049221
1110.241386	0.046567
1110.401134	0.042487
1110.560864	0.043063
1110.720576	0.041330
1110.880269	0.041472
1111.039945	0.043720
1111.199602	0.042435
1111.359240	0.038369
1111.518861	0.038307
1111.678463	0.038858
1111.838047	0.037671
1111.997613	0.036268
1112.157161	0.036585
1112.316690	0.036344
1112.476202	0.035182
1112.635695	0.034824
1112.795169	0.039252
1112.954626	0.037444
1113.114064	0.036834
1113.273484	0.040491
1113.432886	0.037395
1113.592270	0.038522
1113.751635	0.037645
1113.910983	0.038233
1114.070312	0.036930
1114.229622	0.037888
1114.388915	0.037347
1114.548189	0.039106
1114.707445	0.037637
1114.866683	0.041190
1115.025903	0.040083
1115.185104	0.041232
1115.344287	0.040330
1115.503452	0.042351
1115.662599	0.041268
1115.821727	0.040784
1115.980838	0.036797
1116.139930	0.036510
1116.299004	0.033772
1116.458059	0.031774
1116.617097	0.033365
1116.776116	0.035960
1116.935117	0.037086
1117.094099	0.032091
1117.253064	0.034196
1117.412010	0.036428
1117.570938	0.036868
1117.729848	0.039997
1117.888740	0.044181
1118.047613	0.045030
1118.206468	0.042542
1118.365305	0.042814
1118.524124	0.049676
1118.682924	0.049013
1118.841707	0.047377
1119.000471	0.044591
1119.159216	0.043905
1119.317944	0.041398
1119.476653	0.035232
1119.635344	0.040523
1119.794017	0.034961
1119.952672	0.030263
1120.111308	0.030951
1120.269927	0.029986
1120.428527	0.033178
1120.587108	0.033879
1120.745672	0.032960
1120.904217	0.038024
1121.062744	0.037369
1121.221253	0.040873
1121.379744	0.042570
1121.538216	0.037806
1121.696671	0.041815
1121.855107	0.042226
1122.013524	0.040561
1122.171924	0.043765
1122.330305	0.040025
1122.488668	0.037405
1122.647013	0.042028
1122.805340	0.042146
1122.963648	0.045241
1123.121938	0.042906
1123.280210	0.045488
1123.438464	0.045316
1123.596700	0.041614
1123.754917	0.047507
1123.913116	0.047243
1124.071297	0.041507
1124.229459	0.043684
1124.387604	0.047101
1124.545730	0.051994
1124.703838	0.046517
1124.861928	0.047968
1125.019999	0.051228
1125.178052	0.053485
1125.336088	0.057151
1125.494104	0.061241
1125.652103	0.059747
1125.810083	0.055372
1125.968045	0.054877
1126.125989	0.059471
1126.283915	0.057990
1126.441823	0.058544
1126.599712	0.052245
1126.757583	0.046613
1126.915436	0.043870
1127.073270	0.041840
1127.231087	0.044384
1127.388885	0.045885
1127.546665	0.042692
1127.704426	0.044209
1127.862170	0.047725
1128.019895	0.050997
1128.177602	0.057689
1128.335291	0.058979
1128.492961	0.061017
1128.650614	0.059318
1128.808248	0.054336
1128.965864	0.052831
1129.123461	0.051046
1129.281041	0.054788
1129.438602	0.055340
1129.596145	0.052030
1129.753670	0.046771
1129.911176	0.048792
1130.068665	0.045898
1130.226135	0.045015
1130.383587	0.046017
1130.541020	0.051218
1130.698436	0.047021
1130.855833	0.043978
1131.013212	0.042268
1131.170573	0.048533
1131.327915	0.045192
1131.485239	0.047510
1131.642545	0.048754
1131.799833	0.049652
1131.957103	0.044957
1132.114354	0.041720
1132.271588	0.042489
1132.428803	0.042698
1132.585999	0.040837
1132.743178	0.043245
1132.900338	0.043803
1133.057480	0.044823
1133.214604	0.045328
1133.371710	0.048046
1133.528797	0.049733
1133.685866	0.049096
1133.842917	0.049042
1133.999950	0.055242
1134.156964	0.054638
1134.313960	0.052466
1134.470938	0.051400
1134.627898	0.056442
1134.784840	0.053704
1134.941763	0.051526
1135.098668	0.049725
1135.255555	0.043912
1135.412424	0.040115
1135.569274	0.038051
1135.726107	0.040411
1135.882921	0.041568
1136.039716	0.033035
1136.196494	0.037639
1136.353253	0.036697
1136.509995	0.041751
1136.666717	0.053130
1136.823422	0.054146
1136.980109	0.051678
1137.136777	0.051333
1137.293427	0.053136
1137.450059	0.059306
1137.606672	0.056041
1137.763267	0.060402
1137.919844	0.054772
1138.076403	0.048873
1138.232944	0.047580
1138.389466	0.045680
1138.545971	0.045489
1138.702457	0.038528
1138.858924	0.035770
1139.015374	0.031926
1139.171805	0.027127
1139.328218	0.027075
1139.484613	0.030087
1139.640990	0.031570
1139.797348	0.035835
1139.953688	0.039216
1140.110010	0.042281
1140.266314	0.043311
1140.422600	0.047169
1140.578867	0.047077
1140.735116	0.055171
1140.891347	0.048626
1141.047559	0.046746
1141.203754	0.046378
1141.359930	0.043168
1141.516088	0.048267
1141.672228	0.048757
1141.828349	0.043793
1141.984452	0.047176
1142.140537	0.042410
1142.296604	0.053948
1142.452653	0.051770
1142.608683	0.055197
1142.764695	0.059588
1142.920689	0.056580
1143.076665	0.056202
1143.232622	0.058559
1143.388562	0.057114
1143.544483	0.056695
1143.700385	0.050413
1143.856270	0.049514
1144.012136	0.042981
1144.167985	0.037693
1144.323814	0.037387
1144.479626	0.036361
1144.635420	0.035824
1144.791195	0.034994
1144.946952	0.031662
1145.102691	0.026188
1145.258411	0.026485
1145.414113	0.034575
1145.569798	0.036727
1145.725463	0.039918
1145.881111	0.039378
1146.036741	0.045664
1146.192352	0.045862
1146.347945	0.046667
1146.503519	0.049211
1146.659076	0.048122
1146.814614	0.046332
1146.970134	0.043736
1147.125636	0.040004
1147.281120	0.039500
1147.436585	0.033232
1147.592032	0.038393
1147.747461	0.039051
1147.902872	0.042159
1148.058265	0.042671
1148.213639	0.041493
1148.368995	0.038908
1148.524333	0.044259
1148.679653	0.041535
1148.834954	0.041228
1148.990237	0.038460
1149.145502	0.040986
1149.300749	0.038278
1149.455977	0.034545
1149.611188	0.039882
1149.766380	0.046026
1149.921553	0.046832
1150.076709	0.051143
1150.231846	0.051487
1150.386966	0.049318
1150.542066	0.055419
1150.697149	0.053239
1150.852214	0.059092
1151.007260	0.053092
1151.162288	0.051950
1151.317298	0.047034
1151.472289	0.039449
1151.627263	0.042919
1151.782218	0.043974
1151.937155	0.038471
1152.092073	0.042337
1152.246974	0.046826
1152.401856	0.054121
1152.556720	0.054437
1152.711566	0.055189
1152.866393	0.062740
1153.021203	0.057439
1153.175994	0.057327
1153.330767	0.055197
1153.485521	0.046627
1153.640258	0.042649
1153.794976	0.039340
1153.949676	0.043002
1154.104358	0.040764
1154.259021	0.033753
1154.413667	0.033729
1154.568294	0.032672
1154.722903	0.030542
1154.877493	0.040629
1155.032066	0.046399
1155.186620	0.041216
1155.341156	0.045578
1155.495674	0.047916
1155.650173	0.059269
1155.804654	0.065522
1155.959118	0.060518
1156.113562	0.059984
1156.267989	0.056400
1156.422397	0.054672
1156.576788	0.058205
1156.731160	0.042314
1156.885513	0.040391
1157.039849	0.031679
1157.194166	0.027512
1157.348465	0.028125
1157.502746	0.031476
1157.657009	0.029536
1157.811253	0.024675
1157.965479	0.021094
1158.119687	0.024502
1158.273877	0.024274
1158.428048	0.027573
1158.582201	0.022938
1158.736337	0.022594
1158.890453	0.019334
1159.044552	0.020738
1159.198632	0.020554
1159.352694	0.020996
1159.506738	0.021505
1159.660764	0.023150
1159.814771	0.023880
1159.968761	0.031654
1160.122732	0.033015
1160.276685	0.032749
1160.430619	0.042061
1160.584535	0.050949
1160.738434	0.052773
1160.892313	0.054012
1161.046175	0.052568
1161.200019	0.050765
1161.353844	0.051971
1161.507651	0.061392
1161.661440	0.068611
1161.815210	0.054580
1161.968962	0.043416
1162.122697	0.048766
1162.276412	0.042632
1162.430110	0.044145
1162.583789	0.046112
1162.737451	0.042298
1162.891094	0.039277
1163.044718	0.037243
1163.198325	0.039559
1163.351913	0.038132
1163.505483	0.026568
1163.659035	0.036566
1163.812569	0.035891
1163.966084	0.039718
1164.119581	0.044556
1164.273060	0.042619
1164.426521	0.040794
1164.579964	0.042806
1164.733388	0.049540
1164.886794	0.059989
1165.040182	0.057096
1165.193551	0.062386
1165.346903	0.058688
1165.500236	0.052209
1165.653551	0.050332
1165.806848	0.050440
1165.960126	0.057399
1166.113386	0.054511
1166.266628	0.044625
1166.419852	0.035741
1166.573058	0.026006
1166.726245	0.028934
1166.879414	0.031297
1167.032565	0.034320
1167.185698	0.034948
1167.338812	0.023485
1167.491909	0.016569
1167.644987	0.020738
1167.798046	0.023695
1167.951088	0.026832
1168.104111	0.022424
1168.257117	0.028743
1168.410103	0.024382
1168.563072	0.021188
1168.716023	0.021788
1168.868955	0.021883
1169.021869	0.020275
1169.174765	0.026069
1169.327642	0.023110
1169.480501	0.030223
1169.633343	0.029653
1169.786165	0.032799
1169.938970	0.028051
1170.091757	0.030671
1170.244525	0.038452
1170.397275	0.048306
1170.550007	0.041451
1170.702720	0.038781
1170.855415	0.029096
1171.008092	0.022492
1171.160751	0.018814
1171.313392	0.024923
1171.466014	0.000348
1171.618619	0.031993
1171.771205	0.031993
1171.923772	0.031993
