sample name	sample
index	246
start time	 02-22-2021  11:44:56 AM


Wavelength (nm)	Absorbance
494.344910	0.066925
494.563924	0.066925
494.782919	0.066925
495.001897	0.021371
495.220856	-0.023043
495.439797	-0.027167
495.658719	-0.045090
495.877624	-0.055029
496.096510	-0.058455
496.315378	-0.072546
496.534227	-0.077039
496.753059	-0.061078
496.971872	-0.061603
497.190667	0.013043
497.409444	0.019858
497.628203	0.019982
497.846943	0.021483
498.065665	0.021682
498.284369	0.023051
498.503055	0.024188
498.721723	0.023016
498.940372	0.023031
499.159003	0.021847
499.377616	0.021668
499.596210	0.023072
499.814787	0.023577
500.033345	0.023398
500.251885	0.023697
500.470406	0.022634
500.688910	0.023425
500.907395	0.022578
501.125862	0.022905
501.344311	0.022267
501.562742	0.021414
501.781154	0.020818
501.999548	0.021232
502.217924	0.020654
502.436282	0.021734
502.654621	0.021676
502.872942	0.021899
503.091245	0.021586
503.309530	0.021775
503.527797	0.021382
503.746045	0.021539
503.964275	0.021058
504.182487	0.021688
504.400681	0.021138
504.618856	0.020819
504.837013	0.021035
505.055152	0.021116
505.273273	0.021289
505.491376	0.021446
505.709460	0.021678
505.927526	0.021249
506.145574	0.021503
506.363604	0.021393
506.581615	0.022363
506.799608	0.023979
507.017583	0.024787
507.235540	0.025192
507.453478	0.025426
507.671399	0.025321
507.889301	0.026566
508.107185	0.026705
508.325050	0.026618
508.542898	0.025986
508.760727	0.025057
508.978538	0.024614
509.196330	0.024264
509.414105	0.024564
509.631861	0.024692
509.849599	0.024862
510.067319	0.024271
510.285021	0.024453
510.502704	0.024099
510.720369	0.024052
510.938016	0.023954
511.155645	0.025062
511.373255	0.025513
511.590848	0.026128
511.808422	0.025901
512.025977	0.025769
512.243515	0.026365
512.461034	0.027041
512.678536	0.027341
512.896018	0.027663
513.113483	0.027383
513.330930	0.027093
513.548358	0.026102
513.765768	0.025944
513.983160	0.026210
514.200533	0.026000
514.417889	0.026231
514.635226	0.025958
514.852545	0.025734
515.069845	0.024931
515.287128	0.024987
515.504392	0.025601
515.721638	0.025552
515.938866	0.025642
516.156075	0.025490
516.373267	0.025000
516.590440	0.024984
516.807594	0.024632
517.024731	0.025119
517.241850	0.025552
517.458950	0.025390
517.676032	0.025993
517.893095	0.026598
518.110141	0.027092
518.327168	0.027320
518.544177	0.028156
518.761168	0.028527
518.978141	0.029113
519.195095	0.029496
519.412031	0.029807
519.628949	0.029934
519.845849	0.029319
520.062731	0.029727
520.279594	0.030376
520.496439	0.029839
520.713266	0.030304
520.930074	0.030077
521.146865	0.030042
521.363637	0.029951
521.580391	0.029859
521.797127	0.030152
522.013844	0.029987
522.230543	0.029743
522.447224	0.030088
522.663887	0.030360
522.880532	0.030260
523.097158	0.030013
523.313766	0.030507
523.530356	0.030491
523.746928	0.030549
523.963481	0.030619
524.180017	0.031001
524.396534	0.030982
524.613032	0.030641
524.829513	0.031031
525.045975	0.030892
525.262420	0.031134
525.478845	0.031093
525.695253	0.031450
525.911643	0.031752
526.128014	0.031347
526.344367	0.031698
526.560702	0.032385
526.777018	0.032371
526.993316	0.032830
527.209597	0.032210
527.425858	0.032948
527.642102	0.032645
527.858328	0.033008
528.074535	0.033757
528.290724	0.033891
528.506894	0.033584
528.723047	0.033673
528.939181	0.033835
529.155297	0.034330
529.371395	0.034392
529.587475	0.035091
529.803536	0.034412
530.019579	0.034286
530.235604	0.034689
530.451611	0.035231
530.667600	0.035263
530.883570	0.035597
531.099522	0.035483
531.315456	0.035145
531.531372	0.035071
531.747269	0.035436
531.963148	0.035468
532.179009	0.035295
532.394852	0.035664
532.610676	0.036121
532.826482	0.036067
533.042271	0.036591
533.258040	0.036818
533.473792	0.036949
533.689525	0.037387
533.905240	0.037498
534.120937	0.037621
534.336616	0.037511
534.552277	0.037717
534.767919	0.037822
534.983543	0.037933
535.199149	0.038388
535.414736	0.038454
535.630306	0.038680
535.845857	0.038814
536.061390	0.039346
536.276904	0.039336
536.492401	0.039591
536.707879	0.039779
536.923339	0.040241
537.138781	0.040332
537.354204	0.040660
537.569610	0.040894
537.784997	0.041177
538.000366	0.041153
538.215716	0.041296
538.431049	0.041129
538.646363	0.041174
538.861659	0.041632
539.076937	0.041514
539.292196	0.041985
539.507438	0.042134
539.722661	0.042231
539.937866	0.041954
540.153052	0.042471
540.368221	0.042584
540.583371	0.042658
540.798503	0.042282
541.013617	0.042622
541.228712	0.042341
541.443789	0.042407
541.658848	0.042723
541.873889	0.042969
542.088912	0.042642
542.303916	0.042801
542.518902	0.043127
542.733870	0.043217
542.948820	0.043306
543.163752	0.043327
543.378665	0.043168
543.593560	0.043138
543.808437	0.043345
544.023295	0.043778
544.238136	0.044262
544.452958	0.044280
544.667762	0.044381
544.882548	0.044366
545.097315	0.044544
545.312064	0.044625
545.526795	0.044819
545.741508	0.044927
545.956203	0.045347
546.170879	0.045023
546.385537	0.045327
546.600177	0.045340
546.814799	0.045545
547.029402	0.045537
547.243988	0.045869
547.458555	0.046308
547.673103	0.046676
547.887634	0.046542
548.102146	0.047188
548.316640	0.047167
548.531116	0.047307
548.745574	0.047533
548.960013	0.048019
549.174435	0.048023
549.388838	0.047869
549.603222	0.047607
549.817589	0.047645
550.031937	0.047342
550.246267	0.047852
550.460579	0.048041
550.674873	0.047897
550.889148	0.047791
551.103405	0.047822
551.317644	0.048025
551.531865	0.048481
551.746068	0.048394
551.960252	0.048799
552.174418	0.048344
552.388566	0.048609
552.602696	0.048922
552.816807	0.048972
553.030900	0.049090
553.244975	0.048903
553.459032	0.049124
553.673070	0.049404
553.887091	0.049382
554.101093	0.049744
554.315077	0.049540
554.529042	0.049627
554.742990	0.049803
554.956919	0.049946
555.170830	0.050050
555.384722	0.049938
555.598597	0.049927
555.812453	0.050106
556.026291	0.050045
556.240111	0.050166
556.453913	0.050261
556.667696	0.050474
556.881461	0.050962
557.095208	0.051075
557.308937	0.051224
557.522647	0.051596
557.736339	0.051565
557.950013	0.052017
558.163669	0.052138
558.377307	0.052358
558.590926	0.052414
558.804527	0.052220
559.018110	0.052333
559.231675	0.052553
559.445221	0.052597
559.658749	0.052922
559.872259	0.053073
560.085751	0.053638
560.299225	0.053345
560.512680	0.053530
560.726117	0.053513
560.939536	0.053876
561.152937	0.053835
561.366319	0.053868
561.579683	0.053464
561.793029	0.052936
562.006357	0.052678
562.219667	0.053038
562.432958	0.052916
562.646231	0.053160
562.859486	0.053330
563.072723	0.053434
563.285941	0.053335
563.499141	0.053403
563.712323	0.054053
563.925487	0.054236
564.138632	0.054209
564.351760	0.054226
564.564869	0.054108
564.777960	0.053923
564.991032	0.053798
565.204087	0.053688
565.417123	0.054131
565.630141	0.053795
565.843140	0.053832
566.056122	0.054013
566.269085	0.054644
566.482030	0.055052
566.694957	0.055153
566.907866	0.055243
567.120756	0.055648
567.333628	0.055344
567.546482	0.055332
567.759318	0.055426
567.972135	0.055663
568.184935	0.055346
568.397716	0.055132
568.610478	0.055128
568.823223	0.055477
569.035949	0.055398
569.248657	0.055587
569.461347	0.055985
569.674019	0.056373
569.886672	0.056400
570.099308	0.056669
570.311925	0.057190
570.524523	0.057564
570.737104	0.057642
570.949666	0.057957
571.162210	0.058091
571.374736	0.058131
571.587244	0.057964
571.799733	0.058267
572.012205	0.058212
572.224658	0.058025
572.437092	0.058011
572.649509	0.057732
572.861907	0.057908
573.074287	0.058157
573.286649	0.058249
573.498993	0.058176
573.711318	0.058222
573.923625	0.058478
574.135914	0.058433
574.348185	0.058424
574.560438	0.058849
574.772672	0.058775
574.984888	0.058890
575.197086	0.059002
575.409266	0.058899
575.621427	0.058872
575.833570	0.058888
576.045695	0.059080
576.257802	0.059365
576.469890	0.059622
576.681961	0.059609
576.894013	0.059832
577.106046	0.059959
577.318062	0.060468
577.530059	0.060320
577.742039	0.060642
577.954000	0.060609
578.165942	0.060431
578.377867	0.060463
578.589773	0.060671
578.801661	0.060286
579.013531	0.060625
579.225382	0.060520
579.437216	0.060886
579.649031	0.060839
579.860828	0.060849
580.072606	0.061185
580.284367	0.061104
580.496109	0.061351
580.707833	0.061964
580.919539	0.062064
581.131227	0.062327
581.342896	0.062614
581.554547	0.062721
581.766180	0.063237
581.977795	0.063332
582.189391	0.063604
582.400969	0.063881
582.612529	0.063730
582.824071	0.063718
583.035595	0.063816
583.247100	0.063480
583.458587	0.063709
583.670056	0.063814
583.881506	0.063871
584.092939	0.064041
584.304353	0.063936
584.515749	0.064269
584.727127	0.064698
584.938486	0.064790
585.149828	0.065074
585.361151	0.065180
585.572456	0.065220
585.783742	0.065588
585.995011	0.065567
586.206261	0.065420
586.417493	0.065517
586.628706	0.065383
586.839902	0.065545
587.051079	0.065772
587.262238	0.065665
587.473379	0.065778
587.684502	0.065786
587.895606	0.065900
588.106692	0.066114
588.317760	0.066370
588.528810	0.066401
588.739841	0.066273
588.950855	0.066182
589.161850	0.066120
589.372827	0.066396
589.583785	0.066454
589.794726	0.066697
590.005648	0.066759
590.216552	0.066469
590.427437	0.066634
590.638305	0.066923
590.849154	0.067007
591.059985	0.067539
591.270798	0.067435
591.481592	0.067362
591.692369	0.067261
591.903127	0.067480
592.113867	0.067725
592.324588	0.068032
592.535292	0.068289
592.745977	0.068395
592.956644	0.068307
593.167293	0.068406
593.377923	0.068746
593.588536	0.068680
593.799130	0.069060
594.009706	0.069168
594.220263	0.068976
594.430803	0.069075
594.641324	0.069086
594.851827	0.069262
595.062312	0.069573
595.272778	0.069584
595.483227	0.070197
595.693657	0.069991
595.904069	0.070154
596.114462	0.070288
596.324838	0.070209
596.535195	0.070890
596.745534	0.070869
596.955855	0.071234
597.166157	0.071362
597.376441	0.071055
597.586707	0.071260
597.796955	0.071151
598.007185	0.071232
598.217396	0.071390
598.427589	0.071200
598.637764	0.071492
598.847921	0.070854
599.058060	0.070961
599.268180	0.071061
599.478282	0.071187
599.688366	0.071439
599.898431	0.071447
600.108479	0.071752
600.318508	0.071809
600.528519	0.071621
600.738511	0.071968
600.948486	0.071971
601.158442	0.072159
601.368380	0.072156
601.578300	0.072088
601.788202	0.072035
601.998085	0.071816
602.207950	0.071661
602.417797	0.071874
602.627626	0.071701
602.837436	0.071804
603.047228	0.071778
603.257002	0.071852
603.466758	0.071967
603.676496	0.072323
603.886215	0.072541
604.095916	0.072835
604.305599	0.073071
604.515264	0.073448
604.724910	0.073567
604.934538	0.073672
605.144148	0.073669
605.353740	0.073896
605.563314	0.074061
605.772869	0.074188
605.982406	0.074379
606.191925	0.074049
606.401425	0.074109
606.610908	0.073829
606.820372	0.074262
607.029818	0.074664
607.239246	0.074676
607.448655	0.074549
607.658047	0.074639
607.867420	0.074611
608.076775	0.074756
608.286111	0.075072
608.495430	0.075656
608.704730	0.075475
608.914012	0.075442
609.123275	0.075709
609.332521	0.075988
609.541748	0.076265
609.750957	0.076356
609.960148	0.076578
610.169321	0.076601
610.378475	0.076350
610.587611	0.076567
610.796729	0.076631
611.005829	0.076686
611.214910	0.076817
611.423974	0.076900
611.633019	0.076994
611.842045	0.077122
612.051054	0.077082
612.260044	0.077207
612.469017	0.077154
612.677970	0.077092
612.886906	0.077062
613.095824	0.076824
613.304723	0.076412
613.513604	0.076248
613.722467	0.076018
613.931311	0.075966
614.140138	0.075960
614.348946	0.076113
614.557736	0.076018
614.766507	0.076128
614.975261	0.076183
615.183996	0.076362
615.392713	0.076504
615.601412	0.076896
615.810092	0.077089
616.018754	0.077333
616.227399	0.077339
616.436024	0.077485
616.644632	0.077460
616.853222	0.077585
617.061793	0.077654
617.270346	0.077738
617.478880	0.077867
617.687397	0.077945
617.895895	0.078088
618.104375	0.078249
618.312837	0.078419
618.521281	0.078485
618.729706	0.078458
618.938113	0.078446
619.146502	0.078456
619.354873	0.078219
619.563226	0.078406
619.771560	0.078511
619.979876	0.078442
620.188174	0.078343
620.396453	0.078383
620.604715	0.078628
620.812958	0.078923
621.021183	0.079197
621.229390	0.079450
621.437578	0.079459
621.645748	0.079487
621.853900	0.079668
622.062034	0.079786
622.270150	0.079792
622.478247	0.079854
622.686326	0.079997
622.894387	0.079974
623.102430	0.079922
623.310454	0.080098
623.518461	0.080102
623.726449	0.080000
623.934418	0.080316
624.142370	0.080539
624.350303	0.080664
624.558218	0.080666
624.766115	0.080906
624.973994	0.081239
625.181855	0.081453
625.389697	0.081433
625.597521	0.081693
625.805327	0.081591
626.013114	0.081589
626.220883	0.081641
626.428634	0.081591
626.636367	0.081639
626.844082	0.081653
627.051778	0.081344
627.259457	0.081369
627.467117	0.081321
627.674758	0.081498
627.882382	0.081520
628.089987	0.081382
628.297574	0.081565
628.505143	0.081549
628.712694	0.081568
628.920226	0.081704
629.127740	0.081864
629.335236	0.081910
629.542714	0.081987
629.750174	0.082214
629.957615	0.082469
630.165038	0.082385
630.372443	0.082429
630.579829	0.082400
630.787198	0.082662
630.994548	0.082837
631.201880	0.083148
631.409194	0.083262
631.616489	0.083408
631.823766	0.083576
632.031025	0.083844
632.238266	0.083802
632.445489	0.084096
632.652693	0.084123
632.859879	0.084156
633.067047	0.084167
633.274197	0.084280
633.481329	0.084586
633.688442	0.084509
633.895537	0.084647
634.102614	0.084795
634.309672	0.084805
634.516713	0.085015
634.723735	0.085262
634.930739	0.085308
635.137724	0.085139
635.344692	0.084791
635.551641	0.084830
635.758572	0.084792
635.965485	0.084929
636.172379	0.085069
636.379256	0.084946
636.586114	0.084857
636.792954	0.084985
636.999775	0.085326
637.206579	0.085396
637.413364	0.085503
637.620131	0.085622
637.826880	0.085692
638.033610	0.085714
638.240323	0.085879
638.447017	0.086037
638.653692	0.086109
638.860350	0.086170
639.066990	0.086445
639.273611	0.086881
639.480214	0.087016
639.686798	0.087195
639.893365	0.087343
640.099913	0.087362
640.306443	0.087732
640.512955	0.087966
640.719449	0.087958
640.925924	0.087987
641.132381	0.088009
641.338820	0.088244
641.545241	0.088395
641.751644	0.088508
641.958028	0.088631
642.164394	0.088341
642.370742	0.088365
642.577071	0.088685
642.783383	0.088800
642.989676	0.088842
643.195951	0.088872
643.402207	0.088954
643.608446	0.089173
643.814666	0.089136
644.020868	0.089331
644.227052	0.089360
644.433218	0.089351
644.639365	0.089333
644.845494	0.089398
645.051605	0.089340
645.257698	0.089411
645.463772	0.089287
645.669828	0.089399
645.875866	0.089493
646.081886	0.089403
646.287888	0.089438
646.493871	0.089555
646.699836	0.089567
646.905783	0.089693
647.111712	0.089954
647.317622	0.090221
647.523514	0.090587
647.729388	0.090879
647.935244	0.091181
648.141082	0.091528
648.346901	0.091805
648.552702	0.091910
648.758485	0.092297
648.964250	0.092376
649.169996	0.092453
649.375724	0.092321
649.581434	0.092327
649.787126	0.092374
649.992800	0.092047
650.198455	0.092083
650.404092	0.092354
650.609711	0.092426
650.815311	0.092469
651.020894	0.092445
651.226458	0.092438
651.432004	0.092620
651.637532	0.092655
651.843041	0.093053
652.048532	0.093070
652.254006	0.092957
652.459460	0.092823
652.664897	0.092855
652.870315	0.092946
653.075716	0.093186
653.281097	0.092976
653.486461	0.093071
653.691807	0.093136
653.897134	0.093222
654.102443	0.093291
654.307734	0.093340
654.513006	0.093430
654.718261	0.093411
654.923497	0.093547
655.128715	0.093644
655.333915	0.093793
655.539096	0.093908
655.744259	0.094252
655.949404	0.094454
656.154531	0.094727
656.359640	0.095062
656.564730	0.095272
656.769802	0.095340
656.974856	0.095701
657.179892	0.096102
657.384909	0.096228
657.589908	0.096087
657.794889	0.096358
657.999852	0.096255
658.204797	0.096313
658.409723	0.096467
658.614631	0.096875
658.819521	0.097025
659.024393	0.096766
659.229246	0.097061
659.434081	0.097361
659.638898	0.097447
659.843697	0.097640
660.048478	0.097808
660.253240	0.097838
660.457984	0.097554
660.662710	0.097492
660.867417	0.097718
661.072107	0.097618
661.276778	0.097719
661.481431	0.097670
661.686066	0.097925
661.890682	0.097668
662.095281	0.097928
662.299861	0.098093
662.504422	0.098112
662.708966	0.098215
662.913491	0.098351
663.117999	0.098250
663.322488	0.098286
663.526958	0.098168
663.731411	0.098528
663.935845	0.098511
664.140261	0.098748
664.344659	0.098906
664.549038	0.098892
664.753400	0.098974
664.957743	0.099183
665.162068	0.099389
665.366375	0.099621
665.570663	0.099733
665.774933	0.099754
665.979185	0.099797
666.183419	0.099971
666.387635	0.100141
666.591832	0.100191
666.796011	0.100366
667.000172	0.100468
667.204315	0.100574
667.408439	0.100503
667.612545	0.100718
667.816634	0.100864
668.020703	0.100922
668.224755	0.101098
668.428788	0.101305
668.632803	0.101394
668.836800	0.101465
669.040779	0.101500
669.244739	0.101488
669.448681	0.101433
669.652605	0.101284
669.856511	0.101385
670.060399	0.101393
670.264268	0.101313
670.468119	0.101365
670.671952	0.101498
670.875767	0.101644
671.079563	0.102069
671.283341	0.102344
671.487101	0.102769
671.690843	0.103017
671.894567	0.103191
672.098272	0.103404
672.301959	0.103598
672.505628	0.103851
672.709278	0.103991
672.912911	0.103904
673.116525	0.103890
673.320121	0.103828
673.523699	0.104045
673.727258	0.104243
673.930799	0.104372
674.134322	0.104358
674.337827	0.104314
674.541314	0.104385
674.744782	0.104536
674.948232	0.104831
675.151664	0.105033
675.355078	0.104933
675.558474	0.104986
675.761851	0.104930
675.965210	0.105193
676.168551	0.105399
676.371873	0.105580
676.575178	0.105681
676.778464	0.105681
676.981732	0.105780
677.184981	0.105789
677.388213	0.105651
677.591426	0.105745
677.794621	0.105814
677.997798	0.105860
678.200956	0.105880
678.404097	0.106040
678.607219	0.106353
678.810323	0.106318
679.013408	0.106473
679.216476	0.106775
679.419525	0.106944
679.622556	0.106923
679.825569	0.106853
680.028563	0.106904
680.231540	0.107060
680.434498	0.106994
680.637438	0.107074
680.840359	0.107161
681.043263	0.107278
681.246148	0.107364
681.449015	0.107411
681.651864	0.107615
681.854694	0.107920
682.057506	0.107735
682.260301	0.107837
682.463076	0.107886
682.665834	0.108012
682.868573	0.108193
683.071295	0.108332
683.273998	0.108506
683.476682	0.108628
683.679349	0.108663
683.881997	0.109133
684.084627	0.109149
684.287239	0.109374
684.489833	0.109466
684.692408	0.109493
684.894965	0.109667
685.097504	0.109776
685.300025	0.110021
685.502527	0.110050
685.705012	0.109933
685.907478	0.110044
686.109925	0.110117
686.312355	0.110238
686.514766	0.110411
686.717159	0.110489
686.919534	0.110690
687.121891	0.110657
687.324230	0.110923
687.526550	0.111088
687.728852	0.111195
687.931136	0.111347
688.133401	0.111379
688.335649	0.111411
688.537878	0.111401
688.740089	0.111223
688.942281	0.111248
689.144456	0.111146
689.346612	0.111263
689.548750	0.111243
689.750870	0.111362
689.952971	0.111538
690.155055	0.111695
690.357120	0.111727
690.559167	0.112012
690.761195	0.112175
690.963206	0.112173
691.165198	0.112144
691.367172	0.112473
691.569128	0.112387
691.771065	0.112481
691.972984	0.112456
692.174885	0.112749
692.376768	0.112874
692.578633	0.112972
692.780479	0.113157
692.982308	0.113305
693.184118	0.113310
693.385909	0.113495
693.587683	0.113452
693.789438	0.113603
693.991175	0.113713
694.192894	0.113681
694.394595	0.113844
694.596277	0.113844
694.797941	0.114145
694.999587	0.114144
695.201215	0.114292
695.402824	0.114377
695.604416	0.114464
695.805989	0.114438
696.007543	0.114689
696.209080	0.114737
696.410598	0.114968
696.612099	0.114807
696.813580	0.114903
697.015044	0.114994
697.216490	0.115154
697.417917	0.115156
697.619326	0.115231
697.820717	0.115194
698.022089	0.115146
698.223444	0.115095
698.424780	0.115141
698.626098	0.115204
698.827397	0.115308
699.028679	0.115324
699.229942	0.115359
699.431187	0.115330
699.632414	0.115282
699.833622	0.115282
700.034813	0.115123
700.235985	0.115053
700.437139	0.115129
700.638274	0.115026
700.839392	0.115327
701.040491	0.115383
701.241572	0.115390
701.442635	0.115521
701.643679	0.115605
701.844706	0.115730
702.045714	0.115838
702.246704	0.115739
702.447675	0.115913
702.648629	0.115695
702.849564	0.115765
703.050481	0.115989
703.251380	0.116099
703.452260	0.116186
703.653122	0.116295
703.853966	0.116218
704.054792	0.116201
704.255600	0.115972
704.456389	0.115990
704.657160	0.116063
704.857913	0.115955
705.058648	0.115987
705.259365	0.115971
705.460063	0.115917
705.660743	0.116079
705.861405	0.116230
706.062048	0.116413
706.262674	0.116438
706.463281	0.116205
706.663870	0.115992
706.864441	0.115907
707.064993	0.115778
707.265527	0.115839
707.466043	0.115676
707.666541	0.115712
707.867021	0.115610
708.067482	0.115647
708.267925	0.115887
708.468350	0.116147
708.668757	0.116147
708.869145	0.116425
709.069516	0.116727
709.269868	0.116856
709.470201	0.116850
709.670517	0.116996
709.870814	0.116936
710.071093	0.116824
710.271354	0.116987
710.471597	0.116912
710.671821	0.116963
710.872028	0.116814
711.072216	0.116988
711.272385	0.116978
711.472537	0.116922
711.672670	0.117035
711.872785	0.117276
712.072882	0.117273
712.272961	0.117530
712.473021	0.117540
712.673063	0.117598
712.873087	0.117675
713.073093	0.117962
713.273081	0.118019
713.473050	0.118007
713.673001	0.117950
713.872934	0.117930
714.072849	0.117945
714.272745	0.117867
714.472623	0.117951
714.672483	0.117933
714.872325	0.117875
715.072148	0.117898
715.271954	0.117798
715.471741	0.117764
715.671509	0.117841
715.871260	0.117717
716.070992	0.117654
716.270707	0.117651
716.470403	0.117578
716.670080	0.117540
716.869740	0.117436
717.069381	0.117531
717.269004	0.117501
717.468609	0.117373
717.668195	0.117421
717.867764	0.117628
718.067314	0.117615
718.266846	0.117624
718.466360	0.117353
718.665855	0.117555
718.865332	0.117538
719.064791	0.117323
719.264232	0.117190
719.463655	0.117176
719.663059	0.116927
719.862445	0.116878
720.061813	0.116767
720.261163	0.117125
720.460494	0.117121
720.659807	0.117084
720.859102	0.117422
721.058379	0.117700
721.257638	0.117687
721.456878	0.117843
721.656100	0.117842
721.855304	0.117773
722.054490	0.117586
722.253657	0.117551
722.452806	0.117686
722.651937	0.117596
722.851050	0.117363
723.050145	0.117202
723.249221	0.117138
723.448279	0.117067
723.647319	0.117035
723.846340	0.117002
724.045344	0.116914
724.244329	0.116836
724.443296	0.116865
724.642245	0.116980
724.841175	0.117184
725.040088	0.117008
725.238982	0.117143
725.437857	0.117149
725.636715	0.117099
725.835554	0.117157
726.034376	0.117262
726.233179	0.116859
726.431963	0.116543
726.630730	0.116488
726.829478	0.116669
727.028208	0.116549
727.226920	0.116746
727.425614	0.116685
727.624289	0.116569
727.822946	0.116256
728.021585	0.116462
728.220206	0.116702
728.418808	0.116491
728.617392	0.116430
728.815958	0.116240
729.014506	0.116062
729.213036	0.116267
729.411547	0.116159
729.610040	0.116220
729.808515	0.116175
730.006972	0.116128
730.205410	0.116208
730.403831	0.116013
730.602233	0.115939
730.800616	0.115833
730.998982	0.115642
731.197329	0.115676
731.395658	0.115506
731.593969	0.115365
731.792262	0.115130
731.990536	0.115048
732.188793	0.115072
732.387031	0.115041
732.585250	0.115048
732.783452	0.114983
732.981635	0.114772
733.179800	0.114788
733.377947	0.114816
733.576076	0.114756
733.774186	0.114720
733.972278	0.114661
734.170352	0.114548
734.368408	0.114380
734.566446	0.114107
734.764465	0.114045
734.962466	0.113966
735.160449	0.113757
735.358413	0.113754
735.556360	0.113626
735.754288	0.113524
735.952198	0.113391
736.150090	0.113287
736.347963	0.113562
736.545818	0.113636
736.743655	0.113573
736.941474	0.113574
737.139275	0.113441
737.337057	0.113399
737.534821	0.113198
737.732567	0.113283
737.930295	0.113247
738.128005	0.112706
738.325696	0.112560
738.523369	0.112358
738.721024	0.112300
738.918660	0.112248
739.116279	0.111954
739.313879	0.111855
739.511461	0.111690
739.709024	0.111539
739.906570	0.111657
740.104097	0.111483
740.301606	0.111447
740.499097	0.111305
740.696569	0.111082
740.894024	0.111198
741.091460	0.111248
741.288878	0.111122
741.486277	0.111071
741.683659	0.110925
741.881022	0.110643
742.078367	0.110697
742.275694	0.110642
742.473002	0.110685
742.670293	0.110473
742.867565	0.110406
743.064819	0.110322
743.262054	0.110151
743.459272	0.110267
743.656471	0.110589
743.853652	0.110398
744.050815	0.110300
744.247959	0.110156
744.445085	0.110144
744.642194	0.110170
744.839283	0.110137
745.036355	0.110012
745.233408	0.109446
745.430444	0.109181
745.627461	0.109068
745.824459	0.108913
746.021440	0.108987
746.218402	0.108800
746.415346	0.108574
746.612272	0.108432
746.809180	0.108394
747.006069	0.108608
747.202940	0.108319
747.399793	0.108311
747.596628	0.108417
747.793444	0.108146
747.990243	0.108238
748.187023	0.108244
748.383784	0.108138
748.580528	0.108286
748.777253	0.108407
748.973960	0.108514
749.170649	0.108506
749.367320	0.108224
749.563973	0.108290
749.760607	0.108099
749.957223	0.107958
750.153821	0.107975
750.350400	0.107863
750.546962	0.107600
750.743505	0.107617
750.940030	0.107539
751.136536	0.107667
751.333025	0.107508
751.529495	0.107514
751.725947	0.107443
751.922381	0.107121
752.118796	0.106831
752.315194	0.106656
752.511573	0.106460
752.707934	0.106328
752.904276	0.106149
753.100601	0.106023
753.296907	0.105999
753.493195	0.105744
753.689465	0.105779
753.885716	0.105853
754.081949	0.105724
754.278164	0.105522
754.474361	0.105427
754.670540	0.105307
754.866700	0.105381
755.062843	0.105196
755.258967	0.105189
755.455072	0.105288
755.651160	0.105222
755.847229	0.105342
756.043280	0.105390
756.239313	0.105065
756.435328	0.105033
756.631324	0.104998
756.827302	0.104915
757.023262	0.104785
757.219204	0.104575
757.415127	0.104330
757.611033	0.104262
757.806920	0.104082
758.002788	0.104220
758.198639	0.104138
758.394471	0.103910
758.590286	0.103869
758.786081	0.103944
758.981859	0.103793
759.177619	0.103731
759.373360	0.103585
759.569083	0.103662
759.764788	0.103633
759.960474	0.103759
760.156143	0.103731
760.351793	0.103509
760.547425	0.103236
760.743038	0.103566
760.938634	0.103616
761.134211	0.103574
761.329770	0.103438
761.525311	0.103286
761.720833	0.103006
761.916338	0.103155
762.111824	0.103145
762.307292	0.103227
762.502741	0.102858
762.698173	0.102780
762.893586	0.102521
763.088981	0.102480
763.284358	0.102564
763.479716	0.102576
763.675057	0.102287
763.870379	0.102217
764.065683	0.102052
764.260968	0.102309
764.456236	0.102199
764.651485	0.102517
764.846716	0.102516
765.041929	0.102192
765.237123	0.102079
765.432299	0.101841
765.627457	0.101734
765.822597	0.101855
766.017719	0.101633
766.212822	0.101687
766.407907	0.101483
766.602974	0.101458
766.798023	0.101746
766.993054	0.101747
767.188066	0.101773
767.383060	0.101702
767.578036	0.101518
767.772993	0.101436
767.967933	0.101165
768.162854	0.101154
768.357757	0.101277
768.552642	0.100917
768.747508	0.100920
768.942356	0.100980
769.137186	0.101167
769.331998	0.101198
769.526792	0.101062
769.721567	0.101190
769.916324	0.101002
770.111063	0.100649
770.305784	0.100550
770.500486	0.100491
770.695171	0.100197
770.889837	0.099978
771.084484	0.099747
771.279114	0.099595
771.473725	0.099627
771.668318	0.099640
771.862893	0.099721
772.057450	0.099794
772.251988	0.099744
772.446509	0.099799
772.641011	0.099681
772.835494	0.099870
773.029960	0.099901
773.224407	0.099744
773.418836	0.099760
773.613247	0.099478
773.807640	0.099263
774.002014	0.099033
774.196370	0.099015
774.390708	0.099092
774.585028	0.098808
774.779330	0.098850
774.973613	0.098754
775.167878	0.098581
775.362125	0.098534
775.556354	0.098654
775.750564	0.098725
775.944756	0.098939
776.138930	0.098950
776.333086	0.099026
776.527223	0.099021
776.721343	0.099007
776.915444	0.099222
777.109526	0.099537
777.303591	0.099471
777.497637	0.099321
777.691666	0.099070
777.885676	0.099138
778.079667	0.099317
778.273641	0.099083
778.467596	0.099027
778.661533	0.098882
778.855452	0.098566
779.049352	0.098561
779.243235	0.098593
779.437099	0.098685
779.630945	0.098432
779.824773	0.098174
780.018582	0.098162
780.212373	0.098276
780.406146	0.098279
780.599901	0.098351
780.793638	0.098289
780.987356	0.098100
781.181056	0.098105
781.374738	0.098150
781.568402	0.098006
781.762047	0.097965
781.955674	0.097923
782.149283	0.097825
782.342874	0.097794
782.536447	0.097845
782.730001	0.098100
782.923537	0.098004
783.117055	0.097969
783.310555	0.098180
783.504036	0.098212
783.697499	0.098082
783.890944	0.098009
784.084371	0.098105
784.277780	0.098136
784.471170	0.098397
784.664542	0.098496
784.857896	0.098801
785.051231	0.098785
785.244549	0.098853
785.437848	0.098931
785.631129	0.098964
785.824392	0.099067
786.017636	0.099145
786.210863	0.098791
786.404071	0.098861
786.597260	0.098764
786.790432	0.098866
786.983585	0.099094
787.176721	0.099386
787.369838	0.099590
787.562936	0.099700
787.756017	0.099888
787.949079	0.100168
788.142123	0.100186
788.335149	0.100033
788.528156	0.100105
788.721146	0.099928
788.914117	0.099729
789.107070	0.099703
789.300005	0.099496
789.492921	0.099463
789.685819	0.099456
789.878699	0.099540
790.071561	0.099615
790.264405	0.099654
790.457230	0.099665
790.650037	0.099571
790.842826	0.099520
791.035597	0.099486
791.228349	0.099463
791.421084	0.099332
791.613800	0.099315
791.806497	0.099381
791.999177	0.099106
792.191838	0.099247
792.384481	0.099414
792.577106	0.099573
792.769713	0.099757
792.962301	0.099649
793.154871	0.099698
793.347423	0.099646
793.539957	0.099690
793.732473	0.100027
793.924970	0.099858
794.117449	0.100126
794.309910	0.100186
794.502353	0.100312
794.694777	0.100436
794.887183	0.100359
795.079571	0.100256
795.271941	0.100389
795.464293	0.100223
795.656626	0.100421
795.848941	0.100280
796.041238	0.100204
796.233516	0.100066
796.425777	0.100289
796.618019	0.100621
796.810243	0.100785
797.002449	0.100617
797.194636	0.100811
797.386805	0.100902
797.578956	0.101105
797.771089	0.101203
797.963204	0.101362
798.155300	0.101301
798.347378	0.101118
798.539438	0.101315
798.731480	0.101473
798.923503	0.101520
799.115509	0.101444
799.307496	0.101519
799.499465	0.101589
799.691415	0.101616
799.883348	0.101815
800.075262	0.101785
800.267158	0.102007
800.459035	0.102211
800.650895	0.102206
800.842736	0.102473
801.034559	0.102386
801.226364	0.102503
801.418150	0.102481
801.609919	0.102455
801.801669	0.102531
801.993401	0.102225
802.185114	0.102024
802.376810	0.102173
802.568487	0.102399
802.760146	0.102494
802.951787	0.102598
803.143409	0.102706
803.335014	0.102729
803.526600	0.102950
803.718168	0.103194
803.909717	0.103391
804.101249	0.103272
804.292762	0.102952
804.484257	0.102987
804.675734	0.102805
804.867192	0.102923
805.058632	0.102921
805.250054	0.103012
805.441458	0.103037
805.632844	0.103192
805.824211	0.103371
806.015561	0.103735
806.206891	0.103685
806.398204	0.104057
806.589499	0.104058
806.780775	0.104268
806.972033	0.104193
807.163273	0.104443
807.354495	0.104544
807.545698	0.104760
807.736883	0.104782
807.928050	0.104932
808.119199	0.105005
808.310329	0.105128
808.501441	0.105185
808.692535	0.105400
808.883611	0.105435
809.074669	0.105709
809.265708	0.105845
809.456729	0.106085
809.647732	0.106486
809.838717	0.106570
810.029683	0.106941
810.220632	0.107149
810.411562	0.107251
810.602474	0.107290
810.793367	0.107389
810.984242	0.107421
811.175100	0.107258
811.365938	0.107283
811.556759	0.107602
811.747562	0.107776
811.938346	0.107759
812.129112	0.107966
812.319860	0.108316
812.510589	0.108552
812.701300	0.108759
812.891994	0.109002
813.082668	0.109003
813.273325	0.109063
813.463964	0.108958
813.654584	0.108907
813.845186	0.109232
814.035769	0.109232
814.226335	0.109211
814.416882	0.109345
814.607411	0.109601
814.797922	0.109868
814.988415	0.109717
815.178889	0.110046
815.369345	0.110640
815.559783	0.110541
815.750203	0.110580
815.940605	0.110725
816.130988	0.110853
816.321353	0.110954
816.511700	0.111041
816.702028	0.111064
816.892339	0.111314
817.082631	0.111477
817.272905	0.111768
817.463161	0.111819
817.653398	0.111998
817.843617	0.112119
818.033819	0.112281
818.224001	0.112272
818.414166	0.112746
818.604312	0.112775
818.794440	0.112815
818.984550	0.112735
819.174642	0.112913
819.364716	0.112974
819.554771	0.112842
819.744808	0.112962
819.934827	0.113279
820.124827	0.113425
820.314810	0.113261
820.504774	0.113158
820.694720	0.113671
820.884647	0.114081
821.074557	0.114164
821.264448	0.114537
821.454321	0.114725
821.644176	0.114979
821.834012	0.115296
822.023831	0.115804
822.213631	0.116012
822.403413	0.115859
822.593176	0.115929
822.782922	0.116035
822.972649	0.116454
823.162358	0.116758
823.352049	0.116778
823.541721	0.116699
823.731376	0.116873
823.921012	0.117162
824.110629	0.117367
824.300229	0.117674
824.489811	0.117995
824.679374	0.118104
824.868919	0.118067
825.058445	0.118383
825.247954	0.118602
825.437444	0.118698
825.626916	0.119045
825.816370	0.119272
826.005806	0.119313
826.195223	0.119369
826.384622	0.119485
826.574003	0.119678
826.763366	0.119689
826.952711	0.120006
827.142037	0.120299
827.331345	0.120370
827.520635	0.120550
827.709906	0.120708
827.899160	0.121075
828.088395	0.121315
828.277612	0.121592
828.466810	0.122008
828.655991	0.121943
828.845153	0.121768
829.034297	0.121887
829.223423	0.122123
829.412531	0.122463
829.601620	0.122540
829.790691	0.122520
829.979744	0.122585
830.168779	0.122728
830.357795	0.122854
830.546793	0.123210
830.735773	0.123437
830.924735	0.123510
831.113679	0.123465
831.302604	0.123570
831.491511	0.123857
831.680400	0.123891
831.869271	0.123839
832.058123	0.124199
832.246957	0.124447
832.435773	0.124516
832.624571	0.124960
832.813351	0.125089
833.002112	0.125410
833.190855	0.125817
833.379580	0.126157
833.568287	0.126591
833.756975	0.127071
833.945645	0.127319
834.134297	0.127809
834.322931	0.127929
834.511547	0.128113
834.700144	0.128366
834.888723	0.128407
835.077284	0.128608
835.265826	0.128663
835.454351	0.128662
835.642857	0.129006
835.831345	0.129028
836.019815	0.129267
836.208266	0.129440
836.396699	0.129547
836.585114	0.129611
836.773511	0.129820
836.961890	0.129988
837.150250	0.129961
837.338592	0.129855
837.526916	0.129803
837.715222	0.130031
837.903510	0.130425
838.091779	0.130386
838.280030	0.130469
838.468263	0.130801
838.656477	0.131048
838.844674	0.131323
839.032852	0.131656
839.221012	0.132076
839.409153	0.131929
839.597277	0.132109
839.785382	0.132679
839.973469	0.133175
840.161538	0.133245
840.349589	0.133592
840.537621	0.134154
840.725635	0.134311
840.913631	0.134665
841.101609	0.134985
841.289568	0.135194
841.477509	0.135298
841.665432	0.135455
841.853337	0.135681
842.041224	0.135577
842.229092	0.135333
842.416942	0.135720
842.604774	0.135629
842.792588	0.136213
842.980383	0.136682
843.168160	0.136780
843.355919	0.136884
843.543660	0.137298
843.731382	0.137582
843.919087	0.137837
844.106773	0.137767
844.294441	0.138303
844.482090	0.138119
844.669722	0.138200
844.857335	0.138527
845.044930	0.138926
845.232507	0.139080
845.420065	0.139437
845.607605	0.139692
845.795127	0.139625
845.982631	0.139667
846.170117	0.140044
846.357584	0.140044
846.545033	0.140251
846.732464	0.140082
846.919877	0.140028
847.107272	0.140097
847.294648	0.140460
847.482006	0.140912
847.669346	0.141377
847.856667	0.141445
848.043971	0.141718
848.231256	0.141837
848.418523	0.142212
848.605771	0.142558
848.793002	0.142943
848.980214	0.143016
849.167408	0.143402
849.354584	0.143346
849.541742	0.143708
849.728881	0.144029
849.916002	0.144377
850.103105	0.144857
850.290190	0.145102
850.477256	0.145420
850.664304	0.145569
850.851334	0.145872
851.038346	0.146145
851.225340	0.146327
851.412315	0.146544
851.599272	0.147017
851.786211	0.147179
851.973132	0.147495
852.160034	0.147811
852.346918	0.148247
852.533784	0.148285
852.720632	0.148679
852.907462	0.149102
853.094273	0.149446
853.281066	0.149692
853.467841	0.150091
853.654598	0.150370
853.841336	0.150487
854.028056	0.150862
854.214758	0.151359
854.401442	0.151340
854.588107	0.151703
854.774755	0.151963
854.961384	0.152085
855.147995	0.152083
855.334587	0.152222
855.521162	0.152407
855.707718	0.152503
855.894256	0.152630
856.080775	0.153280
856.267277	0.153376
856.453760	0.153523
856.640225	0.153595
856.826672	0.154045
857.013101	0.154400
857.199511	0.154657
857.385903	0.154732
857.572277	0.155068
857.758633	0.155208
857.944970	0.155391
858.131290	0.155357
858.317591	0.155534
858.503873	0.155718
858.690138	0.155741
858.876384	0.156012
859.062612	0.156485
859.248822	0.156661
859.435014	0.156749
859.621188	0.156824
859.807343	0.157230
859.993480	0.157309
860.179599	0.157285
860.365699	0.157580
860.551781	0.157700
860.737846	0.157594
860.923891	0.157787
861.109919	0.158004
861.295929	0.158198
861.481920	0.158267
861.667893	0.158621
861.853848	0.158742
862.039784	0.158930
862.225702	0.159069
862.411603	0.159129
862.597484	0.159223
862.783348	0.159127
862.969193	0.159126
863.155021	0.159416
863.340830	0.159335
863.526620	0.159495
863.712393	0.159656
863.898147	0.159772
864.083883	0.160158
864.269601	0.160135
864.455301	0.160285
864.640982	0.160740
864.826645	0.160925
865.012290	0.161297
865.197917	0.161702
865.383526	0.161797
865.569116	0.162207
865.754688	0.162609
865.940242	0.163017
866.125777	0.163383
866.311295	0.163398
866.496794	0.163664
866.682275	0.163791
866.867737	0.164323
867.053182	0.164387
867.238608	0.164444
867.424016	0.164806
867.609406	0.165007
867.794778	0.165027
867.980131	0.165315
868.165466	0.165570
868.350783	0.165880
868.536082	0.165335
868.721362	0.165969
868.906625	0.165971
869.091869	0.165913
869.277094	0.165924
869.462302	0.166587
869.647491	0.166756
869.832662	0.167193
870.017815	0.167564
870.202950	0.167893
870.388066	0.168023
870.573165	0.168225
870.758245	0.168330
870.943306	0.168580
871.128350	0.168430
871.313375	0.168366
871.498382	0.168161
871.683371	0.168266
871.868342	0.168628
872.053294	0.168316
872.238229	0.168354
872.423144	0.168560
872.608042	0.168797
872.792922	0.168867
872.977783	0.169172
873.162626	0.169308
873.347451	0.169148
873.532258	0.169252
873.717046	0.169365
873.901816	0.169367
874.086568	0.169592
874.271302	0.169528
874.456017	0.169886
874.640715	0.170042
874.825394	0.169919
875.010055	0.170029
875.194697	0.170138
875.379322	0.170106
875.563928	0.170653
875.748516	0.170631
875.933085	0.170826
876.117637	0.170449
876.302170	0.170681
876.486685	0.171096
876.671182	0.171272
876.855661	0.171532
877.040121	0.172070
877.224563	0.172089
877.408987	0.171775
877.593393	0.171613
877.777780	0.171982
877.962150	0.172101
878.146501	0.171941
878.330833	0.172106
878.515148	0.171900
878.699444	0.172060
878.883722	0.172289
879.067982	0.172484
879.252224	0.172942
879.436447	0.173090
879.620653	0.173177
879.804840	0.172981
879.989008	0.172873
880.173159	0.173157
880.357291	0.173336
880.541405	0.173285
880.725501	0.173461
880.909579	0.173241
881.093638	0.173195
881.277680	0.173167
881.461703	0.173335
881.645707	0.173427
881.829694	0.173531
882.013662	0.173598
882.197612	0.173539
882.381544	0.173542
882.565458	0.173816
882.749353	0.173845
882.933230	0.173831
883.117089	0.174555
883.300930	0.174671
883.484753	0.174565
883.668557	0.174474
883.852343	0.174793
884.036111	0.175213
884.219861	0.175319
884.403592	0.175581
884.587305	0.175828
884.771000	0.175293
884.954677	0.175071
885.138335	0.174951
885.321976	0.174973
885.505598	0.174644
885.689201	0.174362
885.872787	0.174415
886.056354	0.174279
886.239904	0.174152
886.423434	0.174433
886.606947	0.174764
886.790442	0.174750
886.973918	0.174905
887.157376	0.175113
887.340816	0.175344
887.524237	0.175333
887.707641	0.175411
887.891026	0.175472
888.074393	0.175643
888.257741	0.175842
888.441072	0.176343
888.624384	0.176302
888.807678	0.176624
888.990954	0.176681
889.174211	0.176706
889.357451	0.176715
889.540672	0.176724
889.723875	0.176218
889.907059	0.176035
890.090226	0.175852
890.273374	0.175507
890.456504	0.175165
890.639616	0.174836
890.822709	0.174730
891.005785	0.174731
891.188842	0.174510
891.371881	0.175073
891.554901	0.175066
891.737904	0.174979
891.920888	0.175066
892.103854	0.174951
892.286802	0.175095
892.469731	0.175339
892.652643	0.175316
892.835536	0.175649
893.018410	0.175070
893.201267	0.174795
893.384106	0.174637
893.566926	0.174729
893.749728	0.174570
893.932511	0.174744
894.115277	0.174483
894.298024	0.173836
894.480753	0.173694
894.663464	0.174016
894.846157	0.174021
895.028831	0.173763
895.211487	0.173396
895.394125	0.173374
895.576745	0.173347
895.759346	0.173160
895.941930	0.173628
896.124495	0.173326
896.307041	0.172712
896.489570	0.172779
896.672080	0.172599
896.854573	0.172626
897.037046	0.172610
897.219502	0.172151
897.401940	0.172084
897.584359	0.171670
897.766760	0.171534
897.949143	0.171997
898.131507	0.171884
898.313854	0.172027
898.496182	0.172082
898.678492	0.172353
898.860783	0.172754
899.043057	0.173013
899.225312	0.173205
899.407549	0.173306
899.589768	0.173099
899.771968	0.173124
899.954151	0.173112
900.136315	0.173172
900.318461	0.172937
900.500588	0.172521
900.682698	0.172152
900.864789	0.171745
901.046862	0.171918
901.228917	0.171896
901.410953	0.171577
901.592971	0.171222
901.774972	0.170859
901.956953	0.170725
902.138917	0.170797
902.320862	0.170648
902.502790	0.170755
902.684699	0.170223
902.866589	0.170167
903.048462	0.170219
903.230316	0.170209
903.412152	0.170080
903.593970	0.169446
903.775770	0.169046
903.957551	0.168711
904.139314	0.168840
904.321059	0.168753
904.502786	0.168209
904.684494	0.168140
904.866185	0.168315
905.047857	0.168064
905.229510	0.168092
905.411146	0.167781
905.592763	0.167339
905.774363	0.166928
905.955943	0.166693
906.137506	0.166484
906.319051	0.166299
906.500577	0.166121
906.682085	0.165956
906.863575	0.166015
907.045046	0.165818
907.226500	0.165938
907.407935	0.165914
907.589352	0.165565
907.770750	0.165483
907.952131	0.165107
908.133493	0.164500
908.314837	0.164441
908.496163	0.164365
908.677470	0.164495
908.858760	0.163966
909.040031	0.163584
909.221284	0.163307
909.402518	0.163219
909.583735	0.162828
909.764933	0.162389
909.946113	0.162563
910.127275	0.162202
910.308418	0.161837
910.489544	0.162252
910.670651	0.162123
910.851740	0.162308
911.032810	0.161534
911.213863	0.161312
911.394897	0.161329
911.575913	0.160558
911.756911	0.160096
911.937890	0.159839
912.118851	0.159276
912.299794	0.159141
912.480719	0.158256
912.661626	0.158673
912.842514	0.158373
913.023384	0.158118
913.204236	0.157589
913.385070	0.157279
913.565886	0.156796
913.746683	0.156197
913.927462	0.155866
914.108223	0.156483
914.288965	0.156038
914.469690	0.155886
914.650396	0.155511
914.831084	0.154806
915.011754	0.154788
915.192405	0.154763
915.373038	0.154743
915.553653	0.154526
915.734250	0.153860
915.914829	0.153277
916.095389	0.152820
916.275931	0.152772
916.456455	0.152889
916.636961	0.152291
916.817448	0.151684
916.997917	0.151151
917.178368	0.150533
917.358801	0.150092
917.539216	0.149951
917.719612	0.149583
917.899990	0.148927
918.080350	0.148940
918.260692	0.148490
918.441015	0.148003
918.621320	0.147852
918.801607	0.147116
918.981876	0.146261
919.162127	0.145679
919.342359	0.145194
919.522573	0.145030
919.702769	0.144715
919.882947	0.144347
920.063106	0.144111
920.243247	0.143866
920.423370	0.143713
920.603475	0.143387
920.783562	0.142944
920.963630	0.142753
921.143680	0.141854
921.323712	0.141490
921.503725	0.140897
921.683721	0.140502
921.863698	0.139938
922.043657	0.139862
922.223598	0.140100
922.403520	0.139842
922.583424	0.139577
922.763311	0.139713
922.943178	0.139002
923.123028	0.138831
923.302859	0.138475
923.482673	0.138084
923.662467	0.137610
923.842244	0.136854
924.022003	0.136165
924.201743	0.135301
924.381465	0.135383
924.561169	0.134540
924.740854	0.134286
924.920522	0.133613
925.100171	0.133160
925.279802	0.132727
925.459414	0.132749
925.639009	0.132417
925.818585	0.132385
925.998143	0.131243
926.177683	0.131158
926.357205	0.130573
926.536708	0.130297
926.716193	0.129634
926.895660	0.128616
927.075109	0.127763
927.254539	0.127072
927.433951	0.126491
927.613345	0.125928
927.792721	0.125498
927.972079	0.124810
928.151418	0.124527
928.330739	0.124000
928.510042	0.123812
928.689327	0.123335
928.868593	0.123216
929.047841	0.123030
929.227071	0.122290
929.406283	0.121768
929.585476	0.121421
929.764652	0.120851
929.943809	0.120727
930.122948	0.119643
930.302068	0.118279
930.481171	0.117633
930.660255	0.116869
930.839321	0.116589
931.018369	0.116318
931.197398	0.115538
931.376409	0.115042
931.555402	0.114387
931.734377	0.114413
931.913334	0.114574
932.092272	0.114479
932.271192	0.113676
932.450094	0.113480
932.628978	0.112557
932.807844	0.112202
932.986691	0.111639
933.165520	0.110831
933.344331	0.110258
933.523123	0.109924
933.701898	0.108598
933.880654	0.107922
934.059392	0.106767
934.238111	0.106941
934.416813	0.107037
934.595496	0.105660
934.774161	0.105423
934.952808	0.104850
935.131437	0.104750
935.310047	0.105099
935.488639	0.105289
935.667213	0.104921
935.845769	0.104059
936.024306	0.103173
936.202825	0.103710
936.381326	0.103046
936.559809	0.102658
936.738274	0.101870
936.916720	0.100144
937.095148	0.098782
937.273558	0.098423
937.451950	0.096988
937.630323	0.096977
937.808678	0.095785
937.987015	0.095387
938.165334	0.094385
938.343635	0.093482
938.521917	0.093412
938.700181	0.093117
938.878427	0.092284
939.056655	0.092402
939.234864	0.090441
939.413055	0.090152
939.591228	0.089261
939.769383	0.089118
939.947519	0.087733
940.125638	0.086977
940.303738	0.086172
940.481820	0.085664
940.659883	0.085272
940.837929	0.085287
941.015956	0.084934
941.193965	0.084627
941.371955	0.084191
941.549928	0.084577
941.727882	0.084726
941.905818	0.084294
942.083736	0.082980
942.261636	0.081356
942.439517	0.081131
942.617380	0.080859
942.795225	0.079453
942.973052	0.077368
943.150860	0.076613
943.328651	0.076038
943.506423	0.075111
943.684176	0.074775
943.861912	0.074326
944.039629	0.073170
944.217328	0.071154
944.395009	0.070483
944.572672	0.071135
944.750317	0.071456
944.927943	0.070102
945.105551	0.070184
945.283141	0.069603
945.460712	0.069351
945.638265	0.068313
945.815801	0.068850
945.993317	0.068986
946.170816	0.067869
946.348297	0.066023
946.525759	0.065763
946.703203	0.064232
946.880629	0.064102
947.058036	0.063748
947.235425	0.064023
947.412797	0.062749
947.590149	0.062123
947.767484	0.061132
947.944800	0.060455
948.122099	0.060030
948.299379	0.058949
948.476640	0.058303
948.653884	0.057219
948.831109	0.055380
949.008316	0.054593
949.185505	0.054179
949.362676	0.054442
949.539828	0.053654
949.716962	0.052571
949.894078	0.052744
950.071176	0.051917
950.248256	0.051519
950.425317	0.051401
950.602360	0.050491
950.779385	0.048681
950.956391	0.046978
951.133380	0.046351
951.310350	0.045313
951.487302	0.045704
951.664235	0.045408
951.841151	0.045501
952.018048	0.046035
952.194927	0.045304
952.371788	0.044977
952.548631	0.045902
952.725455	0.042779
952.902261	0.042931
953.079049	0.041556
953.255819	0.041593
953.432570	0.041213
953.609303	0.038924
953.786018	0.037746
953.962715	0.037425
954.139394	0.035151
954.316054	0.037470
954.492696	0.036866
954.669320	0.036345
954.845926	0.035462
955.022513	0.034544
955.199083	0.034120
955.375634	0.036110
955.552166	0.035454
955.728681	0.037308
955.905177	0.036250
956.081655	0.035597
956.258115	0.035178
956.434557	0.034254
956.610980	0.033281
956.787385	0.033045
956.963772	0.030837
957.140141	0.030343
957.316492	0.027903
957.492824	0.027544
957.669138	0.026864
957.845434	0.025364
958.021712	0.024292
958.197971	0.023045
958.374212	0.023636
958.550435	0.023882
958.726640	0.023342
958.902826	0.024114
959.078995	0.025974
959.255145	0.026089
959.431277	0.026849
959.607390	0.028091
959.783486	0.027873
959.959563	0.027461
960.135622	0.027200
960.311662	0.027731
960.487685	0.029287
960.663689	0.027031
960.839675	0.025994
961.015643	0.024118
961.191593	0.022186
961.367524	0.022683
961.543437	0.020323
961.719332	0.020350
961.895209	0.021408
962.071067	0.020133
962.246907	0.019672
962.422730	0.020594
962.598533	0.021887
962.774319	0.023956
962.950086	0.022822
963.125835	0.024315
963.301566	0.024846
963.477279	0.023466
963.652973	0.021857
963.828650	0.020837
964.004308	0.020612
964.179947	0.021275
964.355569	0.021533
964.531172	0.022308
964.706757	0.021895
964.882324	0.020500
965.057873	0.021509
965.233403	0.023074
965.408916	0.024853
965.584410	0.023984
965.759885	0.022457
965.935343	0.021318
966.110782	0.020096
966.286203	0.019439
966.461606	0.020601
966.636991	0.018697
966.812357	0.016705
966.987705	0.015998
967.163035	0.016734
967.338347	0.017487
967.513641	0.018786
967.688916	0.018690
967.864173	0.020428
968.039412	0.018719
968.214632	0.018389
968.389835	0.019042
968.565019	0.018268
968.740185	0.018759
968.915333	0.019997
969.090462	0.016587
969.265573	0.019072
969.440667	0.017515
969.615741	0.017859
969.790798	0.017417
969.965836	0.018185
970.140856	0.018578
970.315858	0.018979
970.490842	0.016752
970.665808	0.018729
970.840755	0.018423
971.015684	0.017726
971.190595	0.016185
971.365487	0.016943
971.540362	0.015174
971.715218	0.012781
971.890056	0.009751
972.064875	0.011227
972.239677	0.010685
972.414460	0.010729
972.589225	0.011816
972.763972	0.014748
972.938700	0.015183
973.113411	0.015977
973.288103	0.019738
973.462777	0.021925
973.637432	0.020353
973.812070	0.020882
973.986689	0.021358
974.161290	0.020885
974.335873	0.020955
974.510437	0.021650
974.684984	0.020785
974.859512	0.019083
975.034022	0.017864
975.208513	0.020454
975.382987	0.018722
975.557442	0.016838
975.731879	0.017777
975.906298	0.016011
976.080698	0.016324
976.255080	0.017083
976.429445	0.018721
976.603790	0.018568
976.778118	0.018259
976.952427	0.021731
977.126719	0.021673
977.300992	0.020694
977.475246	0.022081
977.649483	0.020695
977.823701	0.020224
977.997901	0.020357
978.172083	0.020895
978.346247	0.018270
978.520392	0.016223
978.694519	0.018464
978.868628	0.019271
979.042719	0.018927
979.216791	0.018849
979.390845	0.020382
979.564882	0.018722
979.738899	0.017941
979.912899	0.018719
980.086880	0.017580
980.260843	0.015329
980.434788	0.015454
980.608715	0.014018
980.782623	0.014357
980.956514	0.012810
981.130386	0.012498
981.304240	0.012766
981.478075	0.012698
981.651892	0.013570
981.825692	0.014879
981.999472	0.014003
982.173235	0.015768
982.346980	0.013926
982.520706	0.014724
982.694414	0.016723
982.868104	0.016268
983.041775	0.016610
983.215428	0.016628
983.389064	0.015984
983.562680	0.016954
983.736279	0.016681
983.909860	0.020323
984.083422	0.020528
984.256966	0.018694
984.430491	0.020838
984.603999	0.020136
984.777488	0.021076
984.950959	0.021188
985.124412	0.020480
985.297847	0.021085
985.471263	0.021313
985.644661	0.022172
985.818041	0.023515
985.991403	0.022283
986.164747	0.023475
986.338072	0.022935
986.511379	0.023750
986.684668	0.024811
986.857938	0.024221
987.031191	0.022004
987.204425	0.021625
987.377641	0.020038
987.550839	0.019583
987.724018	0.018456
987.897179	0.019805
988.070322	0.019303
988.243447	0.019903
988.416554	0.018968
988.589642	0.018619
988.762712	0.017276
988.935764	0.017292
989.108798	0.018554
989.281813	0.019708
989.454811	0.018446
989.627790	0.020099
989.800751	0.017993
989.973693	0.017468
990.146617	0.017253
990.319524	0.017758
990.492412	0.016846
990.665281	0.016952
990.838133	0.016583
991.010966	0.016277
991.183781	0.014232
991.356578	0.014157
991.529356	0.015597
991.702117	0.016618
991.874859	0.017500
992.047583	0.019486
992.220288	0.017891
992.392976	0.018160
992.565645	0.017826
992.738296	0.017540
992.910929	0.016634
993.083543	0.015775
993.256139	0.014516
993.428718	0.014438
993.601277	0.013412
993.773819	0.013703
993.946342	0.013444
994.118848	0.013401
994.291335	0.013982
994.463803	0.014879
994.636254	0.014563
994.808686	0.015183
994.981100	0.013843
995.153496	0.015155
995.325874	0.016386
995.498233	0.015242
995.670574	0.016404
995.842897	0.016520
996.015202	0.017385
996.187488	0.018646
996.359757	0.019130
996.532007	0.019268
996.704239	0.017647
996.876452	0.016534
997.048648	0.017724
997.220825	0.016701
997.392984	0.017688
997.565124	0.017898
997.737247	0.018131
997.909351	0.017319
998.081437	0.017541
998.253505	0.017184
998.425554	0.017934
998.597586	0.017823
998.769599	0.018550
998.941594	0.017097
999.113571	0.016972
999.285529	0.017182
999.457469	0.017394
999.629391	0.018282
999.801295	0.019637
999.973181	0.021013
1000.145048	0.020037
1000.316897	0.019265
1000.488728	0.019186
1000.660541	0.020911
1000.832335	0.020427
1001.004111	0.022413
1001.175869	0.022055
1001.347609	0.021251
1001.519331	0.018294
1001.691034	0.019759
1001.862719	0.020905
1002.034386	0.020357
1002.206035	0.018331
1002.377665	0.017452
1002.549277	0.016577
1002.720871	0.016011
1002.892447	0.016944
1003.064004	0.017320
1003.235544	0.017426
1003.407065	0.015950
1003.578568	0.015786
1003.750052	0.015339
1003.921519	0.016420
1004.092967	0.015535
1004.264397	0.015791
1004.435809	0.015275
1004.607202	0.016320
1004.778577	0.015862
1004.949934	0.017085
1005.121273	0.017205
1005.292594	0.017947
1005.463896	0.017212
1005.635180	0.017845
1005.806446	0.016842
1005.977694	0.016895
1006.148923	0.017755
1006.320135	0.016549
1006.491328	0.015669
1006.662503	0.015566
1006.833659	0.014998
1007.004798	0.015173
1007.175918	0.014097
1007.347020	0.015261
1007.518103	0.016117
1007.689169	0.014141
1007.860216	0.015712
1008.031245	0.015839
1008.202256	0.016745
1008.373248	0.016988
1008.544223	0.016517
1008.715179	0.016145
1008.886117	0.014384
1009.057036	0.014511
1009.227938	0.017675
1009.398821	0.018234
1009.569686	0.017788
1009.740533	0.016799
1009.911361	0.016749
1010.082172	0.016925
1010.252964	0.017289
1010.423738	0.018166
1010.594493	0.018203
1010.765231	0.015374
1010.935950	0.014345
1011.106651	0.014778
1011.277334	0.016203
1011.447998	0.017721
1011.618645	0.017811
1011.789273	0.018713
1011.959882	0.019830
1012.130474	0.018337
1012.301048	0.018984
1012.471603	0.018330
1012.642140	0.018560
1012.812658	0.018441
1012.983159	0.017358
1013.153641	0.017274
1013.324105	0.017451
1013.494551	0.017321
1013.664979	0.018847
1013.835388	0.018675
1014.005779	0.019017
1014.176152	0.018372
1014.346507	0.018696
1014.516843	0.018115
1014.687162	0.018362
1014.857462	0.017197
1015.027744	0.017476
1015.198007	0.017138
1015.368252	0.017533
1015.538480	0.018777
1015.708689	0.019200
1015.878879	0.019650
1016.049052	0.020821
1016.219206	0.021200
1016.389342	0.020484
1016.559460	0.020840
1016.729559	0.019550
1016.899641	0.019874
1017.069704	0.018489
1017.239749	0.018625
1017.409775	0.016314
1017.579784	0.015307
1017.749774	0.014532
1017.919746	0.015965
1018.089700	0.015182
1018.259635	0.016220
1018.429553	0.015196
1018.599452	0.014762
1018.769333	0.014226
1018.939195	0.015172
1019.109040	0.016099
1019.278866	0.016633
1019.448674	0.016600
1019.618464	0.015459
1019.788235	0.014576
1019.957989	0.013979
1020.127724	0.015591
1020.297441	0.015498
1020.467139	0.015795
1020.636820	0.013765
1020.806482	0.014750
1020.976126	0.014593
1021.145752	0.015144
1021.315359	0.016101
1021.484948	0.016590
1021.654519	0.016002
1021.824072	0.015283
1021.993607	0.016309
1022.163123	0.017120
1022.332621	0.015738
1022.502101	0.017142
1022.671563	0.017025
1022.841007	0.018204
1023.010432	0.018506
1023.179839	0.018006
1023.349228	0.019832
1023.518598	0.017669
1023.687951	0.018344
1023.857285	0.018697
1024.026601	0.017260
1024.195899	0.018576
1024.365178	0.017224
1024.534439	0.018005
1024.703682	0.018903
1024.872907	0.018104
1025.042114	0.018856
1025.211302	0.018381
1025.380472	0.018122
1025.549624	0.019608
1025.718758	0.019164
1025.887873	0.019888
1026.056970	0.018378
1026.226049	0.016025
1026.395110	0.016314
1026.564153	0.017190
1026.733177	0.018834
1026.902183	0.017954
1027.071171	0.017092
1027.240141	0.014876
1027.409092	0.013370
1027.578026	0.014541
1027.746940	0.015888
1027.915837	0.015027
1028.084716	0.013643
1028.253576	0.012824
1028.422418	0.013984
1028.591242	0.013613
1028.760048	0.015131
1028.928835	0.016388
1029.097604	0.015108
1029.266355	0.015032
1029.435088	0.015187
1029.603803	0.016815
1029.772499	0.016407
1029.941177	0.015057
1030.109837	0.015769
1030.278478	0.017052
1030.447102	0.016370
1030.615707	0.017616
1030.784294	0.016354
1030.952863	0.016520
1031.121413	0.013970
1031.289945	0.013294
1031.458460	0.014722
1031.626955	0.013422
1031.795433	0.011737
1031.963892	0.011355
1032.132334	0.010228
1032.300756	0.011708
1032.469161	0.012484
1032.637548	0.013510
1032.805916	0.014148
1032.974266	0.012633
1033.142598	0.013387
1033.310911	0.014520
1033.479207	0.015524
1033.647484	0.017331
1033.815743	0.018685
1033.983983	0.017649
1034.152206	0.017360
1034.320410	0.017182
1034.488596	0.018266
1034.656764	0.017498
1034.824914	0.018173
1034.993045	0.017349
1035.161158	0.016966
1035.329253	0.014907
1035.497330	0.016220
1035.665388	0.017793
1035.833428	0.017411
1036.001450	0.016679
1036.169454	0.018249
1036.337440	0.016972
1036.505407	0.017677
1036.673356	0.016962
1036.841287	0.018123
1037.009200	0.017885
1037.177094	0.017979
1037.344970	0.018743
1037.512828	0.021199
1037.680668	0.020519
1037.848489	0.021923
1038.016293	0.021825
1038.184078	0.022002
1038.351845	0.019762
1038.519593	0.019659
1038.687324	0.020297
1038.855036	0.018934
1039.022730	0.018170
1039.190406	0.018069
1039.358063	0.015775
1039.525702	0.015297
1039.693323	0.015470
1039.860926	0.018136
1040.028511	0.018212
1040.196077	0.017565
1040.363625	0.019534
1040.531155	0.019074
1040.698667	0.019269
1040.866161	0.020094
1041.033636	0.020142
1041.201093	0.020865
1041.368532	0.020567
1041.535952	0.021912
1041.703355	0.021251
1041.870739	0.020050
1042.038105	0.019299
1042.205452	0.018736
1042.372782	0.018955
1042.540093	0.020073
1042.707386	0.018352
1042.874661	0.016547
1043.041918	0.014908
1043.209156	0.015169
1043.376376	0.015431
1043.543578	0.016032
1043.710762	0.017117
1043.877927	0.017653
1044.045074	0.016457
1044.212203	0.018239
1044.379314	0.020097
1044.546407	0.019345
1044.713481	0.018602
1044.880537	0.018151
1045.047575	0.018039
1045.214595	0.017932
1045.381596	0.018660
1045.548579	0.019121
1045.715544	0.018353
1045.882491	0.017120
1046.049420	0.017423
1046.216330	0.018016
1046.383222	0.018565
1046.550096	0.018390
1046.716951	0.017224
1046.883789	0.017573
1047.050608	0.016831
1047.217409	0.017775
1047.384192	0.018332
1047.550956	0.018131
1047.717703	0.016629
1047.884431	0.015681
1048.051140	0.016334
1048.217832	0.017460
1048.384505	0.016392
1048.551161	0.017770
1048.717798	0.015929
1048.884416	0.016533
1049.051017	0.016743
1049.217599	0.018823
1049.384163	0.020031
1049.550709	0.018794
1049.717237	0.018403
1049.883746	0.018433
1050.050237	0.018116
1050.216710	0.018471
1050.383165	0.019063
1050.549601	0.018778
1050.716019	0.017540
1050.882420	0.016469
1051.048801	0.017269
1051.215165	0.016187
1051.381510	0.015261
1051.547837	0.013546
1051.714146	0.013332
1051.880437	0.013931
1052.046709	0.014699
1052.212964	0.015481
1052.379200	0.015680
1052.545417	0.015318
1052.711617	0.016424
1052.877798	0.017634
1053.043961	0.018276
1053.210106	0.019168
1053.376233	0.017911
1053.542341	0.018593
1053.708432	0.018548
1053.874504	0.019127
1054.040557	0.019984
1054.206593	0.020130
1054.372610	0.020249
1054.538609	0.019837
1054.704590	0.020588
1054.870553	0.020426
1055.036497	0.020344
1055.202424	0.019757
1055.368331	0.020464
1055.534221	0.019610
1055.700093	0.020253
1055.865946	0.017543
1056.031781	0.018590
1056.197598	0.018946
1056.363397	0.019092
1056.529177	0.017547
1056.694939	0.018384
1056.860683	0.017641
1057.026409	0.017286
1057.192116	0.015728
1057.357806	0.018917
1057.523477	0.018184
1057.689130	0.017371
1057.854764	0.016229
1058.020381	0.016840
1058.185979	0.016322
1058.351559	0.016373
1058.517120	0.017903
1058.682664	0.019438
1058.848189	0.019078
1059.013696	0.019436
1059.179185	0.017548
1059.344656	0.017905
1059.510108	0.017171
1059.675542	0.017302
1059.840958	0.017741
1060.006356	0.015842
1060.171735	0.015412
1060.337096	0.015666
1060.502439	0.017700
1060.667764	0.020212
1060.833071	0.020949
1060.998359	0.022217
1061.163629	0.022795
1061.328881	0.022039
1061.494115	0.023463
1061.659330	0.023800
1061.824527	0.023198
1061.989706	0.023951
1062.154867	0.021596
1062.320010	0.020370
1062.485134	0.019946
1062.650240	0.019175
1062.815328	0.018361
1062.980398	0.018069
1063.145449	0.016965
1063.310482	0.016551
1063.475497	0.014301
1063.640494	0.016882
1063.805473	0.016877
1063.970433	0.017827
1064.135375	0.018015
1064.300299	0.020592
1064.465204	0.022076
1064.630092	0.022023
1064.794961	0.022395
1064.959812	0.022678
1065.124645	0.020831
1065.289459	0.022188
1065.454256	0.022080
1065.619034	0.022002
1065.783793	0.021701
1065.948535	0.020693
1066.113258	0.020293
1066.277964	0.020684
1066.442651	0.020207
1066.607319	0.020616
1066.771970	0.020075
1066.936602	0.021005
1067.101216	0.020480
1067.265812	0.020548
1067.430389	0.019697
1067.594949	0.020951
1067.759490	0.018870
1067.924013	0.018529
1068.088518	0.018339
1068.253004	0.017906
1068.417472	0.017467
1068.581922	0.019570
1068.746354	0.017716
1068.910768	0.017451
1069.075163	0.017173
1069.239540	0.017743
1069.403899	0.018903
1069.568240	0.018454
1069.732562	0.020460
1069.896866	0.019217
1070.061152	0.018001
1070.225420	0.017991
1070.389670	0.018455
1070.553901	0.018155
1070.718114	0.017822
1070.882309	0.016463
1071.046486	0.016188
1071.210644	0.013911
1071.374784	0.014618
1071.538906	0.013869
1071.703010	0.014932
1071.867096	0.014159
1072.031163	0.013841
1072.195212	0.015423
1072.359243	0.015794
1072.523256	0.016581
1072.687250	0.018323
1072.851226	0.017898
1073.015184	0.018419
1073.179124	0.017712
1073.343045	0.018067
1073.506949	0.017866
1073.670834	0.018539
1073.834701	0.018555
1073.998549	0.018685
1074.162380	0.018592
1074.326192	0.020250
1074.489986	0.021658
1074.653761	0.020997
1074.817519	0.023024
1074.981258	0.024038
1075.144979	0.022669
1075.308682	0.022560
1075.472367	0.021600
1075.636033	0.020428
1075.799681	0.019875
1075.963311	0.018479
1076.126923	0.019785
1076.290516	0.018125
1076.454092	0.018163
1076.617649	0.019062
1076.781187	0.018079
1076.944708	0.020379
1077.108210	0.021359
1077.271695	0.020502
1077.435160	0.021033
1077.598608	0.020448
1077.762038	0.021446
1077.925449	0.021229
1078.088842	0.019880
1078.252217	0.020083
1078.415573	0.019878
1078.578912	0.020987
1078.742232	0.020451
1078.905534	0.019517
1079.068817	0.020835
1079.232083	0.020255
1079.395330	0.020698
1079.558559	0.022428
1079.721770	0.024371
1079.884962	0.024722
1080.048136	0.024096
1080.211293	0.026088
1080.374430	0.026810
1080.537550	0.025429
1080.700651	0.024499
1080.863735	0.023430
1081.026800	0.023177
1081.189846	0.021169
1081.352875	0.020189
1081.515885	0.019434
1081.678877	0.018246
1081.841851	0.018363
1082.004807	0.019831
1082.167744	0.018778
1082.330663	0.018896
1082.493564	0.018380
1082.656447	0.020733
1082.819312	0.020428
1082.982158	0.020959
1083.144986	0.018903
1083.307796	0.016733
1083.470587	0.016048
1083.633361	0.017829
1083.796116	0.019414
1083.958853	0.018525
1084.121571	0.019931
1084.284272	0.020739
1084.446954	0.018699
1084.609618	0.018951
1084.772264	0.022238
1084.934892	0.023680
1085.097501	0.023856
1085.260092	0.024484
1085.422665	0.024451
1085.585220	0.022728
1085.747756	0.023124
1085.910274	0.025242
1086.072774	0.027310
1086.235256	0.026094
1086.397720	0.026084
1086.560165	0.027256
1086.722592	0.025311
1086.885001	0.026285
1087.047392	0.026642
1087.209764	0.027097
1087.372119	0.027243
1087.534455	0.026653
1087.696772	0.024916
1087.859072	0.022793
1088.021353	0.020335
1088.183616	0.019659
1088.345861	0.019470
1088.508088	0.017587
1088.670296	0.016206
1088.832486	0.016421
1088.994658	0.015503
1089.156812	0.016060
1089.318948	0.017303
1089.481065	0.018998
1089.643164	0.020434
1089.805245	0.020001
1089.967308	0.019536
1090.129352	0.018765
1090.291378	0.019461
1090.453386	0.020947
1090.615376	0.024141
1090.777347	0.021888
1090.939301	0.020508
1091.101236	0.019209
1091.263153	0.019305
1091.425051	0.021515
1091.586932	0.021954
1091.748794	0.021012
1091.910638	0.022082
1092.072463	0.019083
1092.234271	0.022648
1092.396060	0.022809
1092.557831	0.023538
1092.719584	0.023290
1092.881319	0.024204
1093.043035	0.025278
1093.204733	0.028458
1093.366413	0.026637
1093.528075	0.027980
1093.689718	0.024461
1093.851343	0.027559
1094.012950	0.029011
1094.174539	0.029984
1094.336110	0.028452
1094.497662	0.025391
1094.659196	0.022609
1094.820712	0.022537
1094.982210	0.023190
1095.143689	0.026625
1095.305151	0.022792
1095.466594	0.021461
1095.628018	0.021034
1095.789425	0.020461
1095.950813	0.020545
1096.112183	0.018902
1096.273535	0.021494
1096.434869	0.022182
1096.596184	0.019578
1096.757482	0.020563
1096.918761	0.021866
1097.080021	0.022976
1097.241264	0.023491
1097.402488	0.026738
1097.563694	0.027543
1097.724882	0.023491
1097.886052	0.023505
1098.047203	0.022906
1098.208336	0.023647
1098.369451	0.023046
1098.530548	0.021055
1098.691627	0.021182
1098.852687	0.022154
1099.013729	0.023734
1099.174753	0.027071
1099.335758	0.026910
1099.496746	0.028894
1099.657715	0.030992
1099.818666	0.031936
1099.979599	0.034186
1100.140513	0.035780
1100.301409	0.033887
1100.462287	0.034891
1100.623147	0.030543
1100.783989	0.029444
1100.944812	0.029161
1101.105617	0.028468
1101.266404	0.027737
1101.427173	0.026414
1101.587923	0.025152
1101.748656	0.024841
1101.909370	0.022626
1102.070066	0.025879
1102.230743	0.025314
1102.391403	0.025168
1102.552044	0.025793
1102.712667	0.026494
1102.873271	0.025691
1103.033858	0.025302
1103.194426	0.025643
1103.354976	0.023923
1103.515508	0.024830
1103.676021	0.023899
1103.836517	0.020814
1103.996994	0.018004
1104.157453	0.015655
1104.317893	0.019556
1104.478316	0.019921
1104.638720	0.019986
1104.799106	0.020299
1104.959474	0.017776
1105.119823	0.017375
1105.280155	0.018954
1105.440468	0.021031
1105.600763	0.021959
1105.761039	0.019719
1105.921298	0.017669
1106.081538	0.015858
1106.241760	0.019905
1106.401964	0.021697
1106.562149	0.023776
1106.722316	0.024260
1106.882465	0.023741
1107.042596	0.023746
1107.202709	0.023526
1107.362803	0.026988
1107.522879	0.028756
1107.682937	0.029679
1107.842977	0.028910
1108.002999	0.028398
1108.163002	0.028670
1108.322987	0.028310
1108.482954	0.029175
1108.642902	0.028161
1108.802833	0.026391
1108.962745	0.027454
1109.122639	0.023241
1109.282515	0.024700
1109.442372	0.024133
1109.602211	0.026405
1109.762032	0.025915
1109.921835	0.023341
1110.081620	0.022740
1110.241386	0.023932
1110.401134	0.023352
1110.560864	0.023922
1110.720576	0.025049
1110.880269	0.025964
1111.039945	0.024567
1111.199602	0.023898
1111.359240	0.028321
1111.518861	0.030479
1111.678463	0.031339
1111.838047	0.029972
1111.997613	0.032706
1112.157161	0.031115
1112.316690	0.031521
1112.476202	0.032032
1112.635695	0.033853
1112.795169	0.031242
1112.954626	0.033940
1113.114064	0.028834
1113.273484	0.029833
1113.432886	0.030194
1113.592270	0.030018
1113.751635	0.029559
1113.910983	0.031769
1114.070312	0.030319
1114.229622	0.031009
1114.388915	0.027288
1114.548189	0.030679
1114.707445	0.030800
1114.866683	0.025985
1115.025903	0.024855
1115.185104	0.027938
1115.344287	0.023312
1115.503452	0.023676
1115.662599	0.022758
1115.821727	0.021781
1115.980838	0.021845
1116.139930	0.023891
1116.299004	0.023663
1116.458059	0.026484
1116.617097	0.023519
1116.776116	0.027345
1116.935117	0.028793
1117.094099	0.029334
1117.253064	0.029596
1117.412010	0.034313
1117.570938	0.032238
1117.729848	0.036006
1117.888740	0.033812
1118.047613	0.035052
1118.206468	0.035180
1118.365305	0.035343
1118.524124	0.036490
1118.682924	0.036046
1118.841707	0.032386
1119.000471	0.033716
1119.159216	0.031473
1119.317944	0.031503
1119.476653	0.028141
1119.635344	0.027929
1119.794017	0.026617
1119.952672	0.021831
1120.111308	0.020024
1120.269927	0.020017
1120.428527	0.019575
1120.587108	0.020092
1120.745672	0.018578
1120.904217	0.021115
1121.062744	0.019087
1121.221253	0.020073
1121.379744	0.024691
1121.538216	0.028521
1121.696671	0.026558
1121.855107	0.026246
1122.013524	0.028271
1122.171924	0.032781
1122.330305	0.032393
1122.488668	0.032963
1122.647013	0.035903
1122.805340	0.038341
1122.963648	0.037274
1123.121938	0.038606
1123.280210	0.039631
1123.438464	0.038370
1123.596700	0.035862
1123.754917	0.035649
1123.913116	0.033924
1124.071297	0.034832
1124.229459	0.028810
1124.387604	0.029358
1124.545730	0.025854
1124.703838	0.025691
1124.861928	0.025390
1125.019999	0.025092
1125.178052	0.026289
1125.336088	0.027234
1125.494104	0.020246
1125.652103	0.020794
1125.810083	0.022721
1125.968045	0.027319
1126.125989	0.025584
1126.283915	0.024099
1126.441823	0.025625
1126.599712	0.025880
1126.757583	0.026240
1126.915436	0.028808
1127.073270	0.030772
1127.231087	0.032063
1127.388885	0.028708
1127.546665	0.031961
1127.704426	0.033135
1127.862170	0.031313
1128.019895	0.031039
1128.177602	0.034331
1128.335291	0.032658
1128.492961	0.033979
1128.650614	0.032303
1128.808248	0.035121
1128.965864	0.033007
1129.123461	0.034258
1129.281041	0.037761
1129.438602	0.036293
1129.596145	0.036033
1129.753670	0.036096
1129.911176	0.037855
1130.068665	0.039158
1130.226135	0.038799
1130.383587	0.041348
1130.541020	0.039885
1130.698436	0.036438
1130.855833	0.040428
1131.013212	0.041577
1131.170573	0.042307
1131.327915	0.041068
1131.485239	0.040002
1131.642545	0.037283
1131.799833	0.033086
1131.957103	0.033501
1132.114354	0.036114
1132.271588	0.031350
1132.428803	0.028637
1132.585999	0.031509
1132.743178	0.033295
1132.900338	0.026068
1133.057480	0.026003
1133.214604	0.027210
1133.371710	0.025285
1133.528797	0.022657
1133.685866	0.023813
1133.842917	0.022729
1133.999950	0.022636
1134.156964	0.017417
1134.313960	0.023577
1134.470938	0.022740
1134.627898	0.025052
1134.784840	0.026750
1134.941763	0.029085
1135.098668	0.031396
1135.255555	0.035536
1135.412424	0.032888
1135.569274	0.034378
1135.726107	0.036972
1135.882921	0.043279
1136.039716	0.042234
1136.196494	0.045242
1136.353253	0.040503
1136.509995	0.033292
1136.666717	0.029334
1136.823422	0.030764
1136.980109	0.033860
1137.136777	0.028259
1137.293427	0.025146
1137.450059	0.026159
1137.606672	0.025324
1137.763267	0.032280
1137.919844	0.036275
1138.076403	0.034842
1138.232944	0.031723
1138.389466	0.026437
1138.545971	0.027106
1138.702457	0.027247
1138.858924	0.026336
1139.015374	0.020636
1139.171805	0.012889
1139.328218	0.014457
1139.484613	0.015863
1139.640990	0.016077
1139.797348	0.019186
1139.953688	0.018459
1140.110010	0.020050
1140.266314	0.020277
1140.422600	0.023166
1140.578867	0.022303
1140.735116	0.018126
1140.891347	0.022637
1141.047559	0.026298
1141.203754	0.025396
1141.359930	0.027275
1141.516088	0.028385
1141.672228	0.030363
1141.828349	0.031799
1141.984452	0.036072
1142.140537	0.040151
1142.296604	0.033857
1142.452653	0.033600
1142.608683	0.030914
1142.764695	0.031504
1142.920689	0.031860
1143.076665	0.028330
1143.232622	0.026502
1143.388562	0.031044
1143.544483	0.033396
1143.700385	0.032518
1143.856270	0.034259
1144.012136	0.035924
1144.167985	0.035926
1144.323814	0.034623
1144.479626	0.035049
1144.635420	0.033413
1144.791195	0.030965
1144.946952	0.025973
1145.102691	0.027064
1145.258411	0.026534
1145.414113	0.030045
1145.569798	0.032056
1145.725463	0.030692
1145.881111	0.026029
1146.036741	0.035363
1146.192352	0.034846
1146.347945	0.037323
1146.503519	0.036676
1146.659076	0.032150
1146.814614	0.030006
1146.970134	0.026722
1147.125636	0.028111
1147.281120	0.034763
1147.436585	0.025472
1147.592032	0.024258
1147.747461	0.022874
1147.902872	0.024300
1148.058265	0.024806
1148.213639	0.022439
1148.368995	0.022385
1148.524333	0.024110
1148.679653	0.023812
1148.834954	0.025610
1148.990237	0.025522
1149.145502	0.028904
1149.300749	0.026604
1149.455977	0.026666
1149.611188	0.031177
1149.766380	0.033522
1149.921553	0.030681
1150.076709	0.029925
1150.231846	0.030143
1150.386966	0.028231
1150.542066	0.031571
1150.697149	0.033486
1150.852214	0.032767
1151.007260	0.035896
1151.162288	0.031467
1151.317298	0.030263
1151.472289	0.026618
1151.627263	0.031957
1151.782218	0.034134
1151.937155	0.028880
1152.092073	0.031890
1152.246974	0.030426
1152.401856	0.026785
1152.556720	0.031647
1152.711566	0.031998
1152.866393	0.035760
1153.021203	0.037746
1153.175994	0.035688
1153.330767	0.037187
1153.485521	0.036697
1153.640258	0.043815
1153.794976	0.045235
1153.949676	0.045987
1154.104358	0.044970
1154.259021	0.043654
1154.413667	0.036733
1154.568294	0.038023
1154.722903	0.032258
1154.877493	0.034306
1155.032066	0.026989
1155.186620	0.028391
1155.341156	0.029109
1155.495674	0.033357
1155.650173	0.035679
1155.804654	0.037958
1155.959118	0.043445
1156.113562	0.051418
1156.267989	0.049181
1156.422397	0.052997
1156.576788	0.043305
1156.731160	0.047188
1156.885513	0.038235
1157.039849	0.040198
1157.194166	0.040381
1157.348465	0.039241
1157.502746	0.032219
1157.657009	0.032382
1157.811253	0.030225
1157.965479	0.043431
1158.119687	0.035316
1158.273877	0.036238
1158.428048	0.031044
1158.582201	0.029754
1158.736337	0.027373
1158.890453	0.029663
1159.044552	0.029677
1159.198632	0.032481
1159.352694	0.020648
1159.506738	0.019143
1159.660764	0.030428
1159.814771	0.029848
1159.968761	0.027531
1160.122732	0.029803
1160.276685	0.025220
1160.430619	0.021903
1160.584535	0.021935
1160.738434	0.026603
1160.892313	0.030935
1161.046175	0.024877
1161.200019	0.028685
1161.353844	0.018666
1161.507651	0.014037
1161.661440	0.022514
1161.815210	0.020432
1161.968962	0.012827
1162.122697	0.012236
1162.276412	0.014865
1162.430110	0.007590
1162.583789	0.009410
1162.737451	0.024720
1162.891094	0.024065
1163.044718	0.018867
1163.198325	0.024279
1163.351913	0.034241
1163.505483	0.031712
1163.659035	0.030321
1163.812569	0.039586
1163.966084	0.030918
1164.119581	0.022256
1164.273060	0.022205
1164.426521	0.018073
1164.579964	0.013906
1164.733388	0.010482
1164.886794	0.015203
1165.040182	0.012938
1165.193551	0.007665
1165.346903	0.001743
1165.500236	0.006988
1165.653551	0.006466
1165.806848	0.011146
1165.960126	0.010206
1166.113386	0.011403
1166.266628	0.014890
1166.419852	0.011333
1166.573058	0.013896
1166.726245	0.020706
1166.879414	0.022330
1167.032565	0.023346
1167.185698	0.024362
1167.338812	0.021973
1167.491909	0.025739
1167.644987	0.021848
1167.798046	0.023861
1167.951088	0.032616
1168.104111	0.046100
1168.257117	0.050610
1168.410103	0.051972
1168.563072	0.061253
1168.716023	0.062365
1168.868955	0.053845
1169.021869	0.044994
1169.174765	0.050175
1169.327642	0.034238
1169.480501	0.028621
1169.633343	0.024490
1169.786165	0.030306
1169.938970	0.017098
1170.091757	0.028915
1170.244525	0.040630
1170.397275	0.047239
1170.550007	0.043893
1170.702720	0.047673
1170.855415	0.043429
1171.008092	0.046860
1171.160751	0.048510
1171.313392	0.060997
1171.466014	0.036273
1171.618619	0.092988
1171.771205	0.092988
1171.923772	0.092988
