sample name	sample
index	606
start time	 03-19-2021  01:41:58 PM


Wavelength (nm)	Absorbance
494.344910	0.200519
494.563924	0.200519
494.782919	0.200519
495.001897	-0.427943
495.220856	-0.031764
495.439797	-0.046736
495.658719	-0.090926
495.877624	-0.147564
496.096510	0.100436
496.315378	0.057015
496.534227	0.143547
496.753059	0.073434
496.971872	0.038007
497.190667	0.033291
497.409444	0.024394
497.628203	0.022908
497.846943	0.020069
498.065665	0.019298
498.284369	0.019950
498.503055	0.019296
498.721723	0.019893
498.940372	0.020015
499.159003	0.019255
499.377616	0.019184
499.596210	0.019136
499.814787	0.019622
500.033345	0.018813
500.251885	0.018143
500.470406	0.018305
500.688910	0.017709
500.907395	0.018058
501.125862	0.017618
501.344311	0.017132
501.562742	0.016545
501.781154	0.016645
501.999548	0.017072
502.217924	0.017517
502.436282	0.017138
502.654621	0.017477
502.872942	0.016541
503.091245	0.017329
503.309530	0.017273
503.527797	0.016767
503.746045	0.015478
503.964275	0.015291
504.182487	0.015731
504.400681	0.015899
504.618856	0.016047
504.837013	0.015848
505.055152	0.015263
505.273273	0.015786
505.491376	0.016793
505.709460	0.017663
505.927526	0.018103
506.145574	0.017256
506.363604	0.018093
506.581615	0.017650
506.799608	0.017576
507.017583	0.017548
507.235540	0.017351
507.453478	0.016551
507.671399	0.016001
507.889301	0.015064
508.107185	0.015122
508.325050	0.014343
508.542898	0.014522
508.760727	0.014788
508.978538	0.014977
509.196330	0.014562
509.414105	0.014761
509.631861	0.015125
509.849599	0.015491
510.067319	0.015242
510.285021	0.015506
510.502704	0.015104
510.720369	0.014922
510.938016	0.014961
511.155645	0.015563
511.373255	0.015451
511.590848	0.015878
511.808422	0.015628
512.025977	0.016239
512.243515	0.016231
512.461034	0.015948
512.678536	0.015633
512.896018	0.015384
513.113483	0.015039
513.330930	0.015241
513.548358	0.014770
513.765768	0.014561
513.983160	0.014222
514.200533	0.013457
514.417889	0.013606
514.635226	0.013670
514.852545	0.013231
515.069845	0.012250
515.287128	0.012194
515.504392	0.012242
515.721638	0.012554
515.938866	0.012402
516.156075	0.012551
516.373267	0.012171
516.590440	0.011957
516.807594	0.012079
517.024731	0.012716
517.241850	0.012431
517.458950	0.012407
517.676032	0.012572
517.893095	0.013009
518.110141	0.013243
518.327168	0.013283
518.544177	0.013815
518.761168	0.013723
518.978141	0.013768
519.195095	0.014320
519.412031	0.014229
519.628949	0.013797
519.845849	0.013525
520.062731	0.013254
520.279594	0.013467
520.496439	0.013032
520.713266	0.013717
520.930074	0.013579
521.146865	0.012889
521.363637	0.012642
521.580391	0.012484
521.797127	0.012074
522.013844	0.011759
522.230543	0.011767
522.447224	0.012096
522.663887	0.012157
522.880532	0.012200
523.097158	0.012592
523.313766	0.012451
523.530356	0.012415
523.746928	0.012436
523.963481	0.012470
524.180017	0.012334
524.396534	0.012602
524.613032	0.012434
524.829513	0.012576
525.045975	0.012133
525.262420	0.011889
525.478845	0.012216
525.695253	0.012245
525.911643	0.012452
526.128014	0.012942
526.344367	0.012348
526.560702	0.011974
526.777018	0.011497
526.993316	0.011534
527.209597	0.011843
527.425858	0.011392
527.642102	0.011704
527.858328	0.011120
528.074535	0.010858
528.290724	0.010862
528.506894	0.010693
528.723047	0.011011
528.939181	0.010786
529.155297	0.010843
529.371395	0.011156
529.587475	0.011221
529.803536	0.011896
530.019579	0.011524
530.235604	0.011699
530.451611	0.011921
530.667600	0.011932
530.883570	0.012089
531.099522	0.012017
531.315456	0.011937
531.531372	0.011981
531.747269	0.011845
531.963148	0.012297
532.179009	0.012495
532.394852	0.012407
532.610676	0.012491
532.826482	0.012495
533.042271	0.012637
533.258040	0.012502
533.473792	0.012032
533.689525	0.012019
533.905240	0.011489
534.120937	0.011333
534.336616	0.011017
534.552277	0.010230
534.767919	0.010017
534.983543	0.009842
535.199149	0.009811
535.414736	0.009934
535.630306	0.009791
535.845857	0.010085
536.061390	0.009624
536.276904	0.009787
536.492401	0.009987
536.707879	0.009913
536.923339	0.009584
537.138781	0.009668
537.354204	0.009800
537.569610	0.009759
537.784997	0.009715
538.000366	0.009977
538.215716	0.009795
538.431049	0.009743
538.646363	0.010103
538.861659	0.010053
539.076937	0.010044
539.292196	0.009798
539.507438	0.009617
539.722661	0.009235
539.937866	0.009302
540.153052	0.009056
540.368221	0.009341
540.583371	0.009238
540.798503	0.009308
541.013617	0.009077
541.228712	0.008948
541.443789	0.008906
541.658848	0.008659
541.873889	0.008318
542.088912	0.008920
542.303916	0.008991
542.518902	0.008934
542.733870	0.009033
542.948820	0.009138
543.163752	0.009109
543.378665	0.008960
543.593560	0.009084
543.808437	0.009184
544.023295	0.008872
544.238136	0.008349
544.452958	0.008524
544.667762	0.008523
544.882548	0.008444
545.097315	0.008624
545.312064	0.008845
545.526795	0.008824
545.741508	0.008781
545.956203	0.008853
546.170879	0.009345
546.385537	0.009212
546.600177	0.009361
546.814799	0.009148
547.029402	0.008909
547.243988	0.008684
547.458555	0.009073
547.673103	0.008993
547.887634	0.009012
548.102146	0.008642
548.316640	0.008544
548.531116	0.008269
548.745574	0.008542
548.960013	0.008642
549.174435	0.008806
549.388838	0.008466
549.603222	0.008346
549.817589	0.007930
550.031937	0.007703
550.246267	0.007723
550.460579	0.007700
550.674873	0.007292
550.889148	0.007332
551.103405	0.007355
551.317644	0.007401
551.531865	0.007638
551.746068	0.008002
551.960252	0.008451
552.174418	0.008434
552.388566	0.008587
552.602696	0.008806
552.816807	0.008564
553.030900	0.008247
553.244975	0.008350
553.459032	0.008431
553.673070	0.008250
553.887091	0.008167
554.101093	0.008090
554.315077	0.008037
554.529042	0.007948
554.742990	0.007688
554.956919	0.007689
555.170830	0.007537
555.384722	0.007316
555.598597	0.007304
555.812453	0.007094
556.026291	0.007170
556.240111	0.007412
556.453913	0.007642
556.667696	0.007980
556.881461	0.008438
557.095208	0.008632
557.308937	0.008798
557.522647	0.008829
557.736339	0.008755
557.950013	0.008609
558.163669	0.008657
558.377307	0.008573
558.590926	0.008311
558.804527	0.008314
559.018110	0.008084
559.231675	0.007913
559.445221	0.008031
559.658749	0.008430
559.872259	0.008581
560.085751	0.008269
560.299225	0.008155
560.512680	0.008111
560.726117	0.007966
560.939536	0.008081
561.152937	0.008051
561.366319	0.007603
561.579683	0.007076
561.793029	0.006726
562.006357	0.006763
562.219667	0.006523
562.432958	0.006892
562.646231	0.006712
562.859486	0.006616
563.072723	0.006628
563.285941	0.006762
563.499141	0.007092
563.712323	0.007476
563.925487	0.007359
564.138632	0.007377
564.351760	0.007373
564.564869	0.007182
564.777960	0.007150
564.991032	0.007050
565.204087	0.007072
565.417123	0.006883
565.630141	0.006613
565.843140	0.006445
566.056122	0.006737
566.269085	0.006527
566.482030	0.006611
566.694957	0.006492
566.907866	0.006498
567.120756	0.006622
567.333628	0.006454
567.546482	0.006360
567.759318	0.006209
567.972135	0.005671
568.184935	0.005709
568.397716	0.005569
568.610478	0.005598
568.823223	0.005686
569.035949	0.005434
569.248657	0.005144
569.461347	0.005320
569.674019	0.005824
569.886672	0.006053
570.099308	0.005958
570.311925	0.005979
570.524523	0.006100
570.737104	0.006097
570.949666	0.006119
571.162210	0.006587
571.374736	0.006347
571.587244	0.005885
571.799733	0.005923
572.012205	0.005951
572.224658	0.005977
572.437092	0.005952
572.649509	0.005831
572.861907	0.005617
573.074287	0.005474
573.286649	0.005457
573.498993	0.005492
573.711318	0.005600
573.923625	0.005610
574.135914	0.005588
574.348185	0.005561
574.560438	0.005416
574.772672	0.005572
574.984888	0.005681
575.197086	0.005540
575.409266	0.005722
575.621427	0.005466
575.833570	0.005286
576.045695	0.005526
576.257802	0.005126
576.469890	0.005246
576.681961	0.005227
576.894013	0.005308
577.106046	0.005381
577.318062	0.005109
577.530059	0.005160
577.742039	0.005214
577.954000	0.004938
578.165942	0.005019
578.377867	0.004669
578.589773	0.004577
578.801661	0.004455
579.013531	0.004375
579.225382	0.004171
579.437216	0.004027
579.649031	0.004046
579.860828	0.003853
580.072606	0.004130
580.284367	0.004159
580.496109	0.004506
580.707833	0.004651
580.919539	0.004746
581.131227	0.004881
581.342896	0.005086
581.554547	0.005247
581.766180	0.005373
581.977795	0.005055
582.189391	0.005187
582.400969	0.004956
582.612529	0.004797
582.824071	0.005078
583.035595	0.005403
583.247100	0.005437
583.458587	0.005046
583.670056	0.005068
583.881506	0.005322
584.092939	0.005480
584.304353	0.005242
584.515749	0.004940
584.727127	0.004541
584.938486	0.004081
585.149828	0.003793
585.361151	0.003877
585.572456	0.003719
585.783742	0.003349
585.995011	0.003149
586.206261	0.003126
586.417493	0.003284
586.628706	0.003409
586.839902	0.003670
587.051079	0.003813
587.262238	0.003697
587.473379	0.003872
587.684502	0.004084
587.895606	0.004149
588.106692	0.004486
588.317760	0.004595
588.528810	0.004678
588.739841	0.004710
588.950855	0.005060
589.161850	0.005185
589.372827	0.004876
589.583785	0.004881
589.794726	0.004778
590.005648	0.004567
590.216552	0.004629
590.427437	0.004552
590.638305	0.004387
590.849154	0.004197
591.059985	0.004143
591.270798	0.004328
591.481592	0.004265
591.692369	0.004163
591.903127	0.004178
592.113867	0.003677
592.324588	0.003644
592.535292	0.003704
592.745977	0.003219
592.956644	0.003304
593.167293	0.003277
593.377923	0.003358
593.588536	0.003644
593.799130	0.003766
594.009706	0.003967
594.220263	0.003837
594.430803	0.003657
594.641324	0.003900
594.851827	0.003765
595.062312	0.003799
595.272778	0.003634
595.483227	0.003440
595.693657	0.003260
595.904069	0.003393
596.114462	0.003408
596.324838	0.003611
596.535195	0.003747
596.745534	0.003828
596.955855	0.003936
597.166157	0.004090
597.376441	0.004195
597.586707	0.004160
597.796955	0.004067
598.007185	0.004177
598.217396	0.004055
598.427589	0.003929
598.637764	0.003949
598.847921	0.004021
599.058060	0.003934
599.268180	0.003731
599.478282	0.003687
599.688366	0.003626
599.898431	0.003709
600.108479	0.003748
600.318508	0.003641
600.528519	0.003446
600.738511	0.003175
600.948486	0.003068
601.158442	0.003210
601.368380	0.003095
601.578300	0.002888
601.788202	0.002563
601.998085	0.002402
602.207950	0.002450
602.417797	0.002691
602.627626	0.002773
602.837436	0.002729
603.047228	0.002508
603.257002	0.002606
603.466758	0.002777
603.676496	0.002840
603.886215	0.002931
604.095916	0.002891
604.305599	0.002677
604.515264	0.002492
604.724910	0.002344
604.934538	0.002350
605.144148	0.002375
605.353740	0.002202
605.563314	0.002275
605.772869	0.002206
605.982406	0.002145
606.191925	0.002184
606.401425	0.002416
606.610908	0.002659
606.820372	0.002689
607.029818	0.002664
607.239246	0.002959
607.448655	0.002759
607.658047	0.002825
607.867420	0.002805
608.076775	0.002816
608.286111	0.002610
608.495430	0.002626
608.704730	0.002545
608.914012	0.002527
609.123275	0.002581
609.332521	0.002748
609.541748	0.002606
609.750957	0.002753
609.960148	0.002732
610.169321	0.002752
610.378475	0.002701
610.587611	0.002873
610.796729	0.002895
611.005829	0.002747
611.214910	0.002584
611.423974	0.002743
611.633019	0.002615
611.842045	0.002333
612.051054	0.002334
612.260044	0.002474
612.469017	0.002249
612.677970	0.002283
612.886906	0.002114
613.095824	0.002118
613.304723	0.001994
613.513604	0.002077
613.722467	0.002295
613.931311	0.002357
614.140138	0.002333
614.348946	0.002493
614.557736	0.002366
614.766507	0.002300
614.975261	0.002315
615.183996	0.002298
615.392713	0.002167
615.601412	0.002136
615.810092	0.002129
616.018754	0.002023
616.227399	0.002060
616.436024	0.001975
616.644632	0.002290
616.853222	0.002487
617.061793	0.002433
617.270346	0.002537
617.478880	0.002652
617.687397	0.002662
617.895895	0.002520
618.104375	0.002534
618.312837	0.002517
618.521281	0.002408
618.729706	0.002160
618.938113	0.002178
619.146502	0.002009
619.354873	0.002000
619.563226	0.001859
619.771560	0.001916
619.979876	0.001803
620.188174	0.001959
620.396453	0.001858
620.604715	0.001950
620.812958	0.001999
621.021183	0.002034
621.229390	0.001954
621.437578	0.002005
621.645748	0.002020
621.853900	0.002028
622.062034	0.002048
622.270150	0.002124
622.478247	0.002212
622.686326	0.002324
622.894387	0.002409
623.102430	0.002476
623.310454	0.002463
623.518461	0.002416
623.726449	0.002447
623.934418	0.002417
624.142370	0.002433
624.350303	0.002338
624.558218	0.002204
624.766115	0.002214
624.973994	0.002206
625.181855	0.002083
625.389697	0.002066
625.597521	0.001922
625.805327	0.001839
626.013114	0.001862
626.220883	0.001863
626.428634	0.001700
626.636367	0.001571
626.844082	0.001429
627.051778	0.001459
627.259457	0.001316
627.467117	0.001377
627.674758	0.001396
627.882382	0.001353
628.089987	0.001195
628.297574	0.001237
628.505143	0.001284
628.712694	0.001186
628.920226	0.001470
629.127740	0.001613
629.335236	0.001641
629.542714	0.001708
629.750174	0.001514
629.957615	0.001490
630.165038	0.001665
630.372443	0.001676
630.579829	0.001636
630.787198	0.001424
630.994548	0.001459
631.201880	0.001426
631.409194	0.001375
631.616489	0.001701
631.823766	0.001803
632.031025	0.001701
632.238266	0.001667
632.445489	0.001798
632.652693	0.001866
632.859879	0.001709
633.067047	0.001682
633.274197	0.001552
633.481329	0.001440
633.688442	0.001579
633.895537	0.001611
634.102614	0.001686
634.309672	0.001668
634.516713	0.001573
634.723735	0.001683
634.930739	0.001729
635.137724	0.001951
635.344692	0.001816
635.551641	0.001652
635.758572	0.001635
635.965485	0.001368
636.172379	0.001287
636.379256	0.001106
636.586114	0.001135
636.792954	0.001140
636.999775	0.000980
637.206579	0.000855
637.413364	0.000892
637.620131	0.000845
637.826880	0.001070
638.033610	0.001262
638.240323	0.001406
638.447017	0.001372
638.653692	0.001382
638.860350	0.001533
639.066990	0.001631
639.273611	0.001575
639.480214	0.001585
639.686798	0.001434
639.893365	0.001346
640.099913	0.001399
640.306443	0.001462
640.512955	0.001328
640.719449	0.001120
640.925924	0.001092
641.132381	0.001106
641.338820	0.001107
641.545241	0.001235
641.751644	0.001133
641.958028	0.001146
642.164394	0.000955
642.370742	0.000943
642.577071	0.001131
642.783383	0.001171
642.989676	0.001181
643.195951	0.001105
643.402207	0.001076
643.608446	0.001045
643.814666	0.000970
644.020868	0.000957
644.227052	0.000915
644.433218	0.000883
644.639365	0.000943
644.845494	0.000960
645.051605	0.001061
645.257698	0.000899
645.463772	0.000969
645.669828	0.001037
645.875866	0.001052
646.081886	0.001117
646.287888	0.001072
646.493871	0.000964
646.699836	0.000857
646.905783	0.000821
647.111712	0.001004
647.317622	0.000941
647.523514	0.000808
647.729388	0.000853
647.935244	0.000943
648.141082	0.000906
648.346901	0.001081
648.552702	0.001251
648.758485	0.001315
648.964250	0.001278
649.169996	0.001356
649.375724	0.001512
649.581434	0.001525
649.787126	0.001427
649.992800	0.001336
650.198455	0.001191
650.404092	0.001111
650.609711	0.001075
650.815311	0.001040
651.020894	0.001132
651.226458	0.001056
651.432004	0.001127
651.637532	0.001126
651.843041	0.001143
652.048532	0.001164
652.254006	0.001140
652.459460	0.001156
652.664897	0.001156
652.870315	0.001035
653.075716	0.001024
653.281097	0.000944
653.486461	0.000992
653.691807	0.001141
653.897134	0.001101
654.102443	0.001138
654.307734	0.001172
654.513006	0.001141
654.718261	0.001069
654.923497	0.001100
655.128715	0.001204
655.333915	0.001184
655.539096	0.000942
655.744259	0.000807
655.949404	0.000729
656.154531	0.000561
656.359640	0.000570
656.564730	0.000726
656.769802	0.000696
656.974856	0.000553
657.179892	0.000673
657.384909	0.000827
657.589908	0.000805
657.794889	0.000827
657.999852	0.000716
658.204797	0.000689
658.409723	0.000712
658.614631	0.000747
658.819521	0.000740
659.024393	0.000584
659.229246	0.000482
659.434081	0.000577
659.638898	0.000571
659.843697	0.000724
660.048478	0.000812
660.253240	0.000682
660.457984	0.000641
660.662710	0.000732
660.867417	0.000524
661.072107	0.000547
661.276778	0.000686
661.481431	0.000694
661.686066	0.000774
661.890682	0.000630
662.095281	0.000586
662.299861	0.000674
662.504422	0.000723
662.708966	0.000976
662.913491	0.001013
663.117999	0.000929
663.322488	0.000852
663.526958	0.000811
663.731411	0.000861
663.935845	0.000940
664.140261	0.000791
664.344659	0.000699
664.549038	0.000641
664.753400	0.000697
664.957743	0.000737
665.162068	0.000729
665.366375	0.000677
665.570663	0.000707
665.774933	0.000712
665.979185	0.000695
666.183419	0.000752
666.387635	0.000805
666.591832	0.000704
666.796011	0.000699
667.000172	0.000842
667.204315	0.000905
667.408439	0.000876
667.612545	0.000781
667.816634	0.000810
668.020703	0.000655
668.224755	0.000557
668.428788	0.000512
668.632803	0.000495
668.836800	0.000356
669.040779	0.000342
669.244739	0.000345
669.448681	0.000517
669.652605	0.000620
669.856511	0.000804
670.060399	0.000930
670.264268	0.001111
670.468119	0.001179
670.671952	0.001262
670.875767	0.001290
671.079563	0.001410
671.283341	0.001378
671.487101	0.001367
671.690843	0.001245
671.894567	0.001197
672.098272	0.001136
672.301959	0.001136
672.505628	0.001098
672.709278	0.001098
672.912911	0.000922
673.116525	0.000897
673.320121	0.000725
673.523699	0.000740
673.727258	0.000726
673.930799	0.000653
674.134322	0.000500
674.337827	0.000393
674.541314	0.000422
674.744782	0.000482
674.948232	0.000342
675.151664	0.000375
675.355078	0.000375
675.558474	0.000234
675.761851	0.000126
675.965210	0.000185
676.168551	0.000368
676.371873	0.000251
676.575178	0.000200
676.778464	0.000206
676.981732	0.000276
677.184981	0.000252
677.388213	0.000397
677.591426	0.000534
677.794621	0.000506
677.997798	0.000473
678.200956	0.000494
678.404097	0.000459
678.607219	0.000521
678.810323	0.000513
679.013408	0.000510
679.216476	0.000473
679.419525	0.000438
679.622556	0.000433
679.825569	0.000375
680.028563	0.000373
680.231540	0.000428
680.434498	0.000367
680.637438	0.000400
680.840359	0.000434
681.043263	0.000401
681.246148	0.000464
681.449015	0.000374
681.651864	0.000402
681.854694	0.000425
682.057506	0.000491
682.260301	0.000574
682.463076	0.000574
682.665834	0.000516
682.868573	0.000475
683.071295	0.000419
683.273998	0.000522
683.476682	0.000486
683.679349	0.000502
683.881997	0.000467
684.084627	0.000404
684.287239	0.000326
684.489833	0.000328
684.692408	0.000424
684.894965	0.000386
685.097504	0.000375
685.300025	0.000409
685.502527	0.000470
685.705012	0.000539
685.907478	0.000566
686.109925	0.000639
686.312355	0.000647
686.514766	0.000665
686.717159	0.000755
686.919534	0.000743
687.121891	0.000632
687.324230	0.000488
687.526550	0.000414
687.728852	0.000243
687.931136	0.000254
688.133401	0.000325
688.335649	0.000255
688.537878	0.000105
688.740089	0.000132
688.942281	0.000191
689.144456	0.000187
689.346612	0.000244
689.548750	0.000450
689.750870	0.000345
689.952971	0.000334
690.155055	0.000382
690.357120	0.000514
690.559167	0.000456
690.761195	0.000459
690.963206	0.000450
691.165198	0.000416
691.367172	0.000440
691.569128	0.000414
691.771065	0.000438
691.972984	0.000384
692.174885	0.000240
692.376768	0.000290
692.578633	0.000361
692.780479	0.000426
692.982308	0.000316
693.184118	0.000224
693.385909	0.000264
693.587683	0.000144
693.789438	0.000129
693.991175	0.000215
694.192894	0.000168
694.394595	0.000152
694.596277	0.000110
694.797941	0.000165
694.999587	0.000214
695.201215	0.000353
695.402824	0.000514
695.604416	0.000546
695.805989	0.000542
696.007543	0.000560
696.209080	0.000555
696.410598	0.000534
696.612099	0.000515
696.813580	0.000377
697.015044	0.000193
697.216490	0.000035
697.417917	-0.000048
697.619326	-0.000045
697.820717	-0.000033
698.022089	-0.000060
698.223444	-0.000067
698.424780	-0.000088
698.626098	0.000043
698.827397	0.000172
699.028679	0.000133
699.229942	0.000213
699.431187	0.000223
699.632414	0.000199
699.833622	0.000111
700.034813	0.000041
700.235985	0.000065
700.437139	-0.000001
700.638274	-0.000081
700.839392	-0.000064
701.040491	-0.000040
701.241572	-0.000017
701.442635	-0.000060
701.643679	0.000026
701.844706	0.000060
702.045714	0.000065
702.246704	0.000242
702.447675	0.000185
702.648629	0.000231
702.849564	0.000246
703.050481	0.000129
703.251380	0.000137
703.452260	0.000203
703.653122	0.000223
703.853966	0.000328
704.054792	0.000121
704.255600	0.000183
704.456389	0.000206
704.657160	0.000193
704.857913	0.000234
705.058648	0.000277
705.259365	0.000111
705.460063	0.000187
705.660743	0.000211
705.861405	0.000290
706.062048	0.000219
706.262674	0.000248
706.463281	0.000207
706.663870	0.000296
706.864441	0.000356
707.064993	0.000448
707.265527	0.000345
707.466043	0.000190
707.666541	0.000142
707.867021	0.000320
708.067482	0.000323
708.267925	0.000205
708.468350	0.000120
708.668757	0.000005
708.869145	-0.000067
709.069516	0.000016
709.269868	0.000010
709.470201	-0.000064
709.670517	-0.000170
709.870814	-0.000198
710.071093	-0.000066
710.271354	-0.000051
710.471597	-0.000028
710.671821	-0.000044
710.872028	-0.000067
711.072216	-0.000052
711.272385	0.000054
711.472537	-0.000001
711.672670	-0.000063
711.872785	-0.000063
712.072882	-0.000127
712.272961	-0.000173
712.473021	-0.000089
712.673063	-0.000122
712.873087	-0.000123
713.073093	-0.000153
713.273081	-0.000211
713.473050	-0.000237
713.673001	-0.000244
713.872934	-0.000190
714.072849	-0.000185
714.272745	-0.000227
714.472623	-0.000255
714.672483	-0.000273
714.872325	-0.000367
715.072148	-0.000323
715.271954	-0.000496
715.471741	-0.000483
715.671509	-0.000592
715.871260	-0.000583
716.070992	-0.000532
716.270707	-0.000543
716.470403	-0.000560
716.670080	-0.000492
716.869740	-0.000499
717.069381	-0.000356
717.269004	-0.000423
717.468609	-0.000336
717.668195	-0.000369
717.867764	-0.000496
718.067314	-0.000478
718.266846	-0.000436
718.466360	-0.000436
718.665855	-0.000308
718.865332	-0.000302
719.064791	-0.000313
719.264232	-0.000341
719.463655	-0.000304
719.663059	-0.000243
719.862445	-0.000234
720.061813	-0.000238
720.261163	-0.000220
720.460494	-0.000401
720.659807	-0.000384
720.859102	-0.000455
721.058379	-0.000382
721.257638	-0.000413
721.456878	-0.000466
721.656100	-0.000523
721.855304	-0.000672
722.054490	-0.000775
722.253657	-0.000708
722.452806	-0.000688
722.651937	-0.000781
722.851050	-0.000947
723.050145	-0.001002
723.249221	-0.000926
723.448279	-0.000944
723.647319	-0.000933
723.846340	-0.000943
724.045344	-0.000970
724.244329	-0.001140
724.443296	-0.001028
724.642245	-0.000972
724.841175	-0.000967
725.040088	-0.001182
725.238982	-0.001192
725.437857	-0.001201
725.636715	-0.001160
725.835554	-0.001090
726.034376	-0.001089
726.233179	-0.001216
726.431963	-0.001412
726.630730	-0.001299
726.829478	-0.001242
727.028208	-0.001339
727.226920	-0.001276
727.425614	-0.001213
727.624289	-0.001324
727.822946	-0.001133
728.021585	-0.000957
728.220206	-0.000734
728.418808	-0.000807
728.617392	-0.000649
728.815958	-0.000572
729.014506	-0.000641
729.213036	-0.000775
729.411547	-0.000841
729.610040	-0.001144
729.808515	-0.001200
730.006972	-0.001372
730.205410	-0.001334
730.403831	-0.001586
730.602233	-0.001546
730.800616	-0.001360
730.998982	-0.001368
731.197329	-0.001471
731.395658	-0.001307
731.593969	-0.001405
731.792262	-0.001340
731.990536	-0.001532
732.188793	-0.001497
732.387031	-0.001592
732.585250	-0.001771
732.783452	-0.001706
732.981635	-0.001490
733.179800	-0.001440
733.377947	-0.001418
733.576076	-0.001415
733.774186	-0.001384
733.972278	-0.001273
734.170352	-0.001270
734.368408	-0.001257
734.566446	-0.001328
734.764465	-0.001531
734.962466	-0.001614
735.160449	-0.001478
735.358413	-0.001413
735.556360	-0.001359
735.754288	-0.001555
735.952198	-0.001667
736.150090	-0.001621
736.347963	-0.001693
736.545818	-0.001658
736.743655	-0.001771
736.941474	-0.001937
737.139275	-0.002088
737.337057	-0.002172
737.534821	-0.001989
737.732567	-0.001832
737.930295	-0.002013
738.128005	-0.002030
738.325696	-0.002025
738.523369	-0.001903
738.721024	-0.002013
738.918660	-0.001934
739.116279	-0.001961
739.313879	-0.002101
739.511461	-0.002231
739.709024	-0.002202
739.906570	-0.002037
740.104097	-0.002050
740.301606	-0.002209
740.499097	-0.002133
740.696569	-0.002315
740.894024	-0.002151
741.091460	-0.002193
741.288878	-0.002077
741.486277	-0.002012
741.683659	-0.002040
741.881022	-0.001941
742.078367	-0.001782
742.275694	-0.001852
742.473002	-0.001705
742.670293	-0.001825
742.867565	-0.001776
743.064819	-0.001721
743.262054	-0.001706
743.459272	-0.001875
743.656471	-0.001901
743.853652	-0.001887
744.050815	-0.001659
744.247959	-0.001739
744.445085	-0.001709
744.642194	-0.001565
744.839283	-0.001632
745.036355	-0.001465
745.233408	-0.001384
745.430444	-0.001294
745.627461	-0.001316
745.824459	-0.001362
746.021440	-0.001290
746.218402	-0.001169
746.415346	-0.001150
746.612272	-0.001244
746.809180	-0.001289
747.006069	-0.001172
747.202940	-0.001294
747.399793	-0.001209
747.596628	-0.001302
747.793444	-0.001299
747.990243	-0.001396
748.187023	-0.001482
748.383784	-0.001370
748.580528	-0.001317
748.777253	-0.001404
748.973960	-0.001378
749.170649	-0.001441
749.367320	-0.001356
749.563973	-0.001498
749.760607	-0.001474
749.957223	-0.001431
750.153821	-0.001376
750.350400	-0.001574
750.546962	-0.001519
750.743505	-0.001448
750.940030	-0.001413
751.136536	-0.001307
751.333025	-0.001221
751.529495	-0.001295
751.725947	-0.001374
751.922381	-0.001477
752.118796	-0.001507
752.315194	-0.001498
752.511573	-0.001645
752.707934	-0.001714
752.904276	-0.001696
753.100601	-0.001784
753.296907	-0.001706
753.493195	-0.001421
753.689465	-0.001371
753.885716	-0.001270
754.081949	-0.001306
754.278164	-0.001237
754.474361	-0.001232
754.670540	-0.001243
754.866700	-0.001064
755.062843	-0.001291
755.258967	-0.001556
755.455072	-0.001486
755.651160	-0.001419
755.847229	-0.001454
756.043280	-0.001417
756.239313	-0.001391
756.435328	-0.001391
756.631324	-0.001414
756.827302	-0.000989
757.023262	-0.000791
757.219204	-0.000842
757.415127	-0.000886
757.611033	-0.000933
757.806920	-0.000858
758.002788	-0.000791
758.198639	-0.000906
758.394471	-0.000902
758.590286	-0.001084
758.786081	-0.001133
758.981859	-0.001166
759.177619	-0.001177
759.373360	-0.001104
759.569083	-0.001170
759.764788	-0.001135
759.960474	-0.001142
760.156143	-0.001103
760.351793	-0.001095
760.547425	-0.001262
760.743038	-0.001263
760.938634	-0.001341
761.134211	-0.001133
761.329770	-0.001014
761.525311	-0.001064
761.720833	-0.000949
761.916338	-0.000890
762.111824	-0.000875
762.307292	-0.000719
762.502741	-0.000627
762.698173	-0.000499
762.893586	-0.000583
763.088981	-0.000600
763.284358	-0.000623
763.479716	-0.000551
763.675057	-0.000486
763.870379	-0.000535
764.065683	-0.000494
764.260968	-0.000562
764.456236	-0.000567
764.651485	-0.000631
764.846716	-0.000803
765.041929	-0.000812
765.237123	-0.000918
765.432299	-0.000951
765.627457	-0.000819
765.822597	-0.000916
766.017719	-0.000737
766.212822	-0.000881
766.407907	-0.000967
766.602974	-0.000752
766.798023	-0.000801
766.993054	-0.000813
767.188066	-0.000780
767.383060	-0.000908
767.578036	-0.000935
767.772993	-0.000978
767.967933	-0.000951
768.162854	-0.000873
768.357757	-0.000942
768.552642	-0.000843
768.747508	-0.000955
768.942356	-0.001030
769.137186	-0.001040
769.331998	-0.000987
769.526792	-0.001015
769.721567	-0.000898
769.916324	-0.000813
770.111063	-0.000800
770.305784	-0.000887
770.500486	-0.000738
770.695171	-0.000718
770.889837	-0.000666
771.084484	-0.000715
771.279114	-0.000593
771.473725	-0.000548
771.668318	-0.000654
771.862893	-0.000656
772.057450	-0.000386
772.251988	-0.000355
772.446509	-0.000351
772.641011	-0.000291
772.835494	-0.000115
773.029960	-0.000162
773.224407	-0.000224
773.418836	-0.000207
773.613247	-0.000253
773.807640	-0.000433
774.002014	-0.000543
774.196370	-0.000540
774.390708	-0.000416
774.585028	-0.000582
774.779330	-0.000738
774.973613	-0.000652
775.167878	-0.000357
775.362125	-0.000332
775.556354	-0.000266
775.750564	-0.000081
775.944756	-0.000116
776.138930	-0.000190
776.333086	-0.000185
776.527223	-0.000132
776.721343	-0.000341
776.915444	-0.000560
777.109526	-0.000534
777.303591	-0.000573
777.497637	-0.000649
777.691666	-0.000511
777.885676	-0.000579
778.079667	-0.000511
778.273641	-0.000483
778.467596	-0.000433
778.661533	-0.000439
778.855452	-0.000449
779.049352	-0.000529
779.243235	-0.000579
779.437099	-0.000578
779.630945	-0.000634
779.824773	-0.000604
780.018582	-0.000751
780.212373	-0.000644
780.406146	-0.000601
780.599901	-0.000558
780.793638	-0.000364
780.987356	-0.000202
781.181056	-0.000266
781.374738	-0.000223
781.568402	-0.000247
781.762047	-0.000122
781.955674	-0.000207
782.149283	-0.000429
782.342874	-0.000471
782.536447	-0.000423
782.730001	-0.000482
782.923537	-0.000451
783.117055	-0.000477
783.310555	-0.000459
783.504036	-0.000540
783.697499	-0.000440
783.890944	-0.000317
784.084371	-0.000267
784.277780	-0.000334
784.471170	-0.000386
784.664542	-0.000430
784.857896	-0.000477
785.051231	-0.000501
785.244549	-0.000415
785.437848	-0.000342
785.631129	-0.000338
785.824392	-0.000327
786.017636	-0.000250
786.210863	-0.000203
786.404071	-0.000079
786.597260	0.000003
786.790432	-0.000025
786.983585	0.000086
787.176721	-0.000009
787.369838	0.000051
787.562936	0.000029
787.756017	-0.000074
787.949079	-0.000145
788.142123	-0.000135
788.335149	-0.000034
788.528156	0.000060
788.721146	0.000097
788.914117	0.000151
789.107070	0.000282
789.300005	0.000259
789.492921	0.000337
789.685819	0.000392
789.878699	0.000274
790.071561	0.000368
790.264405	0.000509
790.457230	0.000430
790.650037	0.000284
790.842826	0.000377
791.035597	0.000463
791.228349	0.000430
791.421084	0.000516
791.613800	0.000459
791.806497	0.000313
791.999177	0.000208
792.191838	0.000303
792.384481	0.000476
792.577106	0.000257
792.769713	0.000283
792.962301	0.000269
793.154871	0.000105
793.347423	0.000282
793.539957	0.000495
793.732473	0.000511
793.924970	0.000486
794.117449	0.000515
794.309910	0.000513
794.502353	0.000562
794.694777	0.000570
794.887183	0.000703
795.079571	0.000487
795.271941	0.000294
795.464293	0.000237
795.656626	0.000031
795.848941	0.000052
796.041238	0.000084
796.233516	-0.000108
796.425777	-0.000071
796.618019	-0.000005
796.810243	0.000098
797.002449	0.000093
797.194636	0.000089
797.386805	0.000114
797.578956	0.000212
797.771089	0.000195
797.963204	0.000215
798.155300	0.000230
798.347378	0.000363
798.539438	0.000490
798.731480	0.000508
798.923503	0.000537
799.115509	0.000783
799.307496	0.000707
799.499465	0.000810
799.691415	0.001016
799.883348	0.000864
800.075262	0.000749
800.267158	0.000614
800.459035	0.000544
800.650895	0.000433
800.842736	0.000330
801.034559	0.000196
801.226364	0.000077
801.418150	-0.000087
801.609919	0.000094
801.801669	0.000219
801.993401	0.000307
802.185114	0.000475
802.376810	0.000473
802.568487	0.000414
802.760146	0.000462
802.951787	0.000593
803.143409	0.000631
803.335014	0.000553
803.526600	0.000416
803.718168	0.000464
803.909717	0.000353
804.101249	0.000443
804.292762	0.000325
804.484257	0.000166
804.675734	0.000161
804.867192	0.000216
805.058632	0.000234
805.250054	0.000122
805.441458	0.000027
805.632844	0.000057
805.824211	0.000041
806.015561	0.000228
806.206891	0.000423
806.398204	0.000352
806.589499	0.000403
806.780775	0.000302
806.972033	0.000289
807.163273	0.000218
807.354495	0.000203
807.545698	0.000212
807.736883	-0.000000
807.928050	-0.000080
808.119199	-0.000170
808.310329	-0.000203
808.501441	-0.000164
808.692535	-0.000107
808.883611	0.000008
809.074669	0.000191
809.265708	0.000295
809.456729	0.000530
809.647732	0.000655
809.838717	0.000536
810.029683	0.000426
810.220632	0.000576
810.411562	0.000534
810.602474	0.000396
810.793367	0.000225
810.984242	0.000140
811.175100	-0.000019
811.365938	-0.000052
811.556759	0.000206
811.747562	0.000269
811.938346	0.000102
812.129112	0.000182
812.319860	0.000488
812.510589	0.000377
812.701300	0.000272
812.891994	0.000433
813.082668	0.000343
813.273325	0.000440
813.463964	0.000563
813.654584	0.000716
813.845186	0.000811
814.035769	0.000592
814.226335	0.000722
814.416882	0.000897
814.607411	0.000640
814.797922	0.000749
814.988415	0.000593
815.178889	0.000542
815.369345	0.000457
815.559783	0.000392
815.750203	0.000684
815.940605	0.000694
816.130988	0.000653
816.321353	0.000895
816.511700	0.001062
816.702028	0.000992
816.892339	0.000825
817.082631	0.000966
817.272905	0.000958
817.463161	0.000559
817.653398	0.000500
817.843617	0.000520
818.033819	0.000473
818.224001	0.000210
818.414166	0.000296
818.604312	0.000372
818.794440	0.000282
818.984550	0.000175
819.174642	0.000204
819.364716	0.000128
819.554771	0.000035
819.744808	-0.000192
819.934827	-0.000201
820.124827	-0.000180
820.314810	-0.000227
820.504774	-0.000257
820.694720	-0.000348
820.884647	-0.000156
821.074557	-0.000120
821.264448	-0.000165
821.454321	-0.000052
821.644176	0.000022
821.834012	0.000034
822.023831	-0.000067
822.213631	-0.000051
822.403413	-0.000150
822.593176	-0.000357
822.782922	-0.000427
822.972649	-0.000400
823.162358	-0.000276
823.352049	-0.000607
823.541721	-0.000568
823.731376	-0.000625
823.921012	-0.000754
824.110629	-0.000648
824.300229	-0.000670
824.489811	-0.000717
824.679374	-0.000618
824.868919	-0.000838
825.058445	-0.000541
825.247954	-0.000703
825.437444	-0.000561
825.626916	-0.000623
825.816370	-0.000590
826.005806	-0.000469
826.195223	-0.000561
826.384622	-0.000655
826.574003	-0.000631
826.763366	-0.000854
826.952711	-0.000720
827.142037	-0.000644
827.331345	-0.000547
827.520635	-0.000654
827.709906	-0.000789
827.899160	-0.000705
828.088395	-0.000621
828.277612	-0.000521
828.466810	-0.000409
828.655991	-0.000554
828.845153	-0.000616
829.034297	-0.000823
829.223423	-0.000907
829.412531	-0.000806
829.601620	-0.000565
829.790691	-0.000732
829.979744	-0.000766
830.168779	-0.000621
830.357795	-0.000613
830.546793	-0.000758
830.735773	-0.000525
830.924735	-0.000367
831.113679	-0.000251
831.302604	-0.000372
831.491511	-0.000236
831.680400	-0.000202
831.869271	-0.000279
832.058123	-0.000375
832.246957	-0.000214
832.435773	-0.000503
832.624571	-0.000431
832.813351	-0.000459
833.002112	-0.000636
833.190855	-0.000745
833.379580	-0.000908
833.568287	-0.001034
833.756975	-0.000878
833.945645	-0.001187
834.134297	-0.001169
834.322931	-0.001435
834.511547	-0.001557
834.700144	-0.001392
834.888723	-0.001489
835.077284	-0.001494
835.265826	-0.001488
835.454351	-0.001768
835.642857	-0.001645
835.831345	-0.001460
836.019815	-0.001362
836.208266	-0.001386
836.396699	-0.001614
836.585114	-0.001491
836.773511	-0.001455
836.961890	-0.001439
837.150250	-0.001204
837.338592	-0.001095
837.526916	-0.001232
837.715222	-0.001078
837.903510	-0.000931
838.091779	-0.000706
838.280030	-0.000903
838.468263	-0.000727
838.656477	-0.000765
838.844674	-0.000874
839.032852	-0.001082
839.221012	-0.000982
839.409153	-0.001089
839.597277	-0.001509
839.785382	-0.001785
839.973469	-0.001581
840.161538	-0.001581
840.349589	-0.001291
840.537621	-0.001400
840.725635	-0.001272
840.913631	-0.001323
841.101609	-0.001466
841.289568	-0.001252
841.477509	-0.001077
841.665432	-0.001074
841.853337	-0.001035
842.041224	-0.001363
842.229092	-0.001209
842.416942	-0.001295
842.604774	-0.001317
842.792588	-0.001265
842.980383	-0.001260
843.168160	-0.001312
843.355919	-0.001487
843.543660	-0.001715
843.731382	-0.001636
843.919087	-0.001793
844.106773	-0.001728
844.294441	-0.001652
844.482090	-0.001728
844.669722	-0.001549
844.857335	-0.001398
845.044930	-0.001438
845.232507	-0.001458
845.420065	-0.001634
845.607605	-0.001524
845.795127	-0.001615
845.982631	-0.001847
846.170117	-0.001573
846.357584	-0.001619
846.545033	-0.001661
846.732464	-0.001583
846.919877	-0.001593
847.107272	-0.001566
847.294648	-0.001571
847.482006	-0.001477
847.669346	-0.001469
847.856667	-0.001530
848.043971	-0.001696
848.231256	-0.001667
848.418523	-0.001614
848.605771	-0.001567
848.793002	-0.001630
848.980214	-0.001585
849.167408	-0.001666
849.354584	-0.001622
849.541742	-0.001621
849.728881	-0.001720
849.916002	-0.001787
850.103105	-0.001511
850.290190	-0.001477
850.477256	-0.001215
850.664304	-0.001163
850.851334	-0.000962
851.038346	-0.000947
851.225340	-0.001010
851.412315	-0.000712
851.599272	-0.000708
851.786211	-0.000850
851.973132	-0.000973
852.160034	-0.001008
852.346918	-0.001007
852.533784	-0.001285
852.720632	-0.001204
852.907462	-0.001017
853.094273	-0.001124
853.281066	-0.000959
853.467841	-0.001187
853.654598	-0.000978
853.841336	-0.000879
854.028056	-0.000882
854.214758	-0.000489
854.401442	-0.000493
854.588107	-0.000679
854.774755	-0.000752
854.961384	-0.000833
855.147995	-0.000758
855.334587	-0.000825
855.521162	-0.000980
855.707718	-0.000879
855.894256	-0.001019
856.080775	-0.000735
856.267277	-0.000680
856.453760	-0.000704
856.640225	-0.000690
856.826672	-0.000601
857.013101	-0.000528
857.199511	-0.000261
857.385903	-0.000558
857.572277	-0.000621
857.758633	-0.000955
857.944970	-0.001011
858.131290	-0.001208
858.317591	-0.001228
858.503873	-0.001428
858.690138	-0.001433
858.876384	-0.001740
859.062612	-0.001613
859.248822	-0.001599
859.435014	-0.001467
859.621188	-0.001466
859.807343	-0.001318
859.993480	-0.001385
860.179599	-0.001248
860.365699	-0.001283
860.551781	-0.001228
860.737846	-0.001206
860.923891	-0.000984
861.109919	-0.001004
861.295929	-0.000890
861.481920	-0.000773
861.667893	-0.000656
861.853848	-0.000693
862.039784	-0.000761
862.225702	-0.000790
862.411603	-0.000776
862.597484	-0.001042
862.783348	-0.000798
862.969193	-0.000935
863.155021	-0.000788
863.340830	-0.000958
863.526620	-0.000997
863.712393	-0.000767
863.898147	-0.000686
864.083883	-0.000612
864.269601	-0.000630
864.455301	-0.000825
864.640982	-0.000834
864.826645	-0.000834
865.012290	-0.000777
865.197917	-0.000734
865.383526	-0.000862
865.569116	-0.000798
865.754688	-0.000856
865.940242	-0.000813
866.125777	-0.000817
866.311295	-0.000638
866.496794	-0.000750
866.682275	-0.000615
866.867737	-0.000488
867.053182	-0.000574
867.238608	-0.000328
867.424016	-0.000319
867.609406	-0.000271
867.794778	-0.000164
867.980131	-0.000256
868.165466	-0.000247
868.350783	-0.000132
868.536082	-0.000118
868.721362	0.000002
868.906625	-0.000019
869.091869	0.000066
869.277094	0.000280
869.462302	0.000272
869.647491	0.000370
869.832662	0.000473
870.017815	0.000322
870.202950	0.000333
870.388066	0.000364
870.573165	0.000118
870.758245	-0.000080
870.943306	-0.000212
871.128350	-0.000262
871.313375	-0.000534
871.498382	-0.000763
871.683371	-0.000742
871.868342	-0.000684
872.053294	-0.000617
872.238229	-0.000717
872.423144	-0.000710
872.608042	-0.000643
872.792922	-0.000751
872.977783	-0.000540
873.162626	-0.000519
873.347451	-0.000520
873.532258	-0.000422
873.717046	-0.000367
873.901816	-0.000079
874.086568	-0.000005
874.271302	-0.000220
874.456017	0.000042
874.640715	0.000021
874.825394	0.000254
875.010055	0.000222
875.194697	0.000061
875.379322	-0.000025
875.563928	-0.000316
875.748516	-0.000263
875.933085	0.000137
876.117637	-0.000036
876.302170	0.000087
876.486685	0.000029
876.671182	0.000086
876.855661	0.000050
877.040121	-0.000142
877.224563	0.000184
877.408987	0.000255
877.593393	0.000172
877.777780	0.000189
877.962150	0.000361
878.146501	0.000423
878.330833	0.000546
878.515148	0.000519
878.699444	0.000733
878.883722	0.000803
879.067982	0.000945
879.252224	0.000818
879.436447	0.000892
879.620653	0.000628
879.804840	0.000680
879.989008	0.000616
880.173159	0.000763
880.357291	0.000752
880.541405	0.000486
880.725501	0.000293
880.909579	0.000342
881.093638	0.000471
881.277680	0.000430
881.461703	0.000410
881.645707	0.000396
881.829694	0.000392
882.013662	0.000400
882.197612	0.000351
882.381544	0.000379
882.565458	0.000390
882.749353	0.000429
882.933230	0.000318
883.117089	0.000533
883.300930	0.000466
883.484753	0.000363
883.668557	0.000408
883.852343	0.000754
884.036111	0.000903
884.219861	0.000813
884.403592	0.000760
884.587305	0.000916
884.771000	0.000845
884.954677	0.000819
885.138335	0.000864
885.321976	0.000878
885.505598	0.000574
885.689201	0.000491
885.872787	0.000331
886.056354	0.000370
886.239904	0.000435
886.423434	0.000285
886.606947	0.000505
886.790442	0.000689
886.973918	0.000860
887.157376	0.000687
887.340816	0.000748
887.524237	0.001005
887.707641	0.000883
887.891026	0.001098
888.074393	0.001309
888.257741	0.001076
888.441072	0.000801
888.624384	0.000958
888.807678	0.001285
888.990954	0.001147
889.174211	0.001196
889.357451	0.001305
889.540672	0.001259
889.723875	0.000993
889.907059	0.000794
890.090226	0.001128
890.273374	0.000725
890.456504	0.000929
890.639616	0.001090
890.822709	0.001081
891.005785	0.000981
891.188842	0.000981
891.371881	0.000930
891.554901	0.001565
891.737904	0.001250
891.920888	0.001000
892.103854	0.000784
892.286802	0.000421
892.469731	0.000302
892.652643	0.000265
892.835536	0.000067
893.018410	0.000238
893.201267	-0.000142
893.384106	-0.000044
893.566926	-0.000013
893.749728	-0.000201
893.932511	-0.000155
894.115277	-0.000346
894.298024	-0.000454
894.480753	-0.000465
894.663464	-0.000505
894.846157	-0.000486
895.028831	-0.000428
895.211487	-0.000018
895.394125	0.000106
895.576745	0.000211
895.759346	0.000346
895.941930	0.000386
896.124495	0.000361
896.307041	0.000467
896.489570	0.000413
896.672080	0.000394
896.854573	0.000432
897.037046	0.000589
897.219502	0.000690
897.401940	0.000889
897.584359	0.000965
897.766760	0.001220
897.949143	0.000956
898.131507	0.001074
898.313854	0.001239
898.496182	0.001121
898.678492	0.001118
898.860783	0.001088
899.043057	0.000825
899.225312	0.000688
899.407549	0.000395
899.589768	0.000671
899.771968	0.000920
899.954151	0.000827
900.136315	0.000935
900.318461	0.000867
900.500588	0.000825
900.682698	0.001017
900.864789	0.001189
901.046862	0.001534
901.228917	0.001452
901.410953	0.001107
901.592971	0.000904
901.774972	0.000846
901.956953	0.000642
902.138917	0.000627
902.320862	0.000624
902.502790	0.000640
902.684699	0.000602
902.866589	0.000633
903.048462	0.000466
903.230316	0.000560
903.412152	0.000472
903.593970	0.000647
903.775770	0.000755
903.957551	0.000694
904.139314	0.000608
904.321059	0.000551
904.502786	0.000449
904.684494	0.000615
904.866185	0.000768
905.047857	0.000855
905.229510	0.000943
905.411146	0.001113
905.592763	0.001203
905.774363	0.001453
905.955943	0.001414
906.137506	0.001241
906.319051	0.001443
906.500577	0.001419
906.682085	0.001147
906.863575	0.000962
907.045046	0.000860
907.226500	0.000845
907.407935	0.000796
907.589352	0.000719
907.770750	0.000979
907.952131	0.000636
908.133493	0.000303
908.314837	0.000430
908.496163	0.000505
908.677470	0.000655
908.858760	0.000742
909.040031	0.000721
909.221284	0.000831
909.402518	0.000876
909.583735	0.001019
909.764933	0.001271
909.946113	0.001609
910.127275	0.001457
910.308418	0.001001
910.489544	0.000904
910.670651	0.000557
910.851740	0.000754
911.032810	0.000445
911.213863	0.000351
911.394897	0.000265
911.575913	-0.000049
911.756911	0.000210
911.937890	0.000470
912.118851	0.000737
912.299794	0.001137
912.480719	0.000525
912.661626	0.000906
912.842514	0.000623
913.023384	0.000553
913.204236	0.000541
913.385070	0.000266
913.565886	0.000018
913.746683	-0.000359
913.927462	-0.000577
914.108223	-0.000272
914.288965	-0.000940
914.469690	-0.000403
914.650396	-0.000602
914.831084	-0.001054
915.011754	-0.000875
915.192405	-0.000648
915.373038	-0.000708
915.553653	-0.001022
915.734250	-0.001107
915.914829	-0.000994
916.095389	-0.001020
916.275931	-0.000511
916.456455	-0.000053
916.636961	0.000209
916.817448	-0.000044
916.997917	0.000197
917.178368	0.000491
917.358801	0.000124
917.539216	0.000123
917.719612	-0.000144
917.899990	-0.000550
918.080350	-0.000622
918.260692	-0.001030
918.441015	-0.000710
918.621320	-0.000964
918.801607	-0.001360
918.981876	-0.001099
919.162127	-0.000787
919.342359	-0.000569
919.522573	-0.000735
919.702769	-0.000762
919.882947	-0.000859
920.063106	-0.001063
920.243247	-0.001513
920.423370	-0.001349
920.603475	-0.001262
920.783562	-0.001449
920.963630	-0.001864
921.143680	-0.001599
921.323712	-0.001821
921.503725	-0.001911
921.683721	-0.001839
921.863698	-0.001186
922.043657	-0.001109
922.223598	-0.001374
922.403520	-0.001331
922.583424	-0.001101
922.763311	-0.001361
922.943178	-0.001623
923.123028	-0.001716
923.302859	-0.001939
923.482673	-0.002843
923.662467	-0.002788
923.842244	-0.002723
924.022003	-0.002746
924.201743	-0.002982
924.381465	-0.003250
924.561169	-0.002964
924.740854	-0.002927
924.920522	-0.003374
925.100171	-0.002730
925.279802	-0.002894
925.459414	-0.003110
925.639009	-0.003163
925.818585	-0.003136
925.998143	-0.003311
926.177683	-0.003668
926.357205	-0.003481
926.536708	-0.003095
926.716193	-0.003120
926.895660	-0.003314
927.075109	-0.003448
927.254539	-0.003322
927.433951	-0.003535
927.613345	-0.003212
927.792721	-0.003124
927.972079	-0.003739
928.151418	-0.003965
928.330739	-0.004209
928.510042	-0.004678
928.689327	-0.004544
928.868593	-0.005027
929.047841	-0.004905
929.227071	-0.005302
929.406283	-0.005557
929.585476	-0.005316
929.764652	-0.005502
929.943809	-0.005561
930.122948	-0.005035
930.302068	-0.004689
930.481171	-0.004758
930.660255	-0.004714
930.839321	-0.004468
931.018369	-0.004723
931.197398	-0.004590
931.376409	-0.004529
931.555402	-0.004422
931.734377	-0.004344
931.913334	-0.004438
932.092272	-0.004521
932.271192	-0.005237
932.450094	-0.005046
932.628978	-0.004554
932.807844	-0.004716
932.986691	-0.004234
933.165520	-0.004863
933.344331	-0.005152
933.523123	-0.006217
933.701898	-0.006123
933.880654	-0.005740
934.059392	-0.005723
934.238111	-0.005770
934.416813	-0.005747
934.595496	-0.006361
934.774161	-0.006303
934.952808	-0.006444
935.131437	-0.005932
935.310047	-0.005843
935.488639	-0.005459
935.667213	-0.005903
935.845769	-0.005722
936.024306	-0.006103
936.202825	-0.005683
936.381326	-0.005614
936.559809	-0.005633
936.738274	-0.005692
936.916720	-0.005736
937.095148	-0.006115
937.273558	-0.005601
937.451950	-0.005663
937.630323	-0.005933
937.808678	-0.006396
937.987015	-0.005708
938.165334	-0.006204
938.343635	-0.005732
938.521917	-0.005281
938.700181	-0.005186
938.878427	-0.005811
939.056655	-0.005895
939.234864	-0.005926
939.413055	-0.006034
939.591228	-0.006794
939.769383	-0.006529
939.947519	-0.007068
940.125638	-0.008452
940.303738	-0.009128
940.481820	-0.008609
940.659883	-0.009118
940.837929	-0.008194
941.015956	-0.007645
941.193965	-0.007289
941.371955	-0.007071
941.549928	-0.006991
941.727882	-0.005966
941.905818	-0.005774
942.083736	-0.005860
942.261636	-0.005467
942.439517	-0.005879
942.617380	-0.006276
942.795225	-0.006629
942.973052	-0.006611
943.150860	-0.006447
943.328651	-0.006722
943.506423	-0.005923
943.684176	-0.005978
943.861912	-0.006021
944.039629	-0.006100
944.217328	-0.006267
944.395009	-0.005798
944.572672	-0.005805
944.750317	-0.005872
944.927943	-0.005565
945.105551	-0.005481
945.283141	-0.006021
945.460712	-0.005821
945.638265	-0.005988
945.815801	-0.006097
945.993317	-0.006376
946.170816	-0.006078
946.348297	-0.006653
946.525759	-0.007233
946.703203	-0.007768
946.880629	-0.006740
947.058036	-0.006861
947.235425	-0.005861
947.412797	-0.005604
947.590149	-0.005190
947.767484	-0.005474
947.944800	-0.004479
948.122099	-0.003775
948.299379	-0.002675
948.476640	-0.003555
948.653884	-0.003644
948.831109	-0.004712
949.008316	-0.004052
949.185505	-0.004900
949.362676	-0.004542
949.539828	-0.004234
949.716962	-0.004176
949.894078	-0.005569
950.071176	-0.004538
950.248256	-0.004984
950.425317	-0.003787
950.602360	-0.004322
950.779385	-0.003135
950.956391	-0.002759
951.133380	-0.003149
951.310350	-0.003259
951.487302	-0.002181
951.664235	-0.002183
951.841151	-0.000935
952.018048	-0.001237
952.194927	-0.000788
952.371788	-0.000984
952.548631	-0.001768
952.725455	-0.001363
952.902261	-0.001718
953.079049	-0.001366
953.255819	-0.000661
953.432570	-0.000415
953.609303	-0.000788
953.786018	-0.000702
953.962715	-0.000039
954.139394	0.000704
954.316054	-0.000073
954.492696	0.000307
954.669320	0.000644
954.845926	0.000603
955.022513	-0.000406
955.199083	0.000634
955.375634	0.000381
955.552166	0.000066
955.728681	0.001748
955.905177	0.002318
956.081655	0.002078
956.258115	0.001953
956.434557	0.001899
956.610980	0.002940
956.787385	0.002597
956.963772	0.002526
957.140141	0.002223
957.316492	0.001963
957.492824	0.002722
957.669138	0.003468
957.845434	0.003362
958.021712	0.002670
958.197971	0.003636
958.374212	0.005080
958.550435	0.006905
958.726640	0.007611
958.902826	0.007332
959.078995	0.006440
959.255145	0.008852
959.431277	0.008648
959.607390	0.010449
959.783486	0.011326
959.959563	0.011702
960.135622	0.011420
960.311662	0.011480
960.487685	0.010886
960.663689	0.011849
960.839675	0.010372
961.015643	0.012639
961.191593	0.010287
961.367524	0.010219
961.543437	0.010141
961.719332	0.010194
961.895209	0.011465
962.071067	0.011239
962.246907	0.012650
962.422730	0.011880
962.598533	0.010217
962.774319	0.012395
962.950086	0.010590
963.125835	0.009436
963.301566	0.009926
963.477279	0.009444
963.652973	0.009948
963.828650	0.008898
964.004308	0.010277
964.179947	0.010961
964.355569	0.012445
964.531172	0.013311
964.706757	0.013582
964.882324	0.015137
965.057873	0.016376
965.233403	0.018555
965.408916	0.019315
965.584410	0.017850
965.759885	0.017553
965.935343	0.015829
966.110782	0.016577
966.286203	0.016264
966.461606	0.015572
966.636991	0.014104
966.812357	0.013441
966.987705	0.013237
967.163035	0.015099
967.338347	0.014771
967.513641	0.015907
967.688916	0.015902
967.864173	0.017997
968.039412	0.017862
968.214632	0.018380
968.389835	0.019675
968.565019	0.020490
968.740185	0.019093
968.915333	0.019492
969.090462	0.018806
969.265573	0.019839
969.440667	0.019964
969.615741	0.019706
969.790798	0.018824
969.965836	0.019044
970.140856	0.018710
970.315858	0.018687
970.490842	0.018685
970.665808	0.018765
970.840755	0.018239
971.015684	0.017248
971.190595	0.016330
971.365487	0.016603
971.540362	0.015009
971.715218	0.015609
971.890056	0.016816
972.064875	0.016961
972.239677	0.015614
972.414460	0.014406
972.589225	0.014556
972.763972	0.014837
972.938700	0.015969
973.113411	0.017241
973.288103	0.016977
973.462777	0.015862
973.637432	0.017078
973.812070	0.018377
973.986689	0.019021
974.161290	0.018567
974.335873	0.018673
974.510437	0.018401
974.684984	0.016536
974.859512	0.016451
975.034022	0.018137
975.208513	0.017558
975.382987	0.018011
975.557442	0.017779
975.731879	0.018654
975.906298	0.019613
976.080698	0.020728
976.255080	0.021269
976.429445	0.020448
976.603790	0.019951
976.778118	0.020196
976.952427	0.021175
977.126719	0.022582
977.300992	0.020371
977.475246	0.020144
977.649483	0.018382
977.823701	0.020116
977.997901	0.020967
978.172083	0.020173
978.346247	0.019219
978.520392	0.019590
978.694519	0.019477
978.868628	0.022294
979.042719	0.021690
979.216791	0.022180
979.390845	0.020579
979.564882	0.021282
979.738899	0.021390
979.912899	0.022013
980.086880	0.022675
980.260843	0.021637
980.434788	0.018626
980.608715	0.017632
980.782623	0.018762
980.956514	0.018756
981.130386	0.018323
981.304240	0.018832
981.478075	0.018738
981.651892	0.017333
981.825692	0.016604
981.999472	0.019129
982.173235	0.022169
982.346980	0.020414
982.520706	0.021291
982.694414	0.022336
982.868104	0.022134
983.041775	0.020937
983.215428	0.019396
983.389064	0.019857
983.562680	0.020373
983.736279	0.018526
983.909860	0.019068
984.083422	0.018433
984.256966	0.016406
984.430491	0.016540
984.603999	0.017060
984.777488	0.017351
984.950959	0.017425
985.124412	0.015282
985.297847	0.014776
985.471263	0.014857
985.644661	0.015866
985.818041	0.016718
985.991403	0.016063
986.164747	0.016843
986.338072	0.017793
986.511379	0.017703
986.684668	0.019185
986.857938	0.018561
987.031191	0.019149
987.204425	0.017385
987.377641	0.017943
987.550839	0.018366
987.724018	0.017775
987.897179	0.016233
988.070322	0.015151
988.243447	0.014032
988.416554	0.014885
988.589642	0.014820
988.762712	0.014963
988.935764	0.013400
989.108798	0.013022
989.281813	0.012501
989.454811	0.013816
989.627790	0.014536
989.800751	0.014736
989.973693	0.016911
990.146617	0.016786
990.319524	0.016178
990.492412	0.016143
990.665281	0.017272
990.838133	0.017283
991.010966	0.016768
991.183781	0.017495
991.356578	0.017517
991.529356	0.016378
991.702117	0.014346
991.874859	0.016151
992.047583	0.016139
992.220288	0.015327
992.392976	0.015547
992.565645	0.016570
992.738296	0.016036
992.910929	0.015898
993.083543	0.016510
993.256139	0.018925
993.428718	0.019287
993.601277	0.020614
993.773819	0.020822
993.946342	0.019823
994.118848	0.019596
994.291335	0.020681
994.463803	0.019900
994.636254	0.018604
994.808686	0.018550
994.981100	0.017767
995.153496	0.017372
995.325874	0.015945
995.498233	0.018034
995.670574	0.017439
995.842897	0.017181
996.015202	0.016779
996.187488	0.016599
996.359757	0.015683
996.532007	0.014612
996.704239	0.013485
996.876452	0.014696
997.048648	0.012638
997.220825	0.012796
997.392984	0.012261
997.565124	0.012227
997.737247	0.013026
997.909351	0.012418
998.081437	0.012989
998.253505	0.013596
998.425554	0.014204
998.597586	0.015745
998.769599	0.014836
998.941594	0.013962
999.113571	0.016408
999.285529	0.015627
999.457469	0.017347
999.629391	0.017479
999.801295	0.017777
999.973181	0.016712
1000.145048	0.017061
1000.316897	0.017918
1000.488728	0.018302
1000.660541	0.016982
1000.832335	0.017507
1001.004111	0.016639
1001.175869	0.015490
1001.347609	0.015992
1001.519331	0.015829
1001.691034	0.016085
1001.862719	0.014326
1002.034386	0.014144
1002.206035	0.013857
1002.377665	0.013622
1002.549277	0.013463
1002.720871	0.013061
1002.892447	0.012020
1003.064004	0.012309
1003.235544	0.011869
1003.407065	0.013410
1003.578568	0.013854
1003.750052	0.014607
1003.921519	0.014439
1004.092967	0.015228
1004.264397	0.016664
1004.435809	0.017794
1004.607202	0.017223
1004.778577	0.015710
1004.949934	0.014888
1005.121273	0.014982
1005.292594	0.015623
1005.463896	0.014973
1005.635180	0.013644
1005.806446	0.012844
1005.977694	0.012394
1006.148923	0.012860
1006.320135	0.014239
1006.491328	0.015778
1006.662503	0.015095
1006.833659	0.013831
1007.004798	0.015059
1007.175918	0.014707
1007.347020	0.014878
1007.518103	0.013966
1007.689169	0.015071
1007.860216	0.015049
1008.031245	0.014930
1008.202256	0.015686
1008.373248	0.015305
1008.544223	0.015386
1008.715179	0.015944
1008.886117	0.016309
1009.057036	0.015916
1009.227938	0.014653
1009.398821	0.013703
1009.569686	0.011691
1009.740533	0.011947
1009.911361	0.013495
1010.082172	0.012706
1010.252964	0.012750
1010.423738	0.013161
1010.594493	0.013407
1010.765231	0.014128
1010.935950	0.013905
1011.106651	0.014995
1011.277334	0.014717
1011.447998	0.014016
1011.618645	0.013778
1011.789273	0.014929
1011.959882	0.015350
1012.130474	0.015266
1012.301048	0.015529
1012.471603	0.015212
1012.642140	0.016352
1012.812658	0.016497
1012.983159	0.016151
1013.153641	0.016924
1013.324105	0.017059
1013.494551	0.016782
1013.664979	0.017402
1013.835388	0.017390
1014.005779	0.018276
1014.176152	0.018444
1014.346507	0.017872
1014.516843	0.017872
1014.687162	0.017352
1014.857462	0.016133
1015.027744	0.014986
1015.198007	0.016063
1015.368252	0.015120
1015.538480	0.015258
1015.708689	0.014015
1015.878879	0.014260
1016.049052	0.014177
1016.219206	0.015393
1016.389342	0.015414
1016.559460	0.015788
1016.729559	0.013921
1016.899641	0.015218
1017.069704	0.016461
1017.239749	0.016394
1017.409775	0.015879
1017.579784	0.016035
1017.749774	0.014653
1017.919746	0.014301
1018.089700	0.014418
1018.259635	0.015074
1018.429553	0.014441
1018.599452	0.013064
1018.769333	0.012989
1018.939195	0.013080
1019.109040	0.013373
1019.278866	0.015179
1019.448674	0.016030
1019.618464	0.016054
1019.788235	0.016807
1019.957989	0.016843
1020.127724	0.016615
1020.297441	0.016888
1020.467139	0.017828
1020.636820	0.016750
1020.806482	0.015241
1020.976126	0.015704
1021.145752	0.015968
1021.315359	0.015389
1021.484948	0.014830
1021.654519	0.014927
1021.824072	0.014264
1021.993607	0.013952
1022.163123	0.013909
1022.332621	0.013259
1022.502101	0.011793
1022.671563	0.012453
1022.841007	0.012544
1023.010432	0.013171
1023.179839	0.012994
1023.349228	0.012107
1023.518598	0.012017
1023.687951	0.013313
1023.857285	0.015545
1024.026601	0.016296
1024.195899	0.014380
1024.365178	0.013504
1024.534439	0.012693
1024.703682	0.011997
1024.872907	0.013663
1025.042114	0.013490
1025.211302	0.012568
1025.380472	0.010917
1025.549624	0.011183
1025.718758	0.012351
1025.887873	0.012659
1026.056970	0.013201
1026.226049	0.013660
1026.395110	0.013708
1026.564153	0.013921
1026.733177	0.013813
1026.902183	0.014008
1027.071171	0.013279
1027.240141	0.012380
1027.409092	0.012228
1027.578026	0.012826
1027.746940	0.012557
1027.915837	0.010815
1028.084716	0.009894
1028.253576	0.010402
1028.422418	0.009871
1028.591242	0.011561
1028.760048	0.011669
1028.928835	0.012644
1029.097604	0.011017
1029.266355	0.012031
1029.435088	0.012555
1029.603803	0.012960
1029.772499	0.012198
1029.941177	0.011641
1030.109837	0.009574
1030.278478	0.009637
1030.447102	0.009504
1030.615707	0.009675
1030.784294	0.009625
1030.952863	0.010137
1031.121413	0.010584
1031.289945	0.012781
1031.458460	0.013160
1031.626955	0.014052
1031.795433	0.015806
1031.963892	0.016310
1032.132334	0.016305
1032.300756	0.017537
1032.469161	0.019796
1032.637548	0.019892
1032.805916	0.018319
1032.974266	0.018398
1033.142598	0.018248
1033.310911	0.015730
1033.479207	0.013423
1033.647484	0.014414
1033.815743	0.012376
1033.983983	0.010130
1034.152206	0.010315
1034.320410	0.010340
1034.488596	0.010404
1034.656764	0.009890
1034.824914	0.011357
1034.993045	0.011934
1035.161158	0.012130
1035.329253	0.011771
1035.497330	0.012536
1035.665388	0.011349
1035.833428	0.011707
1036.001450	0.013036
1036.169454	0.014291
1036.337440	0.014271
1036.505407	0.014576
1036.673356	0.014075
1036.841287	0.014379
1037.009200	0.014897
1037.177094	0.015358
1037.344970	0.015199
1037.512828	0.014253
1037.680668	0.013028
1037.848489	0.013186
1038.016293	0.013050
1038.184078	0.012898
1038.351845	0.013648
1038.519593	0.011975
1038.687324	0.011406
1038.855036	0.012199
1039.022730	0.012025
1039.190406	0.012524
1039.358063	0.013035
1039.525702	0.012827
1039.693323	0.013774
1039.860926	0.013916
1040.028511	0.015672
1040.196077	0.015790
1040.363625	0.013973
1040.531155	0.013820
1040.698667	0.013249
1040.866161	0.011934
1041.033636	0.012689
1041.201093	0.010833
1041.368532	0.010121
1041.535952	0.008402
1041.703355	0.008168
1041.870739	0.008059
1042.038105	0.007225
1042.205452	0.008104
1042.372782	0.008979
1042.540093	0.008128
1042.707386	0.009539
1042.874661	0.009360
1043.041918	0.008116
1043.209156	0.008983
1043.376376	0.010405
1043.543578	0.010315
1043.710762	0.010806
1043.877927	0.010364
1044.045074	0.010541
1044.212203	0.008709
1044.379314	0.009050
1044.546407	0.010840
1044.713481	0.010818
1044.880537	0.010703
1045.047575	0.011571
1045.214595	0.009136
1045.381596	0.009048
1045.548579	0.009860
1045.715544	0.011636
1045.882491	0.011148
1046.049420	0.012413
1046.216330	0.013441
1046.383222	0.012464
1046.550096	0.013669
1046.716951	0.012954
1046.883789	0.013176
1047.050608	0.012520
1047.217409	0.010636
1047.384192	0.011300
1047.550956	0.010314
1047.717703	0.008502
1047.884431	0.010268
1048.051140	0.008457
1048.217832	0.010870
1048.384505	0.009780
1048.551161	0.008738
1048.717798	0.010759
1048.884416	0.010252
1049.051017	0.010023
1049.217599	0.010042
1049.384163	0.010117
1049.550709	0.011338
1049.717237	0.010703
1049.883746	0.010484
1050.050237	0.011061
1050.216710	0.011182
1050.383165	0.012364
1050.549601	0.011166
1050.716019	0.012071
1050.882420	0.010460
1051.048801	0.009121
1051.215165	0.009872
1051.381510	0.011833
1051.547837	0.011997
1051.714146	0.011023
1051.880437	0.010419
1052.046709	0.012146
1052.212964	0.011802
1052.379200	0.012753
1052.545417	0.014474
1052.711617	0.013683
1052.877798	0.012608
1053.043961	0.013293
1053.210106	0.012475
1053.376233	0.012109
1053.542341	0.010227
1053.708432	0.010602
1053.874504	0.010124
1054.040557	0.008505
1054.206593	0.008817
1054.372610	0.007858
1054.538609	0.008458
1054.704590	0.008584
1054.870553	0.007875
1055.036497	0.008182
1055.202424	0.007714
1055.368331	0.007197
1055.534221	0.005929
1055.700093	0.006442
1055.865946	0.007238
1056.031781	0.007435
1056.197598	0.008832
1056.363397	0.008573
1056.529177	0.010482
1056.694939	0.011499
1056.860683	0.011702
1057.026409	0.012357
1057.192116	0.011723
1057.357806	0.011399
1057.523477	0.011267
1057.689130	0.009706
1057.854764	0.009630
1058.020381	0.008969
1058.185979	0.007909
1058.351559	0.007247
1058.517120	0.008094
1058.682664	0.008081
1058.848189	0.008062
1059.013696	0.007920
1059.179185	0.009034
1059.344656	0.010452
1059.510108	0.010199
1059.675542	0.010675
1059.840958	0.011847
1060.006356	0.011679
1060.171735	0.011233
1060.337096	0.010449
1060.502439	0.010010
1060.667764	0.010137
1060.833071	0.009333
1060.998359	0.009638
1061.163629	0.008483
1061.328881	0.007661
1061.494115	0.007707
1061.659330	0.007622
1061.824527	0.009515
1061.989706	0.009499
1062.154867	0.009738
1062.320010	0.010261
1062.485134	0.009627
1062.650240	0.008758
1062.815328	0.010473
1062.980398	0.010830
1063.145449	0.009946
1063.310482	0.008408
1063.475497	0.008394
1063.640494	0.008097
1063.805473	0.007755
1063.970433	0.008130
1064.135375	0.008339
1064.300299	0.005968
1064.465204	0.006743
1064.630092	0.007451
1064.794961	0.007688
1064.959812	0.007982
1065.124645	0.006523
1065.289459	0.006518
1065.454256	0.005375
1065.619034	0.005930
1065.783793	0.005287
1065.948535	0.004394
1066.113258	0.005679
1066.277964	0.005999
1066.442651	0.005206
1066.607319	0.005911
1066.771970	0.007016
1066.936602	0.006456
1067.101216	0.007147
1067.265812	0.007678
1067.430389	0.007902
1067.594949	0.006749
1067.759490	0.006558
1067.924013	0.006733
1068.088518	0.007448
1068.253004	0.005356
1068.417472	0.006809
1068.581922	0.006056
1068.746354	0.006629
1068.910768	0.006951
1069.075163	0.006301
1069.239540	0.006400
1069.403899	0.006593
1069.568240	0.007142
1069.732562	0.007959
1069.896866	0.007859
1070.061152	0.009059
1070.225420	0.009542
1070.389670	0.009575
1070.553901	0.009261
1070.718114	0.010171
1070.882309	0.010823
1071.046486	0.009945
1071.210644	0.010398
1071.374784	0.010581
1071.538906	0.010464
1071.703010	0.011550
1071.867096	0.011370
1072.031163	0.012374
1072.195212	0.011496
1072.359243	0.009803
1072.523256	0.010152
1072.687250	0.011225
1072.851226	0.011873
1073.015184	0.012169
1073.179124	0.010733
1073.343045	0.010488
1073.506949	0.010133
1073.670834	0.010815
1073.834701	0.011797
1073.998549	0.013083
1074.162380	0.012268
1074.326192	0.010909
1074.489986	0.011968
1074.653761	0.012276
1074.817519	0.012369
1074.981258	0.013373
1075.144979	0.013192
1075.308682	0.013550
1075.472367	0.012328
1075.636033	0.012531
1075.799681	0.012084
1075.963311	0.011882
1076.126923	0.012288
1076.290516	0.011400
1076.454092	0.011861
1076.617649	0.012164
1076.781187	0.011313
1076.944708	0.012322
1077.108210	0.011389
1077.271695	0.012693
1077.435160	0.012286
1077.598608	0.011516
1077.762038	0.012921
1077.925449	0.011167
1078.088842	0.010489
1078.252217	0.012119
1078.415573	0.010160
1078.578912	0.009551
1078.742232	0.008411
1078.905534	0.009289
1079.068817	0.008640
1079.232083	0.007968
1079.395330	0.009759
1079.558559	0.009537
1079.721770	0.008613
1079.884962	0.007539
1080.048136	0.007955
1080.211293	0.007018
1080.374430	0.005404
1080.537550	0.005347
1080.700651	0.006348
1080.863735	0.005199
1081.026800	0.005598
1081.189846	0.004787
1081.352875	0.004554
1081.515885	0.006098
1081.678877	0.007330
1081.841851	0.007376
1082.004807	0.009076
1082.167744	0.007885
1082.330663	0.009327
1082.493564	0.007964
1082.656447	0.007958
1082.819312	0.009520
1082.982158	0.007179
1083.144986	0.005095
1083.307796	0.003474
1083.470587	0.002229
1083.633361	0.001888
1083.796116	-0.000647
1083.958853	-0.000196
1084.121571	0.000675
1084.284272	0.000382
1084.446954	0.001819
1084.609618	0.005216
1084.772264	0.007673
1084.934892	0.007583
1085.097501	0.007871
1085.260092	0.009886
1085.422665	0.010664
1085.585220	0.011197
1085.747756	0.011396
1085.910274	0.011606
1086.072774	0.010370
1086.235256	0.009033
1086.397720	0.010646
1086.560165	0.011604
1086.722592	0.010515
1086.885001	0.010575
1087.047392	0.009260
1087.209764	0.010239
1087.372119	0.011575
1087.534455	0.011703
1087.696772	0.012755
1087.859072	0.012045
1088.021353	0.011521
1088.183616	0.012527
1088.345861	0.012264
1088.508088	0.011482
1088.670296	0.010773
1088.832486	0.009541
1088.994658	0.008798
1089.156812	0.007965
1089.318948	0.007200
1089.481065	0.008114
1089.643164	0.006838
1089.805245	0.006116
1089.967308	0.007337
1090.129352	0.008388
1090.291378	0.009063
1090.453386	0.010460
1090.615376	0.009897
1090.777347	0.009591
1090.939301	0.007532
1091.101236	0.007241
1091.263153	0.008571
1091.425051	0.008912
1091.586932	0.007053
1091.748794	0.007817
1091.910638	0.006562
1092.072463	0.006543
1092.234271	0.009133
1092.396060	0.008646
1092.557831	0.011242
1092.719584	0.010947
1092.881319	0.009541
1093.043035	0.011224
1093.204733	0.008217
1093.366413	0.009284
1093.528075	0.009260
1093.689718	0.010591
1093.851343	0.011971
1094.012950	0.009223
1094.174539	0.008446
1094.336110	0.011483
1094.497662	0.011007
1094.659196	0.011289
1094.820712	0.008678
1094.982210	0.009867
1095.143689	0.005311
1095.305151	0.004188
1095.466594	0.005668
1095.628018	0.006825
1095.789425	0.004277
1095.950813	0.004015
1096.112183	0.005467
1096.273535	0.008681
1096.434869	0.006831
1096.596184	0.008480
1096.757482	0.009976
1096.918761	0.008827
1097.080021	0.009065
1097.241264	0.008365
1097.402488	0.007217
1097.563694	0.008670
1097.724882	0.007409
1097.886052	0.007655
1098.047203	0.006172
1098.208336	0.006498
1098.369451	0.008286
1098.530548	0.010046
1098.691627	0.010411
1098.852687	0.013565
1099.013729	0.014117
1099.174753	0.014526
1099.335758	0.016070
1099.496746	0.017373
1099.657715	0.017589
1099.818666	0.016584
1099.979599	0.014349
1100.140513	0.014056
1100.301409	0.009459
1100.462287	0.007261
1100.623147	0.007709
1100.783989	0.007602
1100.944812	0.009633
1101.105617	0.007364
1101.266404	0.006817
1101.427173	0.003638
1101.587923	0.002958
1101.748656	0.004006
1101.909370	0.001415
1102.070066	-0.000708
1102.230743	-0.003613
1102.391403	-0.007036
1102.552044	-0.008109
1102.712667	-0.006890
1102.873271	-0.001547
1103.033858	-0.000493
1103.194426	0.000420
1103.354976	0.003214
1103.515508	0.003068
1103.676021	0.005778
1103.836517	0.009374
1103.996994	0.012709
1104.157453	0.011020
1104.317893	0.008460
1104.478316	0.008703
1104.638720	0.009151
1104.799106	0.008695
1104.959474	0.009044
1105.119823	0.008682
1105.280155	0.004829
1105.440468	0.003863
1105.600763	0.003589
1105.761039	0.004226
1105.921298	0.005437
1106.081538	0.004493
1106.241760	0.004265
1106.401964	0.006234
1106.562149	0.004299
1106.722316	0.004554
1106.882465	0.002600
1107.042596	0.004763
1107.202709	0.003886
1107.362803	0.003451
1107.522879	0.005093
1107.682937	0.004691
1107.842977	0.002504
1108.002999	0.005829
1108.163002	0.006161
1108.322987	0.008037
1108.482954	0.003525
1108.642902	0.003702
1108.802833	0.006036
1108.962745	0.005087
1109.122639	0.007016
1109.282515	0.008440
1109.442372	0.007777
1109.602211	0.006781
1109.762032	0.007601
1109.921835	0.011468
1110.081620	0.012137
1110.241386	0.008872
1110.401134	0.008451
1110.560864	0.003638
1110.720576	0.005450
1110.880269	0.005060
1111.039945	0.006350
1111.199602	0.004550
1111.359240	0.006095
1111.518861	0.006269
1111.678463	0.005433
1111.838047	0.003261
1111.997613	0.005552
1112.157161	0.000282
1112.316690	0.000372
1112.476202	-0.000495
1112.635695	0.000320
1112.795169	-0.002341
1112.954626	-0.002205
1113.114064	-0.001352
1113.273484	0.000814
1113.432886	-0.000877
1113.592270	0.002432
1113.751635	0.004834
1113.910983	0.003088
1114.070312	0.004991
1114.229622	0.005162
1114.388915	0.002548
1114.548189	-0.002114
1114.707445	-0.003904
1114.866683	0.000407
1115.025903	-0.001286
1115.185104	-0.005367
1115.344287	-0.000904
1115.503452	-0.003621
1115.662599	-0.001563
1115.821727	-0.000050
1115.980838	0.000865
1116.139930	0.001126
1116.299004	-0.004244
1116.458059	-0.001536
1116.617097	-0.000279
1116.776116	-0.000378
1116.935117	0.000298
1117.094099	-0.000757
1117.253064	-0.003006
1117.412010	-0.002000
1117.570938	-0.002146
1117.729848	0.001470
1117.888740	-0.000911
1118.047613	-0.000628
1118.206468	-0.002202
1118.365305	-0.002421
1118.524124	-0.003716
1118.682924	-0.001214
1118.841707	0.000751
1119.000471	0.000850
1119.159216	0.002074
1119.317944	0.001451
1119.476653	-0.000619
1119.635344	-0.000200
1119.794017	-0.001883
1119.952672	-0.001333
1120.111308	-0.002298
1120.269927	-0.000659
1120.428527	0.000016
1120.587108	-0.001444
1120.745672	0.005261
1120.904217	0.003164
1121.062744	0.001963
1121.221253	0.002460
1121.379744	0.000670
1121.538216	0.002521
1121.696671	0.004174
1121.855107	0.004801
1122.013524	0.005281
1122.171924	0.003298
1122.330305	0.007459
1122.488668	0.008336
1122.647013	0.009252
1122.805340	0.012871
1122.963648	0.009104
1123.121938	0.008112
1123.280210	0.009197
1123.438464	0.005795
1123.596700	0.002663
1123.754917	0.003344
1123.913116	0.006078
1124.071297	0.006891
1124.229459	0.001804
1124.387604	0.003160
1124.545730	0.000033
1124.703838	0.002072
1124.861928	0.005727
1125.019999	0.005665
1125.178052	0.004111
1125.336088	-0.000015
1125.494104	0.000306
1125.652103	0.003261
1125.810083	0.000026
1125.968045	0.000895
1126.125989	-0.000085
1126.283915	-0.002764
1126.441823	-0.000991
1126.599712	-0.002523
1126.757583	0.001837
1126.915436	-0.000255
1127.073270	0.001859
1127.231087	0.008414
1127.388885	0.009163
1127.546665	0.008528
1127.704426	0.008749
1127.862170	0.011043
1128.019895	0.017280
1128.177602	0.013522
1128.335291	0.016959
1128.492961	0.016787
1128.650614	0.011841
1128.808248	0.012143
1128.965864	0.009850
1129.123461	0.011813
1129.281041	0.007192
1129.438602	0.001239
1129.596145	0.002671
1129.753670	0.000498
1129.911176	-0.003187
1130.068665	0.000526
1130.226135	0.000056
1130.383587	0.000913
1130.541020	0.001207
1130.698436	0.000362
1130.855833	0.002098
1131.013212	0.000888
1131.170573	0.001291
1131.327915	0.000963
1131.485239	-0.001096
1131.642545	-0.003067
1131.799833	-0.002139
1131.957103	-0.000619
1132.114354	0.000358
1132.271588	-0.001743
1132.428803	-0.001360
1132.585999	-0.002200
1132.743178	-0.001122
1132.900338	-0.002222
1133.057480	-0.001068
1133.214604	-0.001787
1133.371710	-0.006170
1133.528797	-0.009861
1133.685866	-0.007747
1133.842917	-0.006795
1133.999950	-0.000521
1134.156964	0.003125
1134.313960	0.002498
1134.470938	-0.000370
1134.627898	0.000859
1134.784840	0.003196
1134.941763	0.001538
1135.098668	-0.000516
1135.255555	0.000335
1135.412424	-0.006085
1135.569274	-0.012025
1135.726107	-0.009427
1135.882921	-0.005072
1136.039716	-0.006600
1136.196494	-0.007702
1136.353253	-0.000327
1136.509995	0.000019
1136.666717	0.000433
1136.823422	0.002613
1136.980109	0.007604
1137.136777	0.006840
1137.293427	0.008127
1137.450059	0.008811
1137.606672	0.010560
1137.763267	0.010494
1137.919844	0.012103
1138.076403	0.009223
1138.232944	0.003995
1138.389466	-0.001057
1138.545971	0.001173
1138.702457	0.000991
1138.858924	0.002491
1139.015374	-0.002583
1139.171805	-0.003469
1139.328218	-0.004276
1139.484613	-0.003393
1139.640990	-0.003440
1139.797348	0.004050
1139.953688	0.002014
1140.110010	0.000451
1140.266314	-0.000882
1140.422600	0.003410
1140.578867	-0.001645
1140.735116	-0.000488
1140.891347	-0.003833
1141.047559	0.000817
1141.203754	-0.002381
1141.359930	-0.001230
1141.516088	-0.006771
1141.672228	-0.010634
1141.828349	-0.009098
1141.984452	-0.007324
1142.140537	-0.007385
1142.296604	-0.004090
1142.452653	-0.003980
1142.608683	-0.002762
1142.764695	-0.002333
1142.920689	0.004503
1143.076665	0.005696
1143.232622	-0.001426
1143.388562	0.003365
1143.544483	0.000333
1143.700385	-0.004744
1143.856270	-0.003353
1144.012136	-0.004542
1144.167985	-0.004377
1144.323814	-0.003251
1144.479626	-0.005885
1144.635420	-0.000438
1144.791195	0.000411
1144.946952	0.002182
1145.102691	0.004529
1145.258411	0.000061
1145.414113	-0.002866
1145.569798	-0.002142
1145.725463	-0.002889
1145.881111	-0.002881
1146.036741	-0.005571
1146.192352	-0.007423
1146.347945	-0.003831
1146.503519	-0.001557
1146.659076	0.003611
1146.814614	0.007954
1146.970134	0.001684
1147.125636	-0.001971
1147.281120	0.001547
1147.436585	0.004647
1147.592032	0.002701
1147.747461	-0.003123
1147.902872	-0.003561
1148.058265	-0.007286
1148.213639	-0.009262
1148.368995	-0.005312
1148.524333	-0.005790
1148.679653	-0.005019
1148.834954	-0.006680
1148.990237	-0.004681
1149.145502	-0.002400
1149.300749	-0.001648
1149.455977	-0.001072
1149.611188	0.000117
1149.766380	0.000024
1149.921553	-0.003822
1150.076709	-0.001709
1150.231846	-0.002192
1150.386966	-0.004866
1150.542066	-0.002740
1150.697149	-0.006040
1150.852214	-0.005376
1151.007260	-0.002820
1151.162288	-0.001177
1151.317298	0.001287
1151.472289	-0.000658
1151.627263	0.000858
1151.782218	-0.001487
1151.937155	-0.007619
1152.092073	-0.003796
1152.246974	-0.001036
1152.401856	-0.001796
1152.556720	-0.004859
1152.711566	-0.000768
1152.866393	0.001970
1153.021203	0.001354
1153.175994	0.006175
1153.330767	0.011245
1153.485521	0.008116
1153.640258	0.007267
1153.794976	0.002099
1153.949676	0.003088
1154.104358	0.001223
1154.259021	-0.001892
1154.413667	-0.002812
1154.568294	-0.009301
1154.722903	-0.010394
1154.877493	-0.006276
1155.032066	-0.011383
1155.186620	-0.008300
1155.341156	-0.009074
1155.495674	-0.007762
1155.650173	-0.006267
1155.804654	-0.002955
1155.959118	0.003153
1156.113562	0.003105
1156.267989	0.002546
1156.422397	0.011323
1156.576788	0.004302
1156.731160	0.004409
1156.885513	0.006113
1157.039849	0.005688
1157.194166	0.004497
1157.348465	0.006961
1157.502746	0.004163
1157.657009	0.007844
1157.811253	0.003490
1157.965479	0.008653
1158.119687	0.007159
1158.273877	0.005424
1158.428048	0.005631
1158.582201	0.010491
1158.736337	0.008024
1158.890453	0.017242
1159.044552	0.007733
1159.198632	0.008542
1159.352694	0.009753
1159.506738	0.013833
1159.660764	0.012528
1159.814771	0.011865
1159.968761	0.006583
1160.122732	-0.001224
1160.276685	-0.003975
1160.430619	0.002633
1160.584535	-0.004548
1160.738434	-0.002517
1160.892313	-0.007993
1161.046175	-0.012087
1161.200019	-0.013065
1161.353844	-0.010336
1161.507651	-0.005779
1161.661440	-0.007426
1161.815210	-0.008463
1161.968962	-0.006490
1162.122697	-0.017519
1162.276412	-0.011051
1162.430110	-0.006528
1162.583789	0.004861
1162.737451	0.001586
1162.891094	0.000204
1163.044718	-0.001989
1163.198325	-0.000256
1163.351913	-0.006212
1163.505483	0.003574
1163.659035	0.005347
1163.812569	0.007965
1163.966084	-0.003608
1164.119581	0.000047
1164.273060	0.007819
1164.426521	0.002794
1164.579964	0.002320
1164.733388	0.008031
1164.886794	0.011133
1165.040182	0.006922
1165.193551	-0.003489
1165.346903	-0.001495
1165.500236	-0.004983
1165.653551	-0.013321
1165.806848	-0.002847
1165.960126	-0.002688
1166.113386	0.001444
1166.266628	-0.000894
1166.419852	-0.000683
1166.573058	0.011339
1166.726245	0.008595
1166.879414	0.008639
1167.032565	0.013569
1167.185698	0.010475
1167.338812	0.009506
1167.491909	0.017039
1167.644987	0.014272
1167.798046	0.012604
1167.951088	0.012636
1168.104111	0.015991
1168.257117	0.025146
1168.410103	0.023693
1168.563072	0.020593
1168.716023	0.015567
1168.868955	0.005250
1169.021869	0.014120
1169.174765	0.009704
1169.327642	0.007662
1169.480501	0.003580
1169.633343	0.000260
1169.786165	-0.006287
1169.938970	-0.005769
1170.091757	0.003526
1170.244525	-0.007833
1170.397275	-0.008685
1170.550007	-0.001391
1170.702720	-0.006813
1170.855415	-0.002934
1171.008092	-0.010730
1171.160751	-0.005107
1171.313392	-0.006995
1171.466014	0.017567
1171.618619	-0.015647
1171.771205	-0.015647
1171.923772	-0.015647
