sample name	sample
index	1020
start time	 04-19-2021  12:01:50 PM
880	0.063051
Peak Time (s)	101.038
Peak Height 	0.06305
calc peak height	100,103
Baseline Time (s)	10.534
Baseline Value 	-0.006126
subtract baseline	10,4
Abs	0.022286
Peak Time (s)	101.038
Peak Height 	0.02229
calc peak height	100,103
Baseline Time (s)	10.534
Baseline Value 	0.003563
subtract baseline	10,3
PK_550	0.029608
Peak Time (s)	102.538
Peak Height 	0.02961
calc peak height	100,103
Baseline Time (s)	11.035
Baseline Value 	5.6207E-4
subtract baseline	10,2
PK_880	0.023363
Peak Time (s)	100.037
Peak Height 	0.02336
calc peak height	100,103
Baseline Time (s)	10.037
Baseline Value 	9.1552E-4
subtract baseline	10,1


Time (s)	A880-A510	A880-A775	A880-A975	A880	I510	I775	I975	I880	
0.036500	-0.003270	-0.000576	-0.006798	0.007437	6512.845313	45489.374126	3946.276339	24068.533755
0.537000	-0.000868	-0.000151	-0.001588	0.005344	6551.658765	45737.558728	3966.427793	24171.426314
1.037500	-0.002373	-0.000651	-0.006527	0.004396	6546.822122	45781.740546	3955.372336	24218.131274
1.535000	-0.003225	0.000218	0.000626	0.005982	6525.759892	45710.943278	3970.821917	24140.025091
2.035000	-0.002448	-0.000233	-0.003251	0.002961	6558.636078	45965.506918	3968.430374	24289.107780
2.536000	0.002066	0.000054	-0.002412	0.001704	6609.149748	46119.253701	3974.288306	24351.470665
3.041000	-0.000540	-0.000118	-0.002522	-0.001134	6611.193924	46385.897041	3981.950482	24492.910468
3.536000	-0.001595	-0.000496	-0.003561	0.005022	6548.140191	45735.171931	3961.840495	24187.263616
4.038500	0.000532	0.000080	-0.001689	0.001109	6600.878081	46181.178254	3977.982501	24381.020969
4.536500	-0.000231	-0.000095	-0.001876	0.000645	6598.249996	46210.086073	3978.761097	24404.130205
5.037000	0.001151	0.000039	-0.001643	0.001000	6607.287543	46188.007991	3978.417510	24386.464783
5.537000	-0.005676	-0.001022	-0.007683	0.004703	6515.666190	45714.803700	3951.348462	24203.001980
6.037500	-0.001144	0.000274	-0.003380	0.000848	6588.463516	46226.637040	3973.972674	24394.028284
6.534500	0.000449	-0.000165	-0.004676	0.000338	6606.934866	46233.711096	3971.773856	24419.406622
7.035500	-0.001203	0.000705	-0.000557	0.000594	6590.170578	46295.146334	3982.617584	24406.673010
7.535000	-0.000002	0.000512	0.002848	0.000067	6605.350929	46328.616990	3993.753809	24432.921275
8.035500	0.000078	0.000024	-0.002258	-0.000490	6610.963186	46335.500103	3980.879166	24460.724500
8.539000	0.001675	0.001004	-0.002413	0.000587	6615.544536	46325.770540	3977.416461	24407.004736
9.036500	0.000217	0.000197	0.000790	0.000098	6607.003544	46293.919042	3987.824267	24431.375701
9.537000	-0.001180	-0.000368	-0.002984	-0.000566	6600.551294	46303.887211	3979.050444	24464.510268
10.037500	0.000000	0.000160	0.000178	0.000254	6603.724107	46274.663332	3985.652561	24423.616341
10.534500	-0.001370	-0.000276	0.000000	0.000000	6593.913960	46256.389787	3985.867441	24436.268796
11.035000	0.000786	0.000000	-0.002574	-0.000122	6613.961736	46296.252555	3978.954494	24442.351100
11.535000	-0.000579	-0.000855	0.000409	-0.000809	6607.978471	46279.389995	3989.315583	24476.628968
12.035500	0.000115	-0.000239	-0.001547	-0.000443	6610.870298	46304.429555	3982.751473	24458.366267
12.536000	-0.000956	-0.000263	-0.003379	-0.001016	6606.488411	46359.489783	3979.206194	24487.007119
13.039000	0.001256	0.000391	0.000436	-0.000277	6619.472606	46350.969165	3987.882570	24450.072531
13.536500	-0.001271	0.000334	0.001482	0.001072	6585.390508	46210.241952	3987.028389	24382.886392
14.039000	-0.003030	0.000131	-0.004063	0.002089	6561.161739	46088.547004	3968.598828	24332.368236
14.536500	-0.001725	0.000871	0.001188	0.002403	6569.793050	46130.983027	3982.439215	24316.774163
15.034500	-0.000139	0.000125	-0.002253	0.000375	6601.438620	46259.077996	3978.462077	24417.586353
15.537500	-0.000510	0.000131	-0.002950	0.001339	6589.712858	46163.319868	3973.801001	24369.587265
16.035000	0.000161	0.000115	-0.002892	-0.000408	6610.968769	46336.437500	3978.865757	24456.628240
16.535000	0.001386	0.000384	0.002945	-0.000016	6618.319215	46324.113827	3994.265385	24437.067409
17.037500	0.002014	0.000400	0.001394	-0.003127	6651.486912	46638.434988	3998.714662	24592.751259
17.535500	-0.000394	0.000039	-0.003303	0.000971	6593.955710	46190.845011	3973.843606	24387.899389
18.035500	0.001178	-0.000194	-0.002520	0.000959	6607.881482	46168.760282	3976.071136	24388.473930
18.536500	0.000007	0.000296	0.003734	0.001198	6595.483370	46193.823811	3993.055825	24376.593708
19.036500	-0.000707	0.000222	-0.003582	0.001278	6588.521225	46178.437329	3972.204958	24372.614579
19.537000	0.000135	0.000469	0.002030	0.001282	6595.867570	46202.694217	3987.984236	24372.419957
20.037500	-0.000498	0.000159	-0.002903	0.001233	6590.749843	46176.749505	3974.232189	24374.891203
20.535000	-0.000669	0.000643	0.003072	0.001458	6587.285520	46202.592574	3990.439711	24363.706021
21.034500	-0.004160	0.000201	-0.003836	0.001181	6559.223298	46186.046514	3971.766110	24377.439752
21.535500	-0.001946	0.000193	0.001565	0.000728	6582.496408	46230.582479	3988.237725	24400.017401
22.039000	-0.000570	-0.000713	-0.003845	0.000862	6593.367898	46126.664966	3972.631859	24393.309330
22.536500	-0.000840	-0.000527	-0.003041	0.000598	6593.322837	46171.620117	3975.622976	24406.473783
23.036500	0.001581	0.000596	-0.000689	0.001652	6605.340010	46178.529157	3979.267802	24354.059043
23.537000	0.000028	-0.000636	-0.004060	0.000824	6598.958958	46138.177695	3972.139666	24395.232807
24.039000	-0.001015	-0.000097	-0.001857	0.001230	6586.241568	46151.408278	3977.171148	24375.002110
24.537000	0.000164	0.000807	0.001873	0.001732	6592.183231	46191.585659	3986.265423	24350.072574
25.037500	0.000622	0.000473	-0.000569	0.001312	6599.884971	46200.089688	3980.560229	24370.930664
25.535500	-0.001286	0.000575	-0.003150	0.001677	6579.954639	46173.802457	3972.297224	24352.776287
26.035000	-0.000395	0.000365	-0.003020	0.001819	6586.521122	46138.808388	3972.263795	24345.754593
26.538500	0.002047	0.000225	-0.003808	0.001687	6609.128799	46137.999386	3970.432508	24352.316983
27.036000	-0.000350	0.000302	0.000764	0.001141	6592.852963	46200.168259	3984.802890	24379.448930
27.536000	-0.003620	0.000035	-0.003768	0.004102	6538.576148	45878.858260	3963.820010	24232.667376
28.036500	-0.000763	0.000039	0.002856	-0.000582	6604.364589	46346.224887	3995.626495	24465.322501
28.537000	-0.000249	0.000708	-0.001729	0.000166	6602.299612	46338.320497	3980.520482	24427.971417
29.037000	-0.000013	0.000496	0.004649	-0.000238	6607.936919	46357.525322	3999.760278	24448.131634
29.534500	-0.000420	0.000333	-0.004444	0.004992	6558.606927	45820.231753	3959.479902	24188.748456
30.035000	-0.002672	0.000016	-0.002460	-0.000448	6586.422107	46330.448040	3980.190202	24458.597107
30.535000	0.001360	0.000293	-0.002332	0.000711	6611.674322	46242.163855	3977.293916	24400.832314
31.038000	-0.001122	-0.000210	0.003313	0.001799	6580.327525	46083.390681	3990.155184	24346.747676
31.535500	-0.002088	0.000365	-0.000469	0.004277	6550.336199	45894.294199	3972.523826	24224.039501
32.036000	0.000573	0.001228	0.002059	0.000360	6607.835384	46371.030985	3990.680583	24418.324378
32.536000	0.001265	0.000416	-0.000801	-0.000033	6617.408667	46329.044289	3983.698213	24437.932226
33.036000	0.002091	0.000623	-0.002171	0.000525	6619.768168	46293.792589	3978.269059	24410.086527
33.537000	-0.001450	0.000724	-0.004815	0.003825	6559.805823	45974.778694	3961.684522	24246.377168
34.037000	-0.001356	0.000186	-0.004877	0.001766	6578.573229	46126.214102	3967.229903	24348.377203
34.536500	-0.000504	0.000587	-0.001314	0.002152	6582.645127	46127.657350	3976.106373	24329.208686
35.035000	-0.000449	0.000561	-0.001613	0.002133	6583.294848	46127.055899	3975.323335	24330.175595
35.538000	-0.000925	-0.000368	-0.004824	0.002572	6575.293594	45990.797956	3965.136037	24308.401103
36.035500	0.000251	0.001288	-0.007188	0.002500	6586.216173	46162.907732	3958.785310	24311.973086
36.536000	-0.000795	0.000043	-0.000044	0.001456	6586.189443	46142.845215	3981.633800	24363.791540
37.036000	0.000135	0.000347	-0.002618	0.001981	6589.744331	46120.858100	3972.936749	24337.728754
37.536500	-0.000920	-0.000048	-0.003029	0.001640	6583.491642	46115.414940	3972.739687	24354.644201
38.036500	-0.001339	-0.000006	-0.002539	0.001419	6581.759135	46141.712608	3974.730545	24365.630911
38.537000	-0.000509	0.000579	0.000280	0.001913	6584.690785	46150.662007	3981.259194	24341.060481
39.037000	-0.002248	0.000003	-0.001812	0.001523	6572.895654	46132.167124	3976.475953	24360.434962
39.535000	0.000961	0.000482	-0.002651	0.001620	6600.160127	46170.271993	3973.852918	24355.622573
40.038000	0.000357	0.000328	0.001540	0.001677	6594.348903	46149.192044	3985.480596	24352.785338
40.535500	-0.001093	-0.000695	-0.000871	0.001183	6585.969180	46096.490561	3980.074043	24377.343945
41.035500	-0.000873	0.000362	-0.001605	0.001753	6582.905609	46145.027738	3976.411711	24349.013166
41.536000	0.000595	0.000019	-0.002551	0.002174	6592.089256	46068.938684	3972.582421	24328.147438
42.036000	-0.002641	-0.000523	-0.004049	0.000890	6575.002381	46142.928859	3971.984518	24391.953445
42.536000	0.000023	0.001074	0.000168	0.002498	6584.233856	46141.802330	3979.299579	24312.072292
43.036500	-0.000408	0.000449	-0.004389	0.001811	6586.474134	46147.957136	3968.465163	24346.158906
43.537000	0.000199	0.000335	0.002370	0.001500	6594.526328	46167.626173	3988.330817	24361.614937
44.037500	0.001621	0.000481	0.001759	-0.000882	6628.057473	46420.693116	3993.356205	24480.311017
44.537500	0.000278	0.000999	0.003344	0.000398	6604.898052	46344.249366	3994.222867	24416.414290
45.035500	0.001165	0.000843	0.000517	0.000312	6613.479658	46337.252069	3986.447769	24420.719967
45.535500	-0.002581	0.000259	-0.000812	0.005634	6534.314817	45749.399548	3967.780175	24157.127819
46.035500	0.000470	0.000794	-0.000637	0.000482	6605.853759	46315.325049	3982.709403	24412.262619
46.536000	-0.000369	0.000531	-0.001323	0.000269	6600.350695	46310.258649	3981.374285	24422.865531
47.036500	0.000323	0.001716	-0.003050	0.003017	6582.312164	46154.027803	3968.836017	24286.343851
47.536500	-0.002700	0.000904	0.001652	0.004035	6547.123316	45971.812639	3979.149991	24235.984697
48.037000	0.001745	0.000909	-0.002231	0.000578	6616.244308	46317.228096	3977.951930	24407.470142
48.537000	0.000440	0.000256	0.001835	-0.000165	6611.293976	46326.202636	3991.534317	24444.521387
49.040500	0.000624	0.000379	-0.001828	0.000009	6611.375698	46321.045086	3980.685029	24435.795538
49.538000	-0.000369	0.000079	-0.002981	0.003298	6573.806647	45963.082327	3968.245618	24272.428582
50.035500	0.001804	0.000868	0.000041	0.001556	6608.134750	46215.232015	3981.591575	24358.796590
50.535500	-0.005964	-0.007683	0.002350	0.036502	6249.789378	42079.013989	3893.018381	22690.360131
51.036000	0.017565	-0.014102	0.026544	0.439786	4228.745937	18101.003737	3232.227655	10645.967587
51.536000	-0.018091	-0.013381	-0.052767	-0.019797	6621.002786	46930.948131	3896.112487	25446.345086
52.036500	-0.024785	-0.135253	-0.065146	-0.294479	9897.060040	65535.000000	4839.918828	45445.345483
52.537000	-0.009062	-0.121362	-0.041679	-0.280588	9927.154877	65535.000000	4886.336860	44102.295772
53.034500	-0.012003	-0.122569	-0.035395	-0.281795	9898.672288	65535.000000	4923.360390	44217.283636
53.539500	-0.018190	-0.113737	-0.040366	-0.272963	9656.796027	65535.000000	4855.631609	43383.109388
54.037500	-0.018511	-0.091306	-0.037756	-0.250533	9305.929662	65535.000000	4762.051498	41339.181225
54.535000	-0.019623	-0.099232	-0.036450	-0.258459	9409.086506	65535.000000	4805.104874	42049.372761
55.035500	-0.019077	-0.096926	-0.035148	-0.256152	9382.281284	65535.000000	4800.380469	41841.390487
55.535500	-0.014655	-0.075558	-0.032032	-0.234089	9119.578323	65434.765955	4713.197821	39906.491795
56.035500	-0.014305	-0.053059	-0.028558	-0.202489	8679.609695	64136.149021	4590.595363	37300.954436
56.536500	-0.013048	-0.032055	-0.025977	-0.165643	8215.635772	61939.633583	4451.574102	34492.839810
57.036500	-0.013195	-0.016446	-0.024708	-0.116835	7636.448207	57588.314597	4275.989864	31121.637768
57.536500	-0.010728	-0.011476	-0.020862	-0.099962	7478.078901	56107.497844	4231.137666	30041.575526
58.039500	-0.006624	-0.008828	-0.021259	-0.086116	7373.923068	54750.983918	4183.612255	29186.112761
58.537500	-0.009000	-0.005065	-0.019666	-0.062824	7110.427497	52467.226172	4114.141216	27807.133039
59.035000	-0.008129	-0.002867	-0.019379	-0.048679	6980.152280	51120.048220	4071.554866	27005.109022
59.535000	-0.009679	-0.002136	-0.018011	-0.048912	6967.435039	51227.285385	4076.404003	27018.067364
60.036000	-0.004892	0.000746	-0.011874	-0.021162	6751.913741	48533.034127	4012.406151	25517.710746
60.536500	-0.006139	0.002037	-0.008777	-0.006898	6612.640455	47187.562254	3980.567218	24783.000914
61.036000	-0.003709	0.003682	-0.009500	0.002101	6555.144037	46442.531273	3953.504091	24331.726554
61.536500	-0.002083	0.004418	-0.005309	0.010405	6497.577657	45688.914305	3942.238935	23923.550633
62.037000	-0.000365	0.004602	-0.009998	0.011969	6498.896319	45552.844907	3925.310518	23847.521245
62.537500	0.001990	0.005059	-0.003951	0.027695	6386.221085	44076.387029	3899.586691	23098.256935
63.037500	-0.000161	0.005477	-0.004280	0.019792	6434.271645	44874.556001	3919.667156	23471.416657
63.535000	0.001579	0.006784	-0.005408	0.016449	6477.267967	45327.392519	3925.607817	23631.339171
64.035000	0.001975	0.008211	-0.005045	0.027773	6385.457329	44369.539892	3896.510986	23094.635796
64.535500	0.001406	0.006183	0.000312	0.026143	6394.263793	44331.395636	3914.972341	23171.008466
65.035500	0.005041	0.008874	-0.000949	0.019541	6480.414544	45229.380328	3929.289085	23483.409053
65.535500	-0.002660	0.007295	0.003325	0.042037	6232.024915	42942.098638	3881.165237	22438.204635
66.036000	0.004060	0.007565	0.005932	0.044138	6268.910252	42773.326002	3882.474568	22343.317101
66.539000	0.003798	0.009876	0.006765	0.044236	6266.016152	42977.440279	3884.377378	22338.896241
67.039500	0.005022	0.010497	0.002627	0.037367	6331.544062	43676.092417	3891.482672	22650.741237
67.539500	0.004316	0.011128	0.000079	0.033954	6353.736411	44058.376682	3893.745663	22807.545114
68.037500	0.002512	0.010095	0.000139	0.028650	6382.626373	44465.977419	3907.854585	23053.628350
68.535000	0.004882	0.010805	0.001254	0.024942	6433.371818	44891.845750	3920.695644	23227.477175
69.035500	0.004784	0.012420	0.000432	0.021662	6460.222742	45368.788477	3927.294990	23382.540734
69.536000	0.002279	0.012071	-0.001999	0.018205	6468.292427	45674.450407	3930.061673	23547.193370
70.035000	0.004186	0.011921	-0.001409	0.016393	6499.986813	45838.665277	3936.559286	23633.996074
70.536500	0.002274	0.013840	0.002629	0.016658	6481.396092	46002.803737	3946.840726	23621.267157
71.036500	0.003672	0.012463	-0.001939	0.013761	6518.156573	46154.335953	3942.275290	23760.774731
71.539000	0.005761	0.013127	0.001917	0.012241	6549.331528	46372.742832	3957.024496	23834.332659
72.040000	0.003355	0.013752	0.001529	0.009425	6552.894371	46719.258853	3963.746611	23971.320562
72.537500	0.004401	0.013976	0.005170	0.008952	6566.105598	46789.906376	3975.223633	23994.439361
73.037500	0.002540	0.014808	0.003733	0.008528	6553.608719	46917.248703	3972.387079	24015.160615
73.535000	0.004887	0.014389	0.001857	0.008858	6571.156180	46841.132714	3966.233501	23999.004488
74.035500	0.004293	0.014521	0.004412	0.007873	6574.567290	46954.548123	3976.120195	24047.173352
74.535500	0.006265	0.015182	0.002605	0.007807	6592.408435	47028.573398	3971.249421	24050.443145
75.036000	0.007372	0.016457	0.004986	0.008811	6593.310189	47056.123553	3975.101467	24001.301987
75.536000	0.007135	0.016611	0.000887	0.009366	6586.373687	47015.317438	3962.132011	23974.219677
76.039500	0.008055	0.016737	0.006564	0.010338	6585.914238	46929.333275	3975.246855	23926.830927
76.537000	0.008510	0.018059	0.005827	0.011528	6579.473154	46942.621957	3969.855863	23868.931490
77.036500	0.009508	0.017822	0.008088	0.012040	6583.734682	46866.637128	3974.746468	23844.107331
77.537500	0.006685	0.018617	0.011511	0.013038	6550.430520	46846.000261	3981.557388	23795.741025
78.035000	0.010880	0.018724	0.005148	0.012746	6589.562805	46886.498336	3964.574421	23809.879099
78.535500	0.009227	0.019741	0.007426	0.013520	6568.348890	46911.163680	3968.759536	23772.444689
79.036500	0.009088	0.019912	0.002789	0.013878	6564.022291	46892.152563	3954.916808	23755.128505
79.535500	0.007145	0.021562	0.010011	0.015876	6529.860003	46856.893741	3969.398080	23658.850372
80.036000	0.006457	0.020979	0.007401	0.016602	6517.679288	46724.381742	3960.129877	23623.969597
80.539000	0.005109	0.020493	0.008100	0.017335	6499.820702	46601.216611	3960.034772	23588.812385
81.036500	0.003183	0.021060	0.003901	0.019388	6465.926256	46451.799974	3942.858097	23490.701228
81.537000	0.006563	0.022163	0.007934	0.022605	6467.306630	46239.851161	3945.084733	23337.829311
82.034500	0.007163	0.022700	0.007229	0.023600	6463.956440	46194.119656	3940.449650	23290.790219
82.537500	0.004295	0.021151	0.003913	0.024558	6431.671179	45944.402340	3928.871720	23245.598374
83.035000	0.007247	0.021160	0.011978	0.027106	6435.055213	45692.955270	3943.837905	23125.843488
83.535500	0.006875	0.022031	0.011830	0.030234	6405.746712	45470.684893	3934.927937	22979.845234
84.035500	0.007688	0.021457	0.008506	0.031063	6405.615879	45333.180726	3923.729192	22941.317276
84.536000	0.008480	0.021494	0.012205	0.031575	6407.946377	45286.710018	3932.313768	22917.567326
85.039000	0.007474	0.021577	0.010160	0.032971	6387.952357	45158.469515	3923.044738	22852.913618
85.536000	0.009985	0.022635	0.014266	0.033992	6400.340835	45162.070256	3931.350572	22805.780614
86.037000	0.011793	0.021350	0.009769	0.033798	6417.054874	45055.818333	3919.783607	22814.728246
86.537000	0.012558	0.022408	0.013323	0.035696	6407.591081	44974.189273	3924.221385	22727.377175
87.034500	0.010769	0.021731	0.009091	0.037049	6381.455739	44777.610151	3909.321250	22665.305918
87.535000	0.011039	0.022969	0.012834	0.038376	6372.703723	44768.969012	3915.742382	22604.626972
88.035000	0.011409	0.022352	0.013041	0.038456	6375.105863	44701.661614	3916.080701	22600.977260
88.535500	0.011690	0.022251	0.010301	0.039711	6367.062019	44571.136964	3905.480324	22543.802199
89.036000	0.012356	0.023149	0.012312	0.042161	6352.363795	44422.217241	3904.320426	22432.605938
89.538500	0.013411	0.023445	0.016937	0.042538	6357.942998	44414.359653	3915.587303	22415.543995
90.036500	0.010272	0.023968	0.017807	0.042962	6328.729460	44423.899224	3916.775449	22396.385407
90.536000	0.012715	0.024345	0.009999	0.043944	6340.676720	44365.921445	3893.558584	22352.053475
91.037000	0.011987	0.023594	0.013381	0.046061	6317.442593	44092.460069	3896.871856	22256.875275
91.537000	0.014133	0.024549	0.014954	0.045847	6336.702452	44203.706852	3901.568994	22266.496384
92.034500	0.015684	0.025056	0.015769	0.046987	6340.069638	44143.439268	3900.711955	22215.407440
92.535000	0.016222	0.026024	0.012772	0.048127	6335.145641	44127.164023	3889.882721	22164.469750
93.035500	0.014151	0.024523	0.017816	0.049766	6304.926197	43829.461598	3898.788557	22091.427248
93.535500	0.013789	0.024681	0.013484	0.049327	6305.550324	43885.841092	3888.609521	22110.953007
94.038500	0.015856	0.025833	0.014484	0.049983	6317.018915	43932.830156	3889.506084	22081.794889
94.536000	0.015550	0.026269	0.016446	0.051358	6303.354662	43843.995809	3891.035251	22020.751458
95.036000	0.016389	0.025971	0.010194	0.053954	6289.144396	43571.558146	3868.188413	21906.104621
95.536500	0.017371	0.026492	0.015621	0.053246	6302.810823	43687.020175	3883.980085	21937.275371
96.036500	0.017375	0.026598	0.019253	0.053482	6300.933648	43674.749201	3892.818529	21926.884289
96.537500	0.018892	0.027013	0.013803	0.054071	6308.462014	43658.426018	3877.148732	21900.933883
97.035000	0.019030	0.027140	0.017784	0.058083	6277.155534	43294.756005	3877.071493	21725.115862
97.535000	0.019773	0.026445	0.019072	0.055793	6301.641523	43443.646594	3886.328353	21825.278395
98.035500	0.022516	0.028678	0.025125	0.057292	6311.735225	43512.365472	3898.219057	21759.654318
98.538500	0.018863	0.027887	0.017568	0.056653	6287.326758	43498.063056	3880.201283	21787.579036
99.036000	0.019194	0.027520	0.020654	0.061006	6255.013284	43058.285605	3876.931373	21597.988149
99.536500	0.021799	0.028534	0.022490	0.058521	6295.958711	43383.901323	3888.121236	21706.005911
100.036500	0.023363	0.029013	0.021685	0.058483	6308.941572	43432.269786	3886.126470	21707.677972
100.537000	0.020968	0.028460	0.020324	0.058344	6290.675861	43393.520014	3882.959257	21713.736149
101.037500	0.020033	0.029238	0.022286	0.063051	6245.385405	43028.068884	3875.868388	21509.584552
101.537500	0.021803	0.028383	0.021524	0.059011	6292.026095	43324.038240	3884.339284	21684.660516
102.035000	0.021745	0.028898	0.020106	0.059131	6290.592509	43360.896208	3880.356070	21679.438065
102.537500	0.023160	0.029608	0.019847	0.059788	6296.716884	43365.885080	3877.991862	21650.870823
103.035500	0.024944	0.029380	0.021826	0.060459	6305.732197	43281.976616	3881.368481	21621.709520
103.536000	0.024192	0.029733	0.022159	0.060399	6300.122756	43320.475843	3882.385762	21624.314654
104.036000	0.024592	0.030144	0.024140	0.061962	6290.714004	43213.174169	3883.467907	21556.614921
104.536500	0.028174	0.029735	0.025536	0.061897	6320.308086	43181.244118	3887.261270	21559.446047
105.037000	0.026984	0.029866	0.021256	0.062358	6306.880845	43150.597425	3875.004670	21539.526147
105.537000	0.026181	0.029542	0.023504	0.063207	6293.494959	43041.745294	3878.606376	21502.872120
106.037500	0.027983	0.030277	0.025694	0.064044	6301.313352	43032.402142	3882.103801	21466.842775
106.537500	0.027145	0.029668	0.021653	0.064267	6292.722111	42955.359304	3871.121296	21457.247778
107.035000	0.024397	0.029456	0.022753	0.069644	6227.660370	42442.074806	3860.215047	21227.399116
107.538000	0.028037	0.029360	0.024482	0.065200	6292.389692	42840.806931	3875.990331	21417.143145
108.035500	0.030218	0.030895	0.026394	0.067201	6293.847537	42797.906256	3875.761474	21331.469215
108.535500	0.029285	0.029522	0.027399	0.066727	6290.141212	42715.179051	3879.573480	21351.732188
109.036000	0.026825	0.029015	0.025160	0.072400	6225.061782	42151.413514	3859.329381	21110.678158
109.536500	0.028447	0.030588	0.027318	0.068524	6268.917119	42648.093467	3874.735464	21275.020746
110.037000	0.031784	0.030578	0.032547	0.069339	6289.229082	42572.514604	3886.142547	21240.376140
