sample name	sample
index	39
start time	 02-11-2021  01:49:43 PM
880	-0.016568
Peak Time (s)	80.535
Peak Height 	-0.01657
calc peak height	80,83
Baseline Time (s)	10.036
Baseline Value 	-0.003055
subtract baseline	10,4
Abs	-0.022382
Peak Time (s)	80.038
Peak Height 	-0.02238
calc peak height	80,83
Baseline Time (s)	10.537
Baseline Value 	0.01036
subtract baseline	10,3
PK_550	-0.003081
Peak Time (s)	81.535
Peak Height 	-0.003081
calc peak height	80,83
Baseline Time (s)	11.037
Baseline Value 	0.001062
subtract baseline	10,2
PK_880	-0.023918
Peak Time (s)	81.036
Peak Height 	-0.02392
calc peak height	80,83
Baseline Time (s)	11.037
Baseline Value 	0.003937
subtract baseline	10,1


Time (s)	A880-A510	A880-A775	A880-A975	A880	I510	I775	I975	I880	
0.036000	-0.001028	-0.000263	-0.010463	0.000545	4595.473354	19945.429127	3293.657265	10848.424592
0.536000	-0.003849	-0.001416	-0.013041	0.001289	4582.117261	19871.645424	3290.736931	10834.896551
1.036500	-0.006456	-0.001243	-0.008735	0.005704	4556.123968	19707.731582	3290.641292	10755.080104
1.536000	-0.002630	-0.002194	-0.004091	-0.000977	4595.174087	19929.510959	3300.688694	10876.179174
2.037000	0.000213	-0.000520	-0.003634	0.000489	4600.359306	19937.617334	3299.782819	10849.444476
2.537500	-0.000013	-0.001687	0.000770	-0.001943	4608.701083	19986.988251	3305.960824	10893.832232
3.037500	-0.003516	-0.001487	-0.006251	0.001490	4582.611296	19861.074413	3296.552345	10831.251591
3.538000	-0.001214	-0.001223	-0.006278	0.001766	4590.187736	19860.630966	3296.283294	10826.238715
4.035000	-0.002620	-0.000269	-0.010402	0.002197	4583.314082	19880.921321	3292.256494	10818.419047
4.535500	-0.001761	-0.001302	-0.013522	0.001866	4587.766673	19853.686622	3289.811450	10824.428130
5.036000	-0.003807	0.000348	-0.007672	0.002013	4579.574010	19912.050811	3294.827078	10821.750682
5.536000	0.001600	0.000486	-0.004639	-0.001156	4611.840694	20041.266174	3300.357432	10879.448730
6.036500	-0.000392	0.000219	-0.003345	0.000817	4596.841918	19953.616417	3299.747737	10843.471305
6.537000	0.001253	0.001380	-0.001553	0.003837	4591.672460	19881.247672	3298.648242	10788.730067
7.037000	-0.000610	-0.000052	-0.008760	0.002051	4591.386484	19895.029040	3293.832398	10821.071254
7.537500	-0.002554	0.000226	-0.010686	-0.000126	4592.260816	19990.773526	3294.053440	10860.656940
8.037500	-0.001592	-0.000227	-0.007917	-0.000558	4597.501373	19989.905692	3296.891422	10868.519805
8.535000	0.000767	-0.000386	-0.004003	-0.000610	4606.608487	19985.732725	3300.438130	10869.476190
9.035500	-0.002513	-0.000163	0.000642	-0.001383	4597.140642	20024.706748	3305.334586	10883.591824
9.536500	0.001689	0.000657	-0.002543	-0.002400	4616.914942	20096.867831	3303.368223	10902.210920
10.036000	-0.000660	-0.000286	0.000387	0.000000	4598.912133	19965.803932	3303.848247	10858.352192
10.536500	0.001090	0.000372	0.000000	0.001585	4599.536260	19929.697764	3302.065571	10829.528694
11.036500	0.000000	0.000000	-0.009928	0.000729	4598.652442	19948.543883	3293.968386	10845.084770
11.537000	-0.002511	0.000596	0.002418	0.000184	4591.255898	19993.092647	3305.524678	10855.001602
12.036500	-0.002314	-0.001928	0.001980	-0.001636	4598.842467	19965.579223	3306.784726	10888.226828
12.537500	-0.004469	-0.002379	-0.012115	-0.001717	4591.042898	19951.161193	3294.196865	10889.704779
13.035500	-0.005179	-0.000611	-0.003349	-0.000351	4583.272678	19966.821584	3300.793130	10864.753078
13.535500	0.002097	0.001213	-0.003192	0.000880	4606.001801	19989.990690	3299.828504	10842.324660
14.035500	-0.001490	-0.000645	-0.008378	-0.000040	4595.935323	19953.353897	3296.021610	10859.079120
14.536000	0.002768	-0.000512	0.001442	0.000774	4608.948076	19926.834707	3304.102115	10844.258364
15.036000	0.000364	-0.001220	-0.009733	-0.000504	4604.682447	19949.058102	3295.231739	10867.548230
15.536500	-0.001502	-0.000012	-0.004155	0.000083	4595.426663	19973.298804	3299.679588	10856.842416
16.036500	-0.000370	-0.000233	0.001585	-0.000184	4600.696766	19975.056134	3305.101151	10861.697941
16.540500	0.000765	-0.000109	-0.007553	0.000447	4602.600819	19955.275255	3296.322059	10850.210118
17.037000	0.000202	0.001419	0.001360	0.001982	4594.694726	19955.005996	3302.934936	10822.322756
17.537500	-0.002368	-0.001707	0.003837	-0.000982	4596.179252	19948.689545	3307.884135	10876.273927
18.035500	0.000042	0.000370	-0.000815	0.000924	4598.075499	19955.347362	3301.926122	10841.527284
18.535500	0.001750	-0.001517	0.000226	0.000235	4607.130092	19908.666943	3303.488737	10854.069161
19.035500	-0.000849	-0.000510	0.002150	0.000036	4598.063197	19955.677705	3305.415887	10857.695410
19.539500	0.002223	0.000989	0.008546	-0.001877	4616.955012	20089.336741	3313.046648	10892.634994
20.036500	0.000557	-0.001341	-0.008735	-0.001898	4610.693430	19998.738580	3297.356039	10893.009047
20.536500	-0.000075	0.000738	-0.001819	0.000057	4600.903491	20003.603819	3301.802235	10857.311130
21.037000	-0.000159	0.000005	0.000082	-0.000585	4603.008983	20000.052078	3304.100842	10869.012586
21.537000	0.001946	-0.000005	0.001850	-0.000401	4610.287687	19992.474240	3305.540911	10865.670327
22.040000	0.000056	0.001596	-0.003033	0.000744	4598.806942	20010.321018	3300.092667	10844.804569
22.537500	-0.001595	-0.000535	-0.002352	0.001162	4591.023283	19910.820682	3300.328737	10837.203376
23.035000	-0.001445	0.000706	-0.007780	0.002136	4587.938219	19921.198002	3294.622940	10819.525320
23.539500	-0.002366	-0.000178	0.000129	-0.000369	4593.877757	19984.449274	3303.947794	10865.075753
24.035500	0.001385	-0.000838	-0.007028	-0.001337	4611.707933	19996.495998	3298.378520	10882.747821
24.536500	-0.000076	-0.000565	-0.004397	-0.000453	4602.827110	19972.646028	3299.943905	10866.620785
25.036500	0.001853	0.000598	-0.013086	0.000387	4606.947231	19985.257142	3291.488485	10851.304331
25.539500	-0.000876	-0.000064	-0.005778	-0.000756	4600.949787	20004.045271	3298.977249	10872.139829
26.037000	0.001248	-0.000439	0.004377	-0.003341	4618.822355	20090.758162	3310.546537	10919.476147
26.537000	-0.000927	0.000312	-0.006263	0.001199	4593.395037	19942.362784	3296.800430	10836.537871
27.037500	-0.001663	0.000343	0.001179	0.001912	4587.957636	19915.772109	3302.834407	10823.579857
27.535000	0.001106	0.000884	0.002968	0.001918	4598.337562	19936.627330	3304.449076	10823.474366
28.035000	-0.003914	-0.000205	0.001917	0.001160	4582.354520	19923.754246	3304.182727	10837.239349
28.535500	-0.003812	0.000861	0.001473	0.001794	4580.370079	19940.580203	3303.206690	10825.721899
29.036000	0.000880	-0.001251	-0.001845	0.000106	4604.328139	19924.061060	3301.735136	10856.426761
29.536500	0.002582	0.000702	-0.009024	0.001661	4604.884577	19939.561250	3293.942617	10828.142487
30.037000	-0.000370	-0.000121	0.002678	0.001556	4594.147132	19911.617764	3304.514144	10830.052185
30.537000	0.002366	0.000259	-0.013325	0.002609	4600.484260	19885.449588	3289.335335	10810.954568
31.037000	-0.003963	0.000159	-0.007710	0.001842	4579.627717	19911.332392	3294.944958	10824.849140
31.537500	0.000090	0.000728	0.001944	0.001895	4594.602283	19931.468993	3303.542151	10823.898170
32.035000	-0.000781	0.000528	0.002310	0.001553	4592.612851	19936.989113	3304.183261	10830.099805
32.534500	-0.000665	0.000491	-0.006694	0.001351	4593.807054	19943.432970	3296.281418	10833.771024
33.035500	-0.001063	-0.000823	-0.005801	-0.000158	4597.985872	19951.028349	3298.422019	10861.225134
33.535500	-0.003608	-0.001223	-0.001962	-0.000683	4590.396191	19955.916238	3302.341388	10870.813753
34.036000	-0.004075	0.000324	-0.000740	0.001336	4581.097866	19937.491759	3301.622971	10834.048759
34.536500	-0.001617	0.000207	-0.000319	0.002029	4587.692955	19905.939384	3301.377589	10821.456374
35.036000	-0.000769	0.000182	-0.003976	0.001059	4594.513298	19942.761096	3298.965303	10839.071441
35.536000	-0.001093	-0.000050	-0.007487	0.001019	4593.444593	19935.281258	3295.872246	10839.799033
36.037500	0.002161	-0.000497	-0.000608	-0.003422	4622.618407	20091.665254	3306.053537	10920.968028
36.535000	-0.000169	-0.001290	-0.002634	-0.000936	4604.301014	19963.185614	3301.963545	10875.436063
37.035000	-0.001657	0.000237	-0.007121	-0.000444	4596.827046	20003.606968	3297.499619	10866.450679
37.535500	0.000197	-0.000748	-0.000709	-0.000861	4605.401241	19981.413968	3303.634417	10874.056355
38.035500	-0.002707	-0.000818	-0.002087	-0.001459	4596.696262	20002.030620	3302.928997	10884.980407
38.536500	-0.001945	0.000530	-0.007548	0.001710	4587.658320	19930.959772	3295.205144	10827.252885
39.036000	-0.001111	-0.000834	-0.003291	-0.001097	4601.349600	19987.295120	3301.516659	10878.377437
39.537000	0.001417	0.000134	-0.008448	0.001507	4601.060511	19923.426924	3294.588306	10830.938631
40.036500	-0.001325	-0.000689	-0.001256	0.000460	4594.674913	19932.152933	3301.947313	10849.978346
40.538000	-0.004242	-0.001360	0.002100	0.002057	4577.791551	19844.010802	3303.536144	10820.958873
41.040000	0.001691	0.000810	-0.001143	0.000342	4606.500480	19995.268926	3302.155582	10852.120931
41.535000	0.000474	-0.000156	-0.001955	-0.001197	4607.725069	20017.714247	3302.811720	10880.203603
42.035500	0.004687	0.000436	-0.002757	-0.000875	4622.535055	20028.288096	3301.796830	10874.306595
42.535500	0.002853	0.001428	0.004971	0.001546	4606.344300	19972.377667	3306.610265	10830.226773
43.036000	-0.005201	-0.001377	0.012446	-0.003635	4595.499343	20065.453317	3318.327643	10924.874837
43.536000	-0.032570	-0.023083	0.012765	0.155796	4024.347519	14248.555138	3193.182092	8472.618825
44.036000	-0.058357	-0.035725	-0.015530	0.187626	3892.312868	13154.569557	3156.616121	8081.900316
44.536000	-0.052716	-0.024509	-0.021723	0.001377	4409.368366	18995.136192	3283.132095	10833.290816
45.037000	-0.040909	-0.015895	-0.021733	-0.153057	5084.533034	26278.828935	3442.306997	14202.325854
45.540000	-0.015187	-0.009773	-0.017314	-0.176106	5336.839666	27895.526121	3477.037929	14815.982725
46.037000	-0.025227	-0.014467	-0.023669	-0.131429	5055.668666	25221.324524	3414.214624	13655.400967
46.535000	-0.036657	-0.014545	-0.020854	-0.110884	4907.038062	24191.151858	3394.058504	13160.477777
47.035000	-0.040446	-0.013631	-0.020853	-0.088627	4793.792605	23175.341705	3369.895192	12650.071610
47.535500	-0.044462	-0.014815	-0.022523	-0.057466	4651.241612	21727.949922	3336.436099	11978.043099
48.036000	-0.039914	-0.011170	-0.019634	-0.078636	4754.319946	22828.683391	3360.706481	12429.326334
48.535500	-0.040527	-0.007904	-0.033923	-0.077995	4749.148462	22948.817537	3345.486875	12415.333099
49.036500	-0.039467	-0.005609	-0.026587	-0.088350	4796.754000	23538.186731	3363.578117	12643.879599
49.537000	-0.044411	-0.008506	-0.031508	-0.086526	4768.382333	23316.277165	3356.594697	12603.240675
50.036500	-0.045856	-0.008526	-0.024733	-0.072503	4705.165552	22670.132472	3349.208337	12296.327878
50.537500	-0.035250	-0.005593	-0.028428	-0.056547	4683.816951	22089.272177	3329.794459	11958.951378
51.035000	-0.027826	-0.006016	-0.026291	-0.057900	4718.973090	22130.187992	3333.177446	11987.067289
51.535000	-0.026389	-0.004206	-0.014710	-0.056906	4720.770223	22166.149982	3343.612381	11966.403760
52.039500	-0.024887	-0.005873	-0.030145	-0.060886	4743.114158	22268.462655	3332.334161	12049.468438
52.544000	-0.025631	-0.004497	-0.029410	-0.055106	4716.555930	22074.138383	3327.460392	11929.093615
53.038500	-0.022208	-0.003829	-0.026016	-0.056085	4734.431858	22146.597473	3331.681483	11949.364440
53.536500	-0.028357	-0.005315	-0.030487	-0.055111	4705.592046	22038.449864	3326.431215	11929.177751
54.036500	-0.025290	-0.005569	-0.022512	-0.052535	4707.566556	21914.875764	3331.636556	11876.047572
54.537000	-0.026205	-0.003750	-0.028211	-0.044255	4670.985477	21635.667527	3318.292183	11707.357095
55.040000	-0.024332	-0.005210	-0.020262	-0.045544	4683.480924	21628.355395	3327.063081	11733.413205
55.534500	-0.028613	-0.004669	-0.016218	-0.041851	4652.151321	21493.682535	3327.399455	11658.985008
56.034500	-0.025070	-0.005611	-0.017967	-0.039149	4655.429670	21339.250731	3323.147551	11604.939146
56.535500	-0.029588	-0.004798	-0.013144	-0.030655	4605.434197	21017.914237	3319.672968	11437.191550
57.035500	-0.024651	-0.004846	-0.028305	-0.033076	4633.519888	21116.583048	3307.839965	11484.663260
57.535500	-0.026795	-0.005387	-0.030832	-0.032929	4624.725924	21087.922113	3305.400412	11481.778076
58.036500	-0.027646	-0.005342	-0.018358	-0.032228	4618.790487	21060.630486	3316.255794	11468.002743
58.536500	-0.028315	-0.006120	-0.024041	-0.027464	4598.192795	20831.741604	3306.608767	11375.016002
59.036000	-0.025926	-0.004751	-0.020456	-0.032161	4625.109729	21082.433597	3314.237204	11466.687047
59.536500	-0.027898	-0.004574	-0.024528	-0.032148	4617.528299	21089.267325	3310.456837	11466.446851
60.037500	-0.027935	-0.004806	-0.025116	-0.031504	4614.932625	21052.832773	3309.323310	11453.818675
60.535000	-0.031829	-0.004990	-0.023855	-0.026547	4581.580833	20840.489311	3305.942423	11357.235824
61.035000	-0.027814	-0.006361	-0.020723	-0.030843	4612.875752	20960.980569	3312.765358	11440.861685
61.535500	-0.028511	-0.005869	-0.023223	-0.029852	4606.471675	20940.347804	3309.544042	11421.492467
62.035500	-0.028134	-0.005012	-0.023824	-0.028331	4602.143050	20912.981854	3307.598267	11391.859318
62.536000	-0.033662	-0.005778	-0.020239	-0.021304	4555.395293	20594.551906	3304.462004	11256.261142
63.036000	-0.031257	-0.007237	-0.029601	-0.027324	4586.617877	20780.220702	3301.441073	11372.291208
63.536000	-0.027716	-0.005623	-0.030532	-0.025137	4591.691186	20756.779463	3298.643887	11329.954019
64.037000	-0.033567	-0.006210	-0.026456	-0.024926	4569.100604	20724.253857	3302.115388	11325.893884
64.540000	-0.034132	-0.006669	-0.014631	-0.017656	4540.358028	20411.727161	3306.245574	11186.746494
65.037500	-0.031183	-0.006614	-0.026647	-0.022854	4570.251228	20623.488271	3300.078465	11285.989044
65.534500	-0.034704	-0.005473	-0.020682	-0.021977	4554.044713	20634.228454	3304.671099	11269.163776
66.035500	-0.035497	-0.005362	-0.010486	-0.021070	4547.824188	20601.922265	3313.195788	11251.787552
66.535500	-0.038220	-0.006384	-0.035347	-0.015549	4517.997294	20338.858699	3285.977961	11146.841898
67.036000	-0.030162	-0.005621	-0.020652	-0.020024	4563.567302	20549.156438	3302.929152	11231.804299
67.536500	-0.035615	-0.005579	-0.025000	-0.020555	4545.513652	20572.300879	3299.493938	11241.945982
68.036500	-0.033179	-0.006002	-0.017613	-0.019639	4551.065877	20518.251473	3305.335568	11224.462549
68.537000	-0.030871	-0.005348	-0.027353	-0.019133	4557.675196	20524.203982	3296.126270	11214.814249
69.037000	-0.029361	-0.005421	-0.025912	-0.019754	4565.526100	20546.316781	3297.961689	11226.648088
69.537500	-0.031884	-0.005687	-0.020807	-0.019701	4556.041209	20533.451808	3302.497138	11225.646855
70.037500	-0.030511	-0.006096	-0.025393	-0.020691	4564.740605	20556.891820	3299.263428	11244.540165
70.535000	-0.032490	-0.006314	-0.028378	-0.016251	4541.221095	20369.712723	3292.671294	11160.117500
71.035500	-0.031128	-0.003700	-0.021243	-0.019779	4559.105818	20616.980985	3302.173915	11227.130702
71.535500	-0.028812	-0.004598	-0.021049	-0.020773	4571.329420	20620.874165	3303.247486	11246.116962
72.036000	-0.029218	-0.004119	-0.022848	-0.020255	4567.907291	20619.278536	3301.157528	11236.217606
72.536000	-0.032896	-0.004232	-0.033225	-0.015942	4538.620481	20440.718293	3288.159359	11154.270878
73.036500	-0.028074	-0.004019	-0.024393	-0.020921	4574.614686	20650.341851	3300.366452	11248.933713
73.537000	-0.030728	-0.004855	-0.032938	-0.022220	4569.591724	20669.195239	3293.913991	11273.824198
74.040000	-0.029270	-0.003243	-0.016388	-0.021190	4571.175957	20692.892920	3307.868213	11254.092421
74.534500	-0.038947	-0.003901	-0.027915	-0.014988	4513.387881	20415.724016	3291.967303	11136.252551
75.035000	-0.028460	-0.004410	-0.023306	-0.021588	4575.659477	20661.572394	3301.944834	11261.704414
75.535500	-0.026053	-0.003700	-0.024373	-0.021364	4583.793937	20681.361953	3300.782836	11257.425202
76.035500	-0.028848	-0.003680	-0.014955	-0.021545	4574.056569	20689.550873	3309.507979	11260.882490
76.540500	-0.027701	-0.004272	-0.026230	-0.016897	4561.109825	20477.478701	3295.138423	11172.345998
77.036000	-0.028643	-0.003495	-0.029127	-0.020764	4571.924001	20665.309549	3295.999215	11245.949323
77.536000	-0.028364	-0.003603	-0.028529	-0.021554	4575.891796	20693.048432	3297.233804	11261.063693
78.036000	-0.027947	-0.004620	-0.023964	-0.022029	4579.208536	20670.966303	3301.749716	11270.157340
78.540000	-0.027503	-0.003443	-0.023727	-0.015460	4556.557577	20453.051103	3296.084492	11145.170677
79.037000	-0.026925	-0.004662	-0.021279	-0.022627	4585.253611	20693.620970	3304.719332	11281.633341
79.537500	-0.025744	-0.003363	-0.012920	-0.021421	4585.158154	20697.397163	3311.268035	11258.503322
80.038000	-0.029104	-0.003904	-0.022382	-0.021744	4573.844458	20688.496617	3302.920063	11264.691148
80.535500	-0.032567	-0.004734	-0.025171	-0.016568	4542.092610	20445.690192	3295.786298	11166.115997
81.036000	-0.023918	-0.003819	-0.027156	-0.021154	4590.999814	20667.971592	3298.101808	11253.402400
81.535500	-0.028691	-0.003081	-0.023958	-0.021101	4572.992310	20695.816055	3300.919427	11252.377674
82.088500	-0.027579	-0.004974	-0.027545	-0.022394	4581.939292	20671.406565	3298.861469	11277.153342
82.536500	-0.031389	-0.004601	-0.026717	-0.018401	4553.086782	20524.829676	3296.041217	11200.891732
83.036500	-0.028994	-0.004159	-0.027980	-0.021574	4573.623750	20671.225363	3297.741094	11261.437960
83.536500	-0.020794	-0.002576	-0.031317	-0.020483	4600.226101	20691.242230	3293.810984	11240.570063
84.034500	-0.024241	-0.003889	-0.026446	-0.021037	4589.347249	20660.380168	3298.631562	11251.162748
84.534500	-0.024261	-0.004375	-0.016160	-0.018201	4578.679717	20525.866702	3305.348651	11197.083853
