sample name	sample
index	733
start time	 03-25-2021  03:26:27 PM


Wavelength (nm)	Absorbance
494.344910	-0.388766
494.563924	-0.388766
494.782919	-0.388766
495.001897	NaN
495.220856	-0.089731
495.439797	0.023840
495.658719	0.227258
495.877624	0.363661
496.096510	0.145224
496.315378	0.054229
496.534227	-0.015881
496.753059	0.247430
496.971872	0.258437
497.190667	0.029295
497.409444	0.015482
497.628203	0.009863
497.846943	0.011242
498.065665	0.009842
498.284369	0.008698
498.503055	0.009592
498.721723	0.008717
498.940372	0.008122
499.159003	0.007886
499.377616	0.008469
499.596210	0.009428
499.814787	0.008905
500.033345	0.010462
500.251885	0.011161
500.470406	0.010511
500.688910	0.010679
500.907395	0.010991
501.125862	0.010888
501.344311	0.010231
501.562742	0.010000
501.781154	0.010197
501.999548	0.009220
502.217924	0.008105
502.436282	0.008055
502.654621	0.008447
502.872942	0.008455
503.091245	0.008304
503.309530	0.009198
503.527797	0.008485
503.746045	0.008486
503.964275	0.008673
504.182487	0.010079
504.400681	0.009701
504.618856	0.009172
504.837013	0.008038
505.055152	0.007786
505.273273	0.006368
505.491376	0.005863
505.709460	0.005830
505.927526	0.004824
506.145574	0.004544
506.363604	0.004940
506.581615	0.004135
506.799608	0.004918
507.017583	0.005291
507.235540	0.005787
507.453478	0.007050
507.671399	0.006654
507.889301	0.007454
508.107185	0.006796
508.325050	0.005660
508.542898	0.006946
508.760727	0.007239
508.978538	0.007000
509.196330	0.007252
509.414105	0.006534
509.631861	0.006048
509.849599	0.005356
510.067319	0.005263
510.285021	0.006539
510.502704	0.005135
510.720369	0.004643
510.938016	0.004558
511.155645	0.004789
511.373255	0.004920
511.590848	0.005623
511.808422	0.005394
512.025977	0.005439
512.243515	0.005177
512.461034	0.005847
512.678536	0.005488
512.896018	0.005919
513.113483	0.005517
513.330930	0.005498
513.548358	0.005489
513.765768	0.005891
513.983160	0.006395
514.200533	0.006320
514.417889	0.006300
514.635226	0.006177
514.852545	0.005476
515.069845	0.004779
515.287128	0.004913
515.504392	0.004963
515.721638	0.004851
515.938866	0.004595
516.156075	0.004379
516.373267	0.004149
516.590440	0.004589
516.807594	0.004547
517.024731	0.005110
517.241850	0.004928
517.458950	0.004773
517.676032	0.004448
517.893095	0.003619
518.110141	0.003137
518.327168	0.002969
518.544177	0.003137
518.761168	0.003619
518.978141	0.003542
519.195095	0.003941
519.412031	0.003581
519.628949	0.003735
519.845849	0.003739
520.062731	0.003958
520.279594	0.004273
520.496439	0.004079
520.713266	0.003835
520.930074	0.003237
521.146865	0.003192
521.363637	0.003008
521.580391	0.003553
521.797127	0.003828
522.013844	0.003931
522.230543	0.003900
522.447224	0.003326
522.663887	0.003170
522.880532	0.003710
523.097158	0.003801
523.313766	0.003818
523.530356	0.003170
523.746928	0.003333
523.963481	0.003321
524.180017	0.003023
524.396534	0.003411
524.613032	0.003155
524.829513	0.003163
525.045975	0.002544
525.262420	0.002453
525.478845	0.002376
525.695253	0.002303
525.911643	0.001904
526.128014	0.002056
526.344367	0.001957
526.560702	0.002032
526.777018	0.001601
526.993316	0.001729
527.209597	0.001869
527.425858	0.001604
527.642102	0.001548
527.858328	0.001913
528.074535	0.001964
528.290724	0.002151
528.506894	0.002195
528.723047	0.002669
528.939181	0.002914
529.155297	0.003204
529.371395	0.003473
529.587475	0.003771
529.803536	0.004139
530.019579	0.003934
530.235604	0.003613
530.451611	0.003921
530.667600	0.004440
530.883570	0.003551
531.099522	0.003592
531.315456	0.003731
531.531372	0.003533
531.747269	0.002946
531.963148	0.003222
532.179009	0.003059
532.394852	0.002630
532.610676	0.001715
532.826482	0.002521
533.042271	0.001647
533.258040	0.001817
533.473792	0.001445
533.689525	0.001485
533.905240	0.001046
534.120937	0.001250
534.336616	0.001551
534.552277	0.001469
534.767919	0.000992
534.983543	0.001495
535.199149	0.001593
535.414736	0.001875
535.630306	0.001693
535.845857	0.002039
536.061390	0.001968
536.276904	0.001566
536.492401	0.001490
536.707879	0.001654
536.923339	0.001839
537.138781	0.001472
537.354204	0.001427
537.569610	0.001331
537.784997	0.000758
538.000366	0.000752
538.215716	0.001178
538.431049	0.001434
538.646363	0.001422
538.861659	0.001293
539.076937	0.001097
539.292196	0.001058
539.507438	0.001217
539.722661	0.001806
539.937866	0.001894
540.153052	0.001918
540.368221	0.002020
540.583371	0.001867
540.798503	0.002004
541.013617	0.002041
541.228712	0.002163
541.443789	0.002391
541.658848	0.002179
541.873889	0.002328
542.088912	0.002019
542.303916	0.001734
542.518902	0.001746
542.733870	0.001576
542.948820	0.001836
543.163752	0.001518
543.378665	0.001268
543.593560	0.000871
543.808437	0.000840
544.023295	0.000627
544.238136	0.000788
544.452958	0.001120
544.667762	0.000488
544.882548	0.000141
545.097315	0.000078
545.312064	0.000184
545.526795	0.000255
545.741508	0.000012
545.956203	0.000469
546.170879	0.000124
546.385537	-0.000338
546.600177	0.000222
546.814799	0.000292
547.029402	0.000475
547.243988	0.000383
547.458555	0.000557
547.673103	0.000851
547.887634	0.000542
548.102146	0.000611
548.316640	0.000558
548.531116	0.000295
548.745574	0.000531
548.960013	0.000955
549.174435	0.001132
549.388838	0.001236
549.603222	0.000759
549.817589	0.000579
550.031937	0.000173
550.246267	0.000597
550.460579	0.000425
550.674873	0.000363
550.889148	0.000167
551.103405	-0.000034
551.317644	-0.000174
551.531865	0.000051
551.746068	0.000064
551.960252	0.000695
552.174418	0.000248
552.388566	0.000731
552.602696	0.000767
552.816807	0.000188
553.030900	0.000486
553.244975	0.000226
553.459032	0.000395
553.673070	0.000607
553.887091	0.000497
554.101093	0.000443
554.315077	-0.000051
554.529042	-0.000261
554.742990	-0.000024
554.956919	-0.000154
555.170830	-0.000107
555.384722	-0.000061
555.598597	-0.000357
555.812453	-0.000459
556.026291	-0.000340
556.240111	-0.000434
556.453913	-0.000508
556.667696	-0.000526
556.881461	-0.000585
557.095208	-0.000325
557.308937	-0.000649
557.522647	-0.000483
557.736339	-0.000655
557.950013	-0.000531
558.163669	-0.000375
558.377307	-0.000002
558.590926	0.000212
558.804527	0.000045
559.018110	-0.000050
559.231675	-0.000044
559.445221	-0.000220
559.658749	0.000268
559.872259	0.000259
560.085751	0.000054
560.299225	-0.000174
560.512680	-0.000059
560.726117	0.000071
560.939536	-0.000076
561.152937	-0.000096
561.366319	-0.000048
561.579683	-0.000372
561.793029	-0.000425
562.006357	0.000193
562.219667	0.000054
562.432958	-0.000020
562.646231	-0.000038
562.859486	-0.000106
563.072723	-0.000497
563.285941	-0.000257
563.499141	-0.000496
563.712323	-0.000821
563.925487	-0.001143
564.138632	-0.001160
564.351760	-0.001507
564.564869	-0.001557
564.777960	-0.001347
564.991032	-0.000762
565.204087	-0.000884
565.417123	-0.000593
565.630141	-0.000313
565.843140	-0.000244
566.056122	0.000175
566.269085	0.000399
566.482030	0.000183
566.694957	-0.000011
566.907866	-0.000536
567.120756	-0.000417
567.333628	-0.000678
567.546482	-0.000917
567.759318	-0.000917
567.972135	-0.001170
568.184935	-0.001418
568.397716	-0.001313
568.610478	-0.001408
568.823223	-0.001056
569.035949	-0.001170
569.248657	-0.001289
569.461347	-0.001018
569.674019	-0.001225
569.886672	-0.001346
570.099308	-0.001113
570.311925	-0.001103
570.524523	-0.000884
570.737104	-0.000810
570.949666	-0.001138
571.162210	-0.000951
571.374736	-0.001001
571.587244	-0.000996
571.799733	-0.000947
572.012205	-0.001272
572.224658	-0.001119
572.437092	-0.000966
572.649509	-0.001203
572.861907	-0.000916
573.074287	-0.000730
573.286649	-0.000650
573.498993	-0.000548
573.711318	-0.000572
573.923625	-0.000310
574.135914	-0.000510
574.348185	-0.000581
574.560438	-0.000221
574.772672	-0.000437
574.984888	-0.000556
575.197086	-0.000514
575.409266	-0.000413
575.621427	-0.000471
575.833570	-0.000493
576.045695	-0.000208
576.257802	-0.000080
576.469890	0.000042
576.681961	0.000400
576.894013	0.000624
577.106046	0.000281
577.318062	0.000062
577.530059	0.000123
577.742039	-0.000031
577.954000	-0.000352
578.165942	-0.000554
578.377867	-0.001035
578.589773	-0.001228
578.801661	-0.001549
579.013531	-0.001226
579.225382	-0.001131
579.437216	-0.001082
579.649031	-0.000950
579.860828	-0.000576
580.072606	-0.000372
580.284367	-0.000076
580.496109	-0.000009
580.707833	0.000299
580.919539	0.000331
581.131227	0.000387
581.342896	0.000282
581.554547	0.000405
581.766180	0.000357
581.977795	0.000300
582.189391	0.000344
582.400969	0.000354
582.612529	0.000263
582.824071	0.000111
583.035595	0.000157
583.247100	0.000083
583.458587	-0.000222
583.670056	-0.000412
583.881506	-0.000246
584.092939	-0.000572
584.304353	-0.000541
584.515749	-0.000570
584.727127	-0.000591
584.938486	-0.000732
585.149828	-0.000597
585.361151	-0.000743
585.572456	-0.000581
585.783742	-0.001053
585.995011	-0.000928
586.206261	-0.000812
586.417493	-0.000890
586.628706	-0.001031
586.839902	-0.000805
587.051079	-0.000705
587.262238	-0.000311
587.473379	-0.000373
587.684502	-0.000119
587.895606	-0.000003
588.106692	-0.000175
588.317760	-0.000291
588.528810	0.000079
588.739841	0.000003
588.950855	0.000135
589.161850	-0.000005
589.372827	0.000051
589.583785	0.000052
589.794726	0.000011
590.005648	0.000233
590.216552	0.000382
590.427437	0.000018
590.638305	0.000021
590.849154	-0.000257
591.059985	-0.000474
591.270798	-0.000672
591.481592	-0.000713
591.692369	-0.000738
591.903127	-0.000870
592.113867	-0.000967
592.324588	-0.000821
592.535292	-0.000679
592.745977	-0.000383
592.956644	0.000152
593.167293	0.000364
593.377923	0.000447
593.588536	0.000291
593.799130	0.000134
594.009706	0.000257
594.220263	0.000305
594.430803	0.000063
594.641324	-0.000135
594.851827	-0.000353
595.062312	-0.000524
595.272778	-0.000700
595.483227	-0.000706
595.693657	-0.000690
595.904069	-0.000475
596.114462	-0.000384
596.324838	-0.000211
596.535195	-0.000254
596.745534	-0.000435
596.955855	-0.000134
597.166157	-0.000034
597.376441	0.000218
597.586707	0.000336
597.796955	0.000070
598.007185	-0.000112
598.217396	-0.000113
598.427589	-0.000079
598.637764	0.000516
598.847921	0.000488
599.058060	0.000491
599.268180	0.000472
599.478282	0.000408
599.688366	0.000534
599.898431	0.000639
600.108479	0.000756
600.318508	0.001050
600.528519	0.000786
600.738511	0.000547
600.948486	0.000439
601.158442	0.000370
601.368380	0.000302
601.578300	0.000459
601.788202	0.000552
601.998085	0.000493
602.207950	0.000577
602.417797	0.000562
602.627626	0.000649
602.837436	0.000760
603.047228	0.000893
603.257002	0.000888
603.466758	0.000609
603.676496	0.000777
603.886215	0.000729
604.095916	0.000409
604.305599	0.000307
604.515264	0.000255
604.724910	0.000388
604.934538	0.000047
605.144148	0.000483
605.353740	0.000642
605.563314	0.000565
605.772869	0.000386
605.982406	0.000246
606.191925	0.000320
606.401425	0.000703
606.610908	0.000727
606.820372	0.000951
607.029818	0.000836
607.239246	0.000776
607.448655	0.000700
607.658047	0.000940
607.867420	0.001145
608.076775	0.001025
608.286111	0.000635
608.495430	0.000487
608.704730	0.000691
608.914012	0.000602
609.123275	0.000512
609.332521	0.000493
609.541748	0.000365
609.750957	0.000294
609.960148	0.000283
610.169321	0.000269
610.378475	0.000344
610.587611	0.000357
610.796729	0.000459
611.005829	0.000578
611.214910	0.000498
611.423974	0.000632
611.633019	0.000660
611.842045	0.001067
612.051054	0.001230
612.260044	0.001384
612.469017	0.001394
612.677970	0.001375
612.886906	0.001198
613.095824	0.001500
613.304723	0.001621
613.513604	0.001683
613.722467	0.001576
613.931311	0.001499
614.140138	0.001580
614.348946	0.001360
614.557736	0.001357
614.766507	0.001513
614.975261	0.001354
615.183996	0.001037
615.392713	0.000973
615.601412	0.000808
615.810092	0.000906
616.018754	0.000893
616.227399	0.000981
616.436024	0.001087
616.644632	0.001199
616.853222	0.001051
617.061793	0.001118
617.270346	0.001073
617.478880	0.001213
617.687397	0.001122
617.895895	0.000906
618.104375	0.000726
618.312837	0.000537
618.521281	0.000404
618.729706	0.000700
618.938113	0.000910
619.146502	0.000936
619.354873	0.000836
619.563226	0.000916
619.771560	0.000985
619.979876	0.001210
620.188174	0.001487
620.396453	0.001780
620.604715	0.001561
620.812958	0.001455
621.021183	0.001555
621.229390	0.001445
621.437578	0.001521
621.645748	0.001492
621.853900	0.001494
622.062034	0.001352
622.270150	0.001167
622.478247	0.001378
622.686326	0.001537
622.894387	0.001485
623.102430	0.001585
623.310454	0.001630
623.518461	0.001765
623.726449	0.001926
623.934418	0.002001
624.142370	0.002028
624.350303	0.002207
624.558218	0.002006
624.766115	0.001982
624.973994	0.001978
625.181855	0.001788
625.389697	0.001652
625.597521	0.001388
625.805327	0.000993
626.013114	0.000860
626.220883	0.000656
626.428634	0.000460
626.636367	0.000499
626.844082	0.000381
627.051778	0.000421
627.259457	0.000333
627.467117	0.000297
627.674758	0.000656
627.882382	0.000765
628.089987	0.000716
628.297574	0.001081
628.505143	0.001054
628.712694	0.001171
628.920226	0.001378
629.127740	0.001748
629.335236	0.001888
629.542714	0.001803
629.750174	0.001788
629.957615	0.001814
630.165038	0.001698
630.372443	0.001689
630.579829	0.001827
630.787198	0.001588
630.994548	0.001398
631.201880	0.001384
631.409194	0.001558
631.616489	0.001859
631.823766	0.001860
632.031025	0.001873
632.238266	0.001945
632.445489	0.001855
632.652693	0.001999
632.859879	0.001895
633.067047	0.001828
633.274197	0.001608
633.481329	0.001459
633.688442	0.001441
633.895537	0.001426
634.102614	0.001262
634.309672	0.001324
634.516713	0.001261
634.723735	0.001325
634.930739	0.001570
635.137724	0.001444
635.344692	0.001163
635.551641	0.000973
635.758572	0.001024
635.965485	0.001210
636.172379	0.001230
636.379256	0.001182
636.586114	0.001112
636.792954	0.000929
636.999775	0.001082
637.206579	0.001164
637.413364	0.001309
637.620131	0.001246
637.826880	0.001498
638.033610	0.001569
638.240323	0.001595
638.447017	0.001583
638.653692	0.001499
638.860350	0.001594
639.066990	0.001701
639.273611	0.001745
639.480214	0.002075
639.686798	0.001784
639.893365	0.001732
640.099913	0.001862
640.306443	0.001984
640.512955	0.002248
640.719449	0.002180
640.925924	0.002266
641.132381	0.002278
641.338820	0.001889
641.545241	0.002092
641.751644	0.001911
641.958028	0.001768
642.164394	0.001739
642.370742	0.001672
642.577071	0.001637
642.783383	0.001615
642.989676	0.001617
643.195951	0.001816
643.402207	0.001734
643.608446	0.001772
643.814666	0.001631
644.020868	0.001620
644.227052	0.001469
644.433218	0.001510
644.639365	0.001493
644.845494	0.001393
645.051605	0.001333
645.257698	0.001218
645.463772	0.001385
645.669828	0.001647
645.875866	0.001650
646.081886	0.001978
646.287888	0.002057
646.493871	0.002124
646.699836	0.002249
646.905783	0.002222
647.111712	0.002427
647.317622	0.002280
647.523514	0.002227
647.729388	0.002327
647.935244	0.002141
648.141082	0.002187
648.346901	0.002238
648.552702	0.002166
648.758485	0.002343
648.964250	0.002173
649.169996	0.002256
649.375724	0.002417
649.581434	0.002439
649.787126	0.002575
649.992800	0.002491
650.198455	0.002565
650.404092	0.002700
650.609711	0.002566
650.815311	0.002695
651.020894	0.002646
651.226458	0.002541
651.432004	0.002467
651.637532	0.002354
651.843041	0.002336
652.048532	0.002158
652.254006	0.001991
652.459460	0.002045
652.664897	0.001982
652.870315	0.002172
653.075716	0.002135
653.281097	0.002227
653.486461	0.002261
653.691807	0.002281
653.897134	0.002395
654.102443	0.002448
654.307734	0.002372
654.513006	0.002484
654.718261	0.002462
654.923497	0.002610
655.128715	0.002653
655.333915	0.002657
655.539096	0.002760
655.744259	0.002845
655.949404	0.002888
656.154531	0.002827
656.359640	0.002806
656.564730	0.002611
656.769802	0.002622
656.974856	0.002570
657.179892	0.002535
657.384909	0.002578
657.589908	0.002497
657.794889	0.002599
657.999852	0.002832
658.204797	0.002852
658.409723	0.003050
658.614631	0.002964
658.819521	0.002970
659.024393	0.003044
659.229246	0.003047
659.434081	0.003155
659.638898	0.003135
659.843697	0.003035
660.048478	0.002964
660.253240	0.002798
660.457984	0.003008
660.662710	0.002925
660.867417	0.002878
661.072107	0.002774
661.276778	0.002429
661.481431	0.002358
661.686066	0.002423
661.890682	0.002419
662.095281	0.002530
662.299861	0.002398
662.504422	0.002334
662.708966	0.002171
662.913491	0.002135
663.117999	0.002347
663.322488	0.002364
663.526958	0.002315
663.731411	0.002344
663.935845	0.002457
664.140261	0.002487
664.344659	0.002714
664.549038	0.002919
664.753400	0.002926
664.957743	0.002810
665.162068	0.002917
665.366375	0.002966
665.570663	0.002975
665.774933	0.002921
665.979185	0.002881
666.183419	0.002937
666.387635	0.002971
666.591832	0.003050
666.796011	0.003184
667.000172	0.003267
667.204315	0.003350
667.408439	0.003605
667.612545	0.003653
667.816634	0.003787
668.020703	0.003767
668.224755	0.003692
668.428788	0.003786
668.632803	0.003855
668.836800	0.003762
669.040779	0.003822
669.244739	0.003772
669.448681	0.003911
669.652605	0.004029
669.856511	0.003916
670.060399	0.003953
670.264268	0.003837
670.468119	0.003812
670.671952	0.003761
670.875767	0.003523
671.079563	0.003362
671.283341	0.003188
671.487101	0.002989
671.690843	0.002925
671.894567	0.003094
672.098272	0.003214
672.301959	0.003270
672.505628	0.003277
672.709278	0.003420
672.912911	0.003551
673.116525	0.003587
673.320121	0.003589
673.523699	0.003510
673.727258	0.003570
673.930799	0.003545
674.134322	0.003611
674.337827	0.003505
674.541314	0.003512
674.744782	0.003413
674.948232	0.003474
675.151664	0.003407
675.355078	0.003684
675.558474	0.003459
675.761851	0.003488
675.965210	0.003488
676.168551	0.003680
676.371873	0.003617
676.575178	0.003597
676.778464	0.003565
676.981732	0.003625
677.184981	0.003627
677.388213	0.003834
677.591426	0.003865
677.794621	0.003856
677.997798	0.003843
678.200956	0.003930
678.404097	0.003992
678.607219	0.004049
678.810323	0.004088
679.013408	0.004131
679.216476	0.004116
679.419525	0.004149
679.622556	0.004251
679.825569	0.004315
680.028563	0.004569
680.231540	0.004620
680.434498	0.004590
680.637438	0.004704
680.840359	0.004684
681.043263	0.004645
681.246148	0.004625
681.449015	0.004410
681.651864	0.004288
681.854694	0.004050
682.057506	0.004126
682.260301	0.003989
682.463076	0.003823
682.665834	0.003815
682.868573	0.003771
683.071295	0.003693
683.273998	0.003708
683.476682	0.003799
683.679349	0.003709
683.881997	0.003563
684.084627	0.003640
684.287239	0.003580
684.489833	0.003527
684.692408	0.003650
684.894965	0.003700
685.097504	0.003768
685.300025	0.003694
685.502527	0.003813
685.705012	0.003899
685.907478	0.003901
686.109925	0.004099
686.312355	0.004172
686.514766	0.004090
686.717159	0.004050
686.919534	0.004062
687.121891	0.004169
687.324230	0.004030
687.526550	0.004016
687.728852	0.004119
687.931136	0.003963
688.133401	0.003809
688.335649	0.003737
688.537878	0.003672
688.740089	0.003688
688.942281	0.003560
689.144456	0.003768
689.346612	0.003760
689.548750	0.003851
689.750870	0.003951
689.952971	0.004114
690.155055	0.004353
690.357120	0.004683
690.559167	0.004786
690.761195	0.004975
690.963206	0.004979
691.165198	0.005048
691.367172	0.005103
691.569128	0.005212
691.771065	0.005315
691.972984	0.005278
692.174885	0.005214
692.376768	0.005160
692.578633	0.005190
692.780479	0.005214
692.982308	0.005173
693.184118	0.005021
693.385909	0.004988
693.587683	0.004966
693.789438	0.004959
693.991175	0.004931
694.192894	0.004922
694.394595	0.004983
694.596277	0.004923
694.797941	0.004935
694.999587	0.005067
695.201215	0.005117
695.402824	0.005130
695.604416	0.005048
695.805989	0.005060
696.007543	0.005178
696.209080	0.005084
696.410598	0.005117
696.612099	0.005095
696.813580	0.004985
697.015044	0.004994
697.216490	0.004823
697.417917	0.004792
697.619326	0.004585
697.820717	0.004374
698.022089	0.004300
698.223444	0.004333
698.424780	0.004381
698.626098	0.004321
698.827397	0.004263
699.028679	0.004309
699.229942	0.004352
699.431187	0.004490
699.632414	0.004521
699.833622	0.004531
700.034813	0.004522
700.235985	0.004623
700.437139	0.004644
700.638274	0.004621
700.839392	0.004640
701.040491	0.004775
701.241572	0.004937
701.442635	0.004920
701.643679	0.004940
701.844706	0.004941
702.045714	0.004820
702.246704	0.004974
702.447675	0.004913
702.648629	0.004990
702.849564	0.004789
703.050481	0.004756
703.251380	0.004690
703.452260	0.004788
703.653122	0.004715
703.853966	0.004647
704.054792	0.004530
704.255600	0.004693
704.456389	0.004575
704.657160	0.004421
704.857913	0.004286
705.058648	0.004473
705.259365	0.004371
705.460063	0.004331
705.660743	0.004221
705.861405	0.004105
706.062048	0.003933
706.262674	0.003863
706.463281	0.003913
706.663870	0.003638
706.864441	0.003494
707.064993	0.003362
707.265527	0.003368
707.466043	0.003462
707.666541	0.003574
707.867021	0.003694
708.067482	0.003787
708.267925	0.004019
708.468350	0.004243
708.668757	0.004423
708.869145	0.004677
709.069516	0.004710
709.269868	0.004944
709.470201	0.004980
709.670517	0.004810
709.870814	0.004997
710.071093	0.004973
710.271354	0.004968
710.471597	0.004822
710.671821	0.004809
710.872028	0.004861
711.072216	0.004723
711.272385	0.004792
711.472537	0.004890
711.672670	0.004671
711.872785	0.004508
712.072882	0.004503
712.272961	0.004568
712.473021	0.004432
712.673063	0.004410
712.873087	0.004410
713.073093	0.004218
713.273081	0.004270
713.473050	0.004218
713.673001	0.004390
713.872934	0.004396
714.072849	0.004352
714.272745	0.004408
714.472623	0.004355
714.672483	0.004433
714.872325	0.004532
715.072148	0.004618
715.271954	0.005036
715.471741	0.004962
715.671509	0.005151
715.871260	0.005230
716.070992	0.005338
716.270707	0.005526
716.470403	0.005428
716.670080	0.005518
716.869740	0.005504
717.069381	0.005330
717.269004	0.005393
717.468609	0.005366
717.668195	0.005318
717.867764	0.005221
718.067314	0.005210
718.266846	0.005224
718.466360	0.005135
718.665855	0.004965
718.865332	0.004806
719.064791	0.004797
719.264232	0.004694
719.463655	0.004624
719.663059	0.004514
719.862445	0.004395
720.061813	0.004391
720.261163	0.004249
720.460494	0.004130
720.659807	0.004050
720.859102	0.003897
721.058379	0.003773
721.257638	0.003647
721.456878	0.003694
721.656100	0.003621
721.855304	0.003620
722.054490	0.003762
722.253657	0.003746
722.452806	0.003641
722.651937	0.003610
722.851050	0.003618
723.050145	0.003578
723.249221	0.003433
723.448279	0.003405
723.647319	0.003376
723.846340	0.003423
724.045344	0.003467
724.244329	0.003714
724.443296	0.003792
724.642245	0.003950
724.841175	0.004108
725.040088	0.004279
725.238982	0.004175
725.437857	0.004043
725.636715	0.003844
725.835554	0.003728
726.034376	0.003554
726.233179	0.003459
726.431963	0.003226
726.630730	0.002997
726.829478	0.002923
727.028208	0.002859
727.226920	0.002736
727.425614	0.002780
727.624289	0.003070
727.822946	0.002989
728.021585	0.002919
728.220206	0.002892
728.418808	0.002926
728.617392	0.002931
728.815958	0.002978
729.014506	0.003128
729.213036	0.003094
729.411547	0.002897
729.610040	0.003168
729.808515	0.003287
730.006972	0.003336
730.205410	0.003411
730.403831	0.003312
730.602233	0.003332
730.800616	0.003444
730.998982	0.003347
731.197329	0.003483
731.395658	0.003355
731.593969	0.003387
731.792262	0.003429
731.990536	0.003527
732.188793	0.003605
732.387031	0.003714
732.585250	0.003656
732.783452	0.003837
732.981635	0.003789
733.179800	0.003572
733.377947	0.003498
733.576076	0.003372
733.774186	0.003272
733.972278	0.003100
734.170352	0.003040
734.368408	0.002720
734.566446	0.002492
734.764465	0.002318
734.962466	0.002464
735.160449	0.002314
735.358413	0.002165
735.556360	0.001992
735.754288	0.002005
735.952198	0.001871
736.150090	0.001939
736.347963	0.001974
736.545818	0.002029
736.743655	0.001954
736.941474	0.001894
737.139275	0.002102
737.337057	0.002222
737.534821	0.002120
737.732567	0.002107
737.930295	0.002077
738.128005	0.002047
738.325696	0.001826
738.523369	0.001751
738.721024	0.001796
738.918660	0.001546
739.116279	0.001441
739.313879	0.001326
739.511461	0.001198
739.709024	0.001228
739.906570	0.001116
740.104097	0.001240
740.301606	0.001225
740.499097	0.001037
740.696569	0.001128
740.894024	0.001353
741.091460	0.001508
741.288878	0.001470
741.486277	0.001495
741.683659	0.001574
741.881022	0.001801
742.078367	0.001893
742.275694	0.002082
742.473002	0.002274
742.670293	0.002014
742.867565	0.002124
743.064819	0.002173
743.262054	0.002165
743.459272	0.002097
743.656471	0.001857
743.853652	0.001792
744.050815	0.001865
744.247959	0.001838
744.445085	0.001919
744.642194	0.001730
744.839283	0.001971
745.036355	0.002026
745.233408	0.002058
745.430444	0.002134
745.627461	0.002197
745.824459	0.002205
746.021440	0.002183
746.218402	0.002077
746.415346	0.002183
746.612272	0.002060
746.809180	0.001955
747.006069	0.001916
747.202940	0.001812
747.399793	0.001594
747.596628	0.001410
747.793444	0.001079
747.990243	0.001170
748.187023	0.001240
748.383784	0.001232
748.580528	0.001131
748.777253	0.001142
748.973960	0.001124
749.170649	0.001308
749.367320	0.001262
749.563973	0.001315
749.760607	0.001196
749.957223	0.001131
750.153821	0.000897
750.350400	0.000993
750.546962	0.000911
750.743505	0.000990
750.940030	0.000892
751.136536	0.001088
751.333025	0.001343
751.529495	0.001531
751.725947	0.001616
751.922381	0.001882
752.118796	0.002067
752.315194	0.002313
752.511573	0.002461
752.707934	0.002500
752.904276	0.002449
753.100601	0.002398
753.296907	0.002487
753.493195	0.002564
753.689465	0.002546
753.885716	0.002400
754.081949	0.002377
754.278164	0.002181
754.474361	0.002349
754.670540	0.002359
754.866700	0.002340
755.062843	0.002353
755.258967	0.002104
755.455072	0.002159
755.651160	0.002164
755.847229	0.002005
756.043280	0.002035
756.239313	0.001835
756.435328	0.002032
756.631324	0.002018
756.827302	0.001938
757.023262	0.002192
757.219204	0.002053
757.415127	0.001907
757.611033	0.001664
757.806920	0.001562
758.002788	0.001573
758.198639	0.001269
758.394471	0.001268
758.590286	0.001275
758.786081	0.000843
758.981859	0.000777
759.177619	0.000868
759.373360	0.001120
759.569083	0.001075
759.764788	0.001175
759.960474	0.001221
760.156143	0.001106
760.351793	0.001010
760.547425	0.001173
760.743038	0.001577
760.938634	0.001678
761.134211	0.001823
761.329770	0.002039
761.525311	0.002032
761.720833	0.002094
761.916338	0.002256
762.111824	0.002219
762.307292	0.002337
762.502741	0.002045
762.698173	0.002196
762.893586	0.002142
763.088981	0.002207
763.284358	0.002419
763.479716	0.002448
763.675057	0.002387
763.870379	0.002631
764.065683	0.002681
764.260968	0.002797
764.456236	0.002620
764.651485	0.002460
764.846716	0.002288
765.041929	0.001914
765.237123	0.001964
765.432299	0.002138
765.627457	0.002023
765.822597	0.002085
766.017719	0.002105
766.212822	0.002161
766.407907	0.002370
766.602974	0.002546
766.798023	0.002627
766.993054	0.002446
767.188066	0.002377
767.383060	0.002545
767.578036	0.002598
767.772993	0.002619
767.967933	0.002514
768.162854	0.002565
768.357757	0.002562
768.552642	0.002792
768.747508	0.002976
768.942356	0.003061
769.137186	0.002900
769.331998	0.002942
769.526792	0.002792
769.721567	0.002937
769.916324	0.002950
770.111063	0.002809
770.305784	0.002491
770.500486	0.002380
770.695171	0.002349
770.889837	0.002563
771.084484	0.002500
771.279114	0.002502
771.473725	0.002522
771.668318	0.002481
771.862893	0.002669
772.057450	0.002931
772.251988	0.003028
772.446509	0.002958
772.641011	0.002672
772.835494	0.002591
773.029960	0.002764
773.224407	0.002694
773.418836	0.002723
773.613247	0.002687
773.807640	0.002534
774.002014	0.002570
774.196370	0.002531
774.390708	0.002490
774.585028	0.002387
774.779330	0.002193
774.973613	0.002202
775.167878	0.002250
775.362125	0.002095
775.556354	0.002182
775.750564	0.002036
775.944756	0.002057
776.138930	0.002084
776.333086	0.002006
776.527223	0.002024
776.721343	0.001967
776.915444	0.001859
777.109526	0.002008
777.303591	0.001995
777.497637	0.002106
777.691666	0.002148
777.885676	0.002020
778.079667	0.002210
778.273641	0.002232
778.467596	0.002069
778.661533	0.001986
778.855452	0.001905
779.049352	0.001892
779.243235	0.001903
779.437099	0.001784
779.630945	0.002101
779.824773	0.002051
780.018582	0.002105
780.212373	0.002152
780.406146	0.002241
780.599901	0.002281
780.793638	0.002168
780.987356	0.002112
781.181056	0.002229
781.374738	0.002090
781.568402	0.002160
781.762047	0.002204
781.955674	0.002263
782.149283	0.002281
782.342874	0.002149
782.536447	0.002182
782.730001	0.002092
782.923537	0.001981
783.117055	0.002015
783.310555	0.001831
783.504036	0.001630
783.697499	0.001745
783.890944	0.001602
784.084371	0.001551
784.277780	0.001521
784.471170	0.001447
784.664542	0.001326
784.857896	0.001268
785.051231	0.001365
785.244549	0.001440
785.437848	0.001149
785.631129	0.001043
785.824392	0.001118
786.017636	0.001075
786.210863	0.001121
786.404071	0.001403
786.597260	0.001599
786.790432	0.001541
786.983585	0.001664
787.176721	0.001903
787.369838	0.001971
787.562936	0.001989
787.756017	0.002229
787.949079	0.002466
788.142123	0.002255
788.335149	0.002084
788.528156	0.002066
788.721146	0.001930
788.914117	0.001894
789.107070	0.001876
789.300005	0.001701
789.492921	0.001343
789.685819	0.001247
789.878699	0.001410
790.071561	0.001393
790.264405	0.001518
790.457230	0.001679
790.650037	0.001746
790.842826	0.001839
791.035597	0.002085
791.228349	0.002385
791.421084	0.002420
791.613800	0.002414
791.806497	0.002416
791.999177	0.002260
792.191838	0.002162
792.384481	0.002141
792.577106	0.002230
792.769713	0.002206
792.962301	0.002278
793.154871	0.002110
793.347423	0.001933
793.539957	0.001887
793.732473	0.001916
793.924970	0.001842
794.117449	0.001670
794.309910	0.001650
794.502353	0.001681
794.694777	0.001555
794.887183	0.001844
795.079571	0.001896
795.271941	0.002063
795.464293	0.002307
795.656626	0.002594
795.848941	0.002781
796.041238	0.002713
796.233516	0.002742
796.425777	0.002801
796.618019	0.002669
796.810243	0.002725
797.002449	0.002742
797.194636	0.002573
797.386805	0.002319
797.578956	0.002431
797.771089	0.002586
797.963204	0.002545
798.155300	0.002570
798.347378	0.002753
798.539438	0.002754
798.731480	0.002678
798.923503	0.002841
799.115509	0.002789
799.307496	0.002756
799.499465	0.002630
799.691415	0.002577
799.883348	0.002377
800.075262	0.002043
800.267158	0.002065
800.459035	0.001854
800.650895	0.001567
800.842736	0.001533
801.034559	0.001345
801.226364	0.001260
801.418150	0.001203
801.609919	0.001627
801.801669	0.001730
801.993401	0.001663
802.185114	0.001885
802.376810	0.002086
802.568487	0.002157
802.760146	0.002209
802.951787	0.002307
803.143409	0.002315
803.335014	0.001860
803.526600	0.001923
803.718168	0.001877
803.909717	0.001736
804.101249	0.001705
804.292762	0.001760
804.484257	0.001787
804.675734	0.001743
804.867192	0.001789
805.058632	0.001875
805.250054	0.001992
805.441458	0.001941
805.632844	0.002033
805.824211	0.002031
806.015561	0.001895
806.206891	0.001946
806.398204	0.001890
806.589499	0.001797
806.780775	0.001738
806.972033	0.001407
807.163273	0.001634
807.354495	0.001651
807.545698	0.001660
807.736883	0.001709
807.928050	0.001609
808.119199	0.001720
808.310329	0.001769
808.501441	0.001851
808.692535	0.002132
808.883611	0.002031
809.074669	0.001981
809.265708	0.001906
809.456729	0.001973
809.647732	0.002066
809.838717	0.002074
810.029683	0.002376
810.220632	0.002305
810.411562	0.002143
810.602474	0.002023
810.793367	0.001930
810.984242	0.002119
811.175100	0.002039
811.365938	0.001931
811.556759	0.002042
811.747562	0.001538
811.938346	0.001577
812.129112	0.001436
812.319860	0.001449
812.510589	0.001408
812.701300	0.000909
812.891994	0.000908
813.082668	0.001076
813.273325	0.000864
813.463964	0.001092
813.654584	0.001191
813.845186	0.001219
814.035769	0.001340
814.226335	0.001394
814.416882	0.001756
814.607411	0.001820
814.797922	0.001845
814.988415	0.002128
815.178889	0.002096
815.369345	0.002178
815.559783	0.002178
815.750203	0.002350
815.940605	0.002407
816.130988	0.002385
816.321353	0.002395
816.511700	0.002037
816.702028	0.001856
816.892339	0.001659
817.082631	0.001467
817.272905	0.001509
817.463161	0.001184
817.653398	0.001005
817.843617	0.001044
818.033819	0.001008
818.224001	0.001052
818.414166	0.000983
818.604312	0.001065
818.794440	0.001230
818.984550	0.001179
819.174642	0.001319
819.364716	0.001438
819.554771	0.001216
819.744808	0.001187
819.934827	0.001357
820.124827	0.001299
820.314810	0.001460
820.504774	0.001299
820.694720	0.001361
820.884647	0.001272
821.074557	0.001223
821.264448	0.001108
821.454321	0.001063
821.644176	0.000838
821.834012	0.000724
822.023831	0.000519
822.213631	0.000328
822.403413	0.000298
822.593176	0.000067
822.782922	-0.000134
822.972649	0.000038
823.162358	-0.000101
823.352049	-0.000146
823.541721	-0.000234
823.731376	-0.000186
823.921012	-0.000259
824.110629	-0.000616
824.300229	-0.000353
824.489811	-0.000131
824.679374	-0.000184
824.868919	-0.000014
825.058445	0.000203
825.247954	0.000221
825.437444	0.000160
825.626916	0.000437
825.816370	0.000828
826.005806	0.000725
826.195223	0.000559
826.384622	0.000616
826.574003	0.000431
826.763366	0.000220
826.952711	0.000367
827.142037	0.000220
827.331345	0.000162
827.520635	0.000149
827.709906	0.000068
827.899160	0.000145
828.088395	0.000008
828.277612	0.000145
828.466810	0.000205
828.655991	0.000180
828.845153	0.000454
829.034297	0.000492
829.223423	0.000365
829.412531	0.000295
829.601620	0.000402
829.790691	0.000449
829.979744	0.000296
830.168779	0.000246
830.357795	0.000215
830.546793	0.000019
830.735773	-0.000340
830.924735	-0.000413
831.113679	-0.000276
831.302604	-0.000358
831.491511	-0.000427
831.680400	-0.000535
831.869271	-0.000491
832.058123	-0.000545
832.246957	-0.000444
832.435773	-0.000109
832.624571	-0.000237
832.813351	-0.000571
833.002112	-0.000532
833.190855	-0.000394
833.379580	-0.000467
833.568287	-0.000630
833.756975	-0.000739
833.945645	-0.000894
834.134297	-0.001259
834.322931	-0.001185
834.511547	-0.001208
834.700144	-0.001524
834.888723	-0.001600
835.077284	-0.001575
835.265826	-0.001539
835.454351	-0.001731
835.642857	-0.001892
835.831345	-0.001748
836.019815	-0.001689
836.208266	-0.001466
836.396699	-0.001410
836.585114	-0.001350
836.773511	-0.001136
836.961890	-0.000908
837.150250	-0.000452
837.338592	-0.000132
837.526916	-0.000130
837.715222	-0.000285
837.903510	-0.000293
838.091779	-0.000289
838.280030	-0.000564
838.468263	-0.000587
838.656477	-0.000642
838.844674	-0.000846
839.032852	-0.000940
839.221012	-0.001028
839.409153	-0.000723
839.597277	-0.000782
839.785382	-0.000691
839.973469	-0.000577
840.161538	-0.000617
840.349589	-0.000752
840.537621	-0.000853
840.725635	-0.000920
840.913631	-0.000822
841.101609	-0.000951
841.289568	-0.000874
841.477509	-0.000852
841.665432	-0.000908
841.853337	-0.000934
842.041224	-0.001020
842.229092	-0.000810
842.416942	-0.000545
842.604774	-0.000620
842.792588	-0.000653
842.980383	-0.000461
843.168160	-0.000522
843.355919	-0.000213
843.543660	-0.000012
843.731382	0.000089
843.919087	0.000021
844.106773	-0.000119
844.294441	0.000059
844.482090	-0.000053
844.669722	-0.000160
844.857335	-0.000053
845.044930	-0.000208
845.232507	-0.000190
845.420065	-0.000014
845.607605	-0.000184
845.795127	-0.000368
845.982631	-0.000126
846.170117	0.000077
846.357584	-0.000083
846.545033	-0.000031
846.732464	-0.000093
846.919877	-0.000231
847.107272	-0.000198
847.294648	-0.000176
847.482006	-0.000161
847.669346	-0.000567
847.856667	-0.000464
848.043971	-0.000110
848.231256	-0.000161
848.418523	-0.000052
848.605771	0.000064
848.793002	-0.000055
848.980214	0.000110
849.167408	0.000472
849.354584	0.000639
849.541742	0.000476
849.728881	0.000288
849.916002	0.000367
850.103105	0.000268
850.290190	0.000229
850.477256	0.000375
850.664304	0.000286
850.851334	0.000178
851.038346	0.000105
851.225340	0.000334
851.412315	0.000426
851.599272	0.000298
851.786211	0.000469
851.973132	0.000451
852.160034	0.000337
852.346918	0.000361
852.533784	0.000156
852.720632	0.000121
852.907462	-0.000008
853.094273	0.000024
853.281066	0.000025
853.467841	-0.000267
853.654598	-0.000454
853.841336	-0.000530
854.028056	-0.000464
854.214758	-0.000365
854.401442	-0.000302
854.588107	-0.000147
854.774755	-0.000124
854.961384	0.000011
855.147995	0.000403
855.334587	0.000673
855.521162	0.000821
855.707718	0.000886
855.894256	0.001034
856.080775	0.001156
856.267277	0.000977
856.453760	0.000873
856.640225	0.000908
856.826672	0.000787
857.013101	0.000744
857.199511	0.000606
857.385903	0.000606
857.572277	0.000500
857.758633	0.000472
857.944970	0.000566
858.131290	0.000779
858.317591	0.000691
858.503873	0.000506
858.690138	0.000760
858.876384	0.000816
859.062612	0.000957
859.248822	0.000918
859.435014	0.000965
859.621188	0.000871
859.807343	0.000590
859.993480	0.000693
860.179599	0.001057
860.365699	0.000863
860.551781	0.000756
860.737846	0.000750
860.923891	0.000774
861.109919	0.000793
861.295929	0.000966
861.481920	0.001068
861.667893	0.001193
861.853848	0.001256
862.039784	0.001375
862.225702	0.001700
862.411603	0.001872
862.597484	0.001957
862.783348	0.002162
862.969193	0.002000
863.155021	0.002093
863.340830	0.001851
863.526620	0.001746
863.712393	0.001811
863.898147	0.001918
864.083883	0.001798
864.269601	0.001777
864.455301	0.001749
864.640982	0.001926
864.826645	0.001919
865.012290	0.002080
865.197917	0.002112
865.383526	0.002087
865.569116	0.001790
865.754688	0.001790
865.940242	0.001953
866.125777	0.001885
866.311295	0.001885
866.496794	0.002068
866.682275	0.002058
866.867737	0.001965
867.053182	0.001935
867.238608	0.002125
867.424016	0.002023
867.609406	0.001970
867.794778	0.001756
867.980131	0.001588
868.165466	0.001373
868.350783	0.001501
868.536082	0.001521
868.721362	0.001539
868.906625	0.001672
869.091869	0.001769
869.277094	0.001695
869.462302	0.001798
869.647491	0.002023
869.832662	0.001988
870.017815	0.001909
870.202950	0.002050
870.388066	0.001901
870.573165	0.001462
870.758245	0.001286
870.943306	0.001080
871.128350	0.001157
871.313375	0.001153
871.498382	0.001243
871.683371	0.001289
871.868342	0.000871
872.053294	0.001309
872.238229	0.001621
872.423144	0.001683
872.608042	0.002184
872.792922	0.002166
872.977783	0.002160
873.162626	0.002393
873.347451	0.002469
873.532258	0.002904
873.717046	0.002652
873.901816	0.002676
874.086568	0.002783
874.271302	0.002696
874.456017	0.002666
874.640715	0.002594
874.825394	0.002584
875.010055	0.002620
875.194697	0.002137
875.379322	0.002323
875.563928	0.002592
875.748516	0.002746
875.933085	0.002759
876.117637	0.003130
876.302170	0.003253
876.486685	0.003160
876.671182	0.003011
876.855661	0.003306
877.040121	0.003215
877.224563	0.002998
877.408987	0.002888
877.593393	0.002968
877.777780	0.002688
877.962150	0.002678
878.146501	0.002716
878.330833	0.002758
878.515148	0.002743
878.699444	0.002701
878.883722	0.002680
879.067982	0.002716
879.252224	0.002600
879.436447	0.002679
879.620653	0.002877
879.804840	0.002591
879.989008	0.002602
880.173159	0.002375
880.357291	0.002446
880.541405	0.002527
880.725501	0.002437
880.909579	0.002690
881.093638	0.002673
881.277680	0.002502
881.461703	0.002693
881.645707	0.002514
881.829694	0.002943
882.013662	0.002815
882.197612	0.002676
882.381544	0.002681
882.565458	0.002612
882.749353	0.002675
882.933230	0.002716
883.117089	0.002819
883.300930	0.003288
883.484753	0.003406
883.668557	0.003579
883.852343	0.003390
884.036111	0.003547
884.219861	0.003601
884.403592	0.003586
884.587305	0.003413
884.771000	0.003471
884.954677	0.003360
885.138335	0.003223
885.321976	0.003120
885.505598	0.003530
885.689201	0.003746
885.872787	0.003619
886.056354	0.003688
886.239904	0.003954
886.423434	0.004061
886.606947	0.003765
886.790442	0.003635
886.973918	0.003475
887.157376	0.003160
887.340816	0.002677
887.524237	0.002309
887.707641	0.001945
887.891026	0.001744
888.074393	0.001479
888.257741	0.001548
888.441072	0.001554
888.624384	0.001821
888.807678	0.001997
888.990954	0.002024
889.174211	0.002275
889.357451	0.002303
889.540672	0.002427
889.723875	0.002589
889.907059	0.002453
890.090226	0.002417
890.273374	0.002123
890.456504	0.001877
890.639616	0.002087
890.822709	0.001948
891.005785	0.002121
891.188842	0.001814
891.371881	0.001765
891.554901	0.001756
891.737904	0.001813
891.920888	0.001698
892.103854	0.002068
892.286802	0.001907
892.469731	0.001880
892.652643	0.001930
892.835536	0.002166
893.018410	0.002110
893.201267	0.002360
893.384106	0.002366
893.566926	0.002599
893.749728	0.002555
893.932511	0.002585
894.115277	0.002543
894.298024	0.002556
894.480753	0.002598
894.663464	0.002475
894.846157	0.002460
895.028831	0.002446
895.211487	0.002635
895.394125	0.002590
895.576745	0.002598
895.759346	0.002858
895.941930	0.002807
896.124495	0.002419
896.307041	0.002706
896.489570	0.002759
896.672080	0.003165
896.854573	0.002706
897.037046	0.002631
897.219502	0.002956
897.401940	0.002771
897.584359	0.002817
897.766760	0.003139
897.949143	0.003018
898.131507	0.002887
898.313854	0.002457
898.496182	0.002872
898.678492	0.003017
898.860783	0.002797
899.043057	0.002964
899.225312	0.002649
899.407549	0.002480
899.589768	0.002585
899.771968	0.002567
899.954151	0.002683
900.136315	0.002692
900.318461	0.002505
900.500588	0.002495
900.682698	0.002491
900.864789	0.002519
901.046862	0.002590
901.228917	0.002159
901.410953	0.002271
901.592971	0.002195
901.774972	0.002154
901.956953	0.002223
902.138917	0.002553
902.320862	0.002691
902.502790	0.002891
902.684699	0.003053
902.866589	0.003504
903.048462	0.003735
903.230316	0.004023
903.412152	0.004070
903.593970	0.003973
903.775770	0.003500
903.957551	0.003412
904.139314	0.003155
904.321059	0.003179
904.502786	0.002875
904.684494	0.002647
904.866185	0.002465
905.047857	0.002104
905.229510	0.002374
905.411146	0.002329
905.592763	0.002353
905.774363	0.002360
905.955943	0.002448
906.137506	0.002464
906.319051	0.002263
906.500577	0.002162
906.682085	0.002391
906.863575	0.002178
907.045046	0.002020
907.226500	0.001886
907.407935	0.002129
907.589352	0.001847
907.770750	0.002017
907.952131	0.002031
908.133493	0.002003
908.314837	0.001794
908.496163	0.001659
908.677470	0.001830
908.858760	0.001945
909.040031	0.001960
909.221284	0.001990
909.402518	0.001681
909.583735	0.001619
909.764933	0.001592
909.946113	0.001548
910.127275	0.001364
910.308418	0.001689
910.489544	0.001577
910.670651	0.001564
910.851740	0.001564
911.032810	0.001665
911.213863	0.001778
911.394897	0.001665
911.575913	0.001587
911.756911	0.001600
911.937890	0.001347
912.118851	0.001055
912.299794	0.001013
912.480719	0.000611
912.661626	0.000509
912.842514	0.000207
913.023384	-0.000032
913.204236	-0.000148
913.385070	0.000116
913.565886	-0.000038
913.746683	0.000072
913.927462	0.000067
914.108223	0.000392
914.288965	0.000057
914.469690	0.000023
914.650396	0.000119
914.831084	0.000680
915.011754	0.000490
915.192405	0.000363
915.373038	0.000280
915.553653	-0.000138
915.734250	-0.000548
915.914829	-0.000593
916.095389	-0.000448
916.275931	-0.000563
916.456455	-0.001113
916.636961	-0.001187
916.817448	-0.000922
916.997917	-0.001170
917.178368	-0.000897
917.358801	-0.000527
917.539216	-0.000346
917.719612	-0.000471
917.899990	-0.000302
918.080350	-0.000258
918.260692	-0.000155
918.441015	-0.000272
918.621320	-0.000470
918.801607	-0.000755
918.981876	-0.001066
919.162127	-0.001202
919.342359	-0.001341
919.522573	-0.001378
919.702769	-0.001293
919.882947	-0.001700
920.063106	-0.001688
920.243247	-0.001305
920.423370	-0.001579
920.603475	-0.001934
920.783562	-0.001914
920.963630	-0.001879
921.143680	-0.002136
921.323712	-0.002446
921.503725	-0.002650
921.683721	-0.003371
921.863698	-0.003766
922.043657	-0.003306
922.223598	-0.003176
922.403520	-0.003343
922.583424	-0.003588
922.763311	-0.003835
922.943178	-0.004338
923.123028	-0.003936
923.302859	-0.003277
923.482673	-0.003128
923.662467	-0.003366
923.842244	-0.003409
924.022003	-0.003341
924.201743	-0.003515
924.381465	-0.003222
924.561169	-0.002567
924.740854	-0.002941
924.920522	-0.003513
925.100171	-0.003961
925.279802	-0.003854
925.459414	-0.004207
925.639009	-0.004338
925.818585	-0.003882
925.998143	-0.004011
926.177683	-0.004476
926.357205	-0.004567
926.536708	-0.004813
926.716193	-0.004640
926.895660	-0.004531
927.075109	-0.004204
927.254539	-0.003932
927.433951	-0.004180
927.613345	-0.004435
927.792721	-0.004230
927.972079	-0.004722
928.151418	-0.004552
928.330739	-0.004876
928.510042	-0.005131
928.689327	-0.005350
928.868593	-0.006179
929.047841	-0.006753
929.227071	-0.006773
929.406283	-0.007376
929.585476	-0.006741
929.764652	-0.007067
929.943809	-0.006790
930.122948	-0.007181
930.302068	-0.007451
930.481171	-0.007475
930.660255	-0.006847
930.839321	-0.006930
931.018369	-0.007039
931.197398	-0.007277
931.376409	-0.007245
931.555402	-0.007714
931.734377	-0.008260
931.913334	-0.007999
932.092272	-0.007559
932.271192	-0.007970
932.450094	-0.008313
932.628978	-0.008361
932.807844	-0.008466
932.986691	-0.008662
933.165520	-0.008297
933.344331	-0.008518
933.523123	-0.009143
933.701898	-0.009070
933.880654	-0.009155
934.059392	-0.009426
934.238111	-0.009167
934.416813	-0.009189
934.595496	-0.009674
934.774161	-0.009648
934.952808	-0.009172
935.131437	-0.009354
935.310047	-0.009653
935.488639	-0.009635
935.667213	-0.009203
935.845769	-0.009604
936.024306	-0.010487
936.202825	-0.009738
936.381326	-0.010482
936.559809	-0.010664
936.738274	-0.009890
936.916720	-0.010931
937.095148	-0.011096
937.273558	-0.011322
937.451950	-0.011033
937.630323	-0.010906
937.808678	-0.011481
937.987015	-0.011423
938.165334	-0.011802
938.343635	-0.012591
938.521917	-0.011874
938.700181	-0.012779
938.878427	-0.013519
939.056655	-0.014625
939.234864	-0.014828
939.413055	-0.014891
939.591228	-0.015114
939.769383	-0.014758
939.947519	-0.015144
940.125638	-0.015573
940.303738	-0.014686
940.481820	-0.013672
940.659883	-0.013392
940.837929	-0.013401
941.015956	-0.013568
941.193965	-0.014074
941.371955	-0.013735
941.549928	-0.012788
941.727882	-0.012135
941.905818	-0.013277
942.083736	-0.014110
942.261636	-0.013898
942.439517	-0.013372
942.617380	-0.013398
942.795225	-0.012963
942.973052	-0.013980
943.150860	-0.014454
943.328651	-0.016389
943.506423	-0.015538
943.684176	-0.015387
943.861912	-0.014746
944.039629	-0.014936
944.217328	-0.015101
944.395009	-0.015246
944.572672	-0.015304
944.750317	-0.015534
944.927943	-0.014605
945.105551	-0.015585
945.283141	-0.015978
945.460712	-0.017067
945.638265	-0.017347
945.815801	-0.016891
945.993317	-0.015700
946.170816	-0.015017
946.348297	-0.015155
946.525759	-0.015440
946.703203	-0.014977
946.880629	-0.014867
947.058036	-0.014926
947.235425	-0.014983
947.412797	-0.015871
947.590149	-0.016877
947.767484	-0.016906
947.944800	-0.015776
948.122099	-0.014808
948.299379	-0.014188
948.476640	-0.014172
948.653884	-0.013751
948.831109	-0.014374
949.008316	-0.014123
949.185505	-0.013726
949.362676	-0.014428
949.539828	-0.014956
949.716962	-0.015228
949.894078	-0.015568
950.071176	-0.015645
950.248256	-0.014705
950.425317	-0.013983
950.602360	-0.012900
950.779385	-0.013568
950.956391	-0.013232
951.133380	-0.013084
951.310350	-0.013208
951.487302	-0.013326
951.664235	-0.011958
951.841151	-0.011675
952.018048	-0.011526
952.194927	-0.011838
952.371788	-0.011219
952.548631	-0.010545
952.725455	-0.011724
952.902261	-0.011150
953.079049	-0.010362
953.255819	-0.011137
953.432570	-0.011604
953.609303	-0.012107
953.786018	-0.012173
953.962715	-0.010917
954.139394	-0.010202
954.316054	-0.007741
954.492696	-0.007763
954.669320	-0.007040
954.845926	-0.006459
955.022513	-0.005733
955.199083	-0.003595
955.375634	-0.003743
955.552166	-0.004277
955.728681	-0.004502
955.905177	-0.006068
956.081655	-0.004669
956.258115	-0.004594
956.434557	-0.004099
956.610980	-0.003741
956.787385	-0.003086
956.963772	-0.002737
957.140141	-0.004038
957.316492	-0.004823
957.492824	-0.003434
957.669138	-0.003572
957.845434	-0.003982
958.021712	-0.004716
958.197971	-0.004671
958.374212	-0.006403
958.550435	-0.005253
958.726640	-0.004100
958.902826	-0.003510
959.078995	-0.003604
959.255145	-0.004758
959.431277	-0.005383
959.607390	-0.004368
959.783486	-0.004531
959.959563	-0.002270
960.135622	-0.001265
960.311662	-0.001602
960.487685	-0.001137
960.663689	-0.001797
960.839675	-0.000404
961.015643	-0.000472
961.191593	-0.000160
961.367524	-0.000474
961.543437	-0.000540
961.719332	-0.000604
961.895209	0.001301
962.071067	0.001552
962.246907	0.002379
962.422730	0.001947
962.598533	0.004012
962.774319	0.003707
962.950086	0.004262
963.125835	0.005257
963.301566	0.003351
963.477279	0.003862
963.652973	0.004878
963.828650	0.005291
964.004308	0.006425
964.179947	0.005142
964.355569	0.003504
964.531172	0.003454
964.706757	0.001839
964.882324	0.002298
965.057873	0.001035
965.233403	0.000108
965.408916	0.000632
965.584410	-0.000258
965.759885	0.001296
965.935343	0.005096
966.110782	0.004699
966.286203	0.004828
966.461606	0.005502
966.636991	0.006230
966.812357	0.006840
966.987705	0.005588
967.163035	0.006983
967.338347	0.006615
967.513641	0.004582
967.688916	0.005585
967.864173	0.005190
968.039412	0.006258
968.214632	0.007940
968.389835	0.007445
968.565019	0.008712
968.740185	0.007882
968.915333	0.008171
969.090462	0.009177
969.265573	0.010127
969.440667	0.010642
969.615741	0.011152
969.790798	0.010243
969.965836	0.011193
970.140856	0.012058
970.315858	0.013546
970.490842	0.012411
970.665808	0.012117
970.840755	0.010129
971.015684	0.009297
971.190595	0.008308
971.365487	0.010396
971.540362	0.010188
971.715218	0.007700
971.890056	0.007203
972.064875	0.008992
972.239677	0.007234
972.414460	0.006798
972.589225	0.007292
972.763972	0.005736
972.938700	0.000912
973.113411	0.001296
973.288103	0.004043
973.462777	0.002868
973.637432	0.001820
973.812070	0.004161
973.986689	0.005892
974.161290	0.005218
974.335873	0.006347
974.510437	0.008291
974.684984	0.008531
974.859512	0.007893
975.034022	0.009007
975.208513	0.008392
975.382987	0.008413
975.557442	0.007668
975.731879	0.008917
975.906298	0.009556
976.080698	0.010994
976.255080	0.009601
976.429445	0.008695
976.603790	0.008774
976.778118	0.008900
976.952427	0.007548
977.126719	0.007779
977.300992	0.007746
977.475246	0.007530
977.649483	0.007911
977.823701	0.007021
977.997901	0.008330
978.172083	0.008163
978.346247	0.008564
978.520392	0.009647
978.694519	0.010940
978.868628	0.012011
979.042719	0.013844
979.216791	0.012683
979.390845	0.014625
979.564882	0.014129
979.738899	0.014594
979.912899	0.015560
980.086880	0.016344
980.260843	0.016442
980.434788	0.014397
980.608715	0.012710
980.782623	0.012782
980.956514	0.012626
981.130386	0.011363
981.304240	0.010218
981.478075	0.009714
981.651892	0.009699
981.825692	0.009210
981.999472	0.009183
982.173235	0.011319
982.346980	0.009958
982.520706	0.010792
982.694414	0.010772
982.868104	0.009236
983.041775	0.007063
983.215428	0.006820
983.389064	0.004950
983.562680	0.004279
983.736279	0.002539
983.909860	0.003784
984.083422	0.003351
984.256966	0.005056
984.430491	0.007230
984.603999	0.009386
984.777488	0.009101
984.950959	0.009583
985.124412	0.010591
985.297847	0.010500
985.471263	0.010367
985.644661	0.010995
985.818041	0.009144
985.991403	0.008367
986.164747	0.008825
986.338072	0.008754
986.511379	0.010948
986.684668	0.011572
986.857938	0.011416
987.031191	0.011836
987.204425	0.011617
987.377641	0.011861
987.550839	0.011879
987.724018	0.009251
987.897179	0.007726
988.070322	0.006412
988.243447	0.005248
988.416554	0.004402
988.589642	0.005172
988.762712	0.003905
988.935764	0.003623
989.108798	0.005045
989.281813	0.007242
989.454811	0.009435
989.627790	0.009659
989.800751	0.011321
989.973693	0.012017
990.146617	0.010463
990.319524	0.011364
990.492412	0.011646
990.665281	0.011323
990.838133	0.011029
991.010966	0.010042
991.183781	0.008641
991.356578	0.008876
991.529356	0.008191
991.702117	0.007146
991.874859	0.007532
992.047583	0.007080
992.220288	0.006869
992.392976	0.005911
992.565645	0.006516
992.738296	0.008613
992.910929	0.007623
993.083543	0.008388
993.256139	0.010066
993.428718	0.010490
993.601277	0.011369
993.773819	0.010052
993.946342	0.010759
994.118848	0.010182
994.291335	0.009277
994.463803	0.009244
994.636254	0.008739
994.808686	0.007170
994.981100	0.004519
995.153496	0.004517
995.325874	0.006302
995.498233	0.004897
995.670574	0.004175
995.842897	0.004470
996.015202	0.003315
996.187488	0.003692
996.359757	0.004346
996.532007	0.003565
996.704239	0.003478
996.876452	0.001968
997.048648	0.002626
997.220825	0.003130
997.392984	0.001848
997.565124	0.002691
997.737247	0.002682
997.909351	0.003019
998.081437	0.005774
998.253505	0.006475
998.425554	0.006510
998.597586	0.006842
998.769599	0.005741
998.941594	0.007252
999.113571	0.007395
999.285529	0.007307
999.457469	0.007799
999.629391	0.006416
999.801295	0.005687
999.973181	0.005838
1000.145048	0.005818
1000.316897	0.007253
1000.488728	0.006253
1000.660541	0.006499
1000.832335	0.007154
1001.004111	0.007814
1001.175869	0.009218
1001.347609	0.009656
1001.519331	0.010199
1001.691034	0.009736
1001.862719	0.007447
1002.034386	0.007539
1002.206035	0.006274
1002.377665	0.005763
1002.549277	0.004484
1002.720871	0.002308
1002.892447	0.003049
1003.064004	0.003378
1003.235544	0.004653
1003.407065	0.006595
1003.578568	0.006563
1003.750052	0.006346
1003.921519	0.006483
1004.092967	0.006607
1004.264397	0.008089
1004.435809	0.006172
1004.607202	0.006013
1004.778577	0.005216
1004.949934	0.005855
1005.121273	0.005725
1005.292594	0.006230
1005.463896	0.005156
1005.635180	0.005817
1005.806446	0.006262
1005.977694	0.006795
1006.148923	0.005877
1006.320135	0.006823
1006.491328	0.005940
1006.662503	0.005947
1006.833659	0.005581
1007.004798	0.006584
1007.175918	0.005744
1007.347020	0.005398
1007.518103	0.006680
1007.689169	0.005093
1007.860216	0.004833
1008.031245	0.004404
1008.202256	0.003815
1008.373248	0.005123
1008.544223	0.005685
1008.715179	0.005274
1008.886117	0.005749
1009.057036	0.003777
1009.227938	0.005985
1009.398821	0.005157
1009.569686	0.004947
1009.740533	0.004940
1009.911361	0.004261
1010.082172	0.003222
1010.252964	0.003029
1010.423738	0.001596
1010.594493	0.001871
1010.765231	0.000214
1010.935950	-0.000263
1011.106651	0.000330
1011.277334	0.000376
1011.447998	0.000039
1011.618645	0.000080
1011.789273	0.000675
1011.959882	0.002566
1012.130474	0.003923
1012.301048	0.004605
1012.471603	0.005029
1012.642140	0.006710
1012.812658	0.007303
1012.983159	0.009069
1013.153641	0.009236
1013.324105	0.008944
1013.494551	0.009190
1013.664979	0.009549
1013.835388	0.010875
1014.005779	0.011965
1014.176152	0.009478
1014.346507	0.009656
1014.516843	0.009114
1014.687162	0.008976
1014.857462	0.009386
1015.027744	0.006182
1015.198007	0.004480
1015.368252	0.004415
1015.538480	0.002815
1015.708689	0.002668
1015.878879	0.001540
1016.049052	0.001879
1016.219206	0.002373
1016.389342	0.001399
1016.559460	0.002636
1016.729559	0.002362
1016.899641	0.001617
1017.069704	0.000948
1017.239749	0.001752
1017.409775	0.002347
1017.579784	0.001835
1017.749774	0.001203
1017.919746	0.002119
1018.089700	0.002314
1018.259635	0.003927
1018.429553	0.003284
1018.599452	0.005319
1018.769333	0.005541
1018.939195	0.005515
1019.109040	0.005679
1019.278866	0.005118
1019.448674	0.005100
1019.618464	0.005461
1019.788235	0.005687
1019.957989	0.006688
1020.127724	0.005463
1020.297441	0.006344
1020.467139	0.005253
1020.636820	0.005307
1020.806482	0.006775
1020.976126	0.005737
1021.145752	0.003703
1021.315359	0.002547
1021.484948	0.001619
1021.654519	0.000671
1021.824072	0.000831
1021.993607	0.001541
1022.163123	-0.000059
1022.332621	-0.000838
1022.502101	-0.000893
1022.671563	0.000790
1022.841007	0.000273
1023.010432	-0.000536
1023.179839	0.001145
1023.349228	0.000110
1023.518598	-0.000461
1023.687951	0.000265
1023.857285	-0.000899
1024.026601	0.000012
1024.195899	-0.000458
1024.365178	0.001080
1024.534439	0.003811
1024.703682	0.004938
1024.872907	0.004260
1025.042114	0.005723
1025.211302	0.006529
1025.380472	0.008111
1025.549624	0.008751
1025.718758	0.009094
1025.887873	0.007694
1026.056970	0.006948
1026.226049	0.005338
1026.395110	0.004796
1026.564153	0.004158
1026.733177	0.002578
1026.902183	0.001853
1027.071171	0.000214
1027.240141	0.000725
1027.409092	0.001383
1027.578026	-0.000138
1027.746940	0.000160
1027.915837	0.000410
1028.084716	0.000915
1028.253576	0.001995
1028.422418	0.003164
1028.591242	0.003165
1028.760048	0.002898
1028.928835	0.002108
1029.097604	0.001228
1029.266355	0.001482
1029.435088	0.002820
1029.603803	0.003504
1029.772499	0.003662
1029.941177	0.003529
1030.109837	0.003999
1030.278478	0.002300
1030.447102	0.002174
1030.615707	0.003704
1030.784294	0.004712
1030.952863	0.005154
1031.121413	0.003042
1031.289945	0.001934
1031.458460	0.001047
1031.626955	0.001026
1031.795433	0.001112
1031.963892	0.001445
1032.132334	0.002579
1032.300756	0.001575
1032.469161	0.000403
1032.637548	0.001172
1032.805916	0.001821
1032.974266	0.001055
1033.142598	0.001901
1033.310911	0.002105
1033.479207	0.001642
1033.647484	-0.000579
1033.815743	-0.000707
1033.983983	-0.001060
1034.152206	-0.001594
1034.320410	-0.001896
1034.488596	-0.001843
1034.656764	-0.001774
1034.824914	-0.001385
1034.993045	-0.001892
1035.161158	-0.001190
1035.329253	-0.002146
1035.497330	-0.001673
1035.665388	-0.000788
1035.833428	-0.000643
1036.001450	-0.001412
1036.169454	-0.003230
1036.337440	-0.002328
1036.505407	-0.001335
1036.673356	-0.000954
1036.841287	-0.000897
1037.009200	-0.002113
1037.177094	-0.002876
1037.344970	-0.002959
1037.512828	-0.001165
1037.680668	0.000938
1037.848489	0.000280
1038.016293	0.000909
1038.184078	-0.000828
1038.351845	0.000612
1038.519593	0.001012
1038.687324	0.002766
1038.855036	0.001762
1039.022730	0.001027
1039.190406	-0.000683
1039.358063	-0.000062
1039.525702	0.000502
1039.693323	0.003890
1039.860926	0.002068
1040.028511	0.002359
1040.196077	0.000728
1040.363625	0.002259
1040.531155	0.001385
1040.698667	0.002121
1040.866161	0.001272
1041.033636	-0.001458
1041.201093	-0.003165
1041.368532	-0.003471
1041.535952	-0.004553
1041.703355	-0.004514
1041.870739	-0.005518
1042.038105	-0.004835
1042.205452	-0.004225
1042.372782	-0.004092
1042.540093	-0.003264
1042.707386	-0.002840
1042.874661	-0.003198
1043.041918	-0.002646
1043.209156	-0.002289
1043.376376	-0.001515
1043.543578	-0.001932
1043.710762	-0.002473
1043.877927	-0.002186
1044.045074	-0.001071
1044.212203	-0.000990
1044.379314	0.001604
1044.546407	0.001853
1044.713481	0.001185
1044.880537	0.001198
1045.047575	0.002899
1045.214595	0.001180
1045.381596	0.001021
1045.548579	-0.000995
1045.715544	-0.002478
1045.882491	-0.004442
1046.049420	-0.003737
1046.216330	-0.003240
1046.383222	-0.004318
1046.550096	-0.005507
1046.716951	-0.004510
1046.883789	-0.004183
1047.050608	-0.001264
1047.217409	0.000352
1047.384192	0.000115
1047.550956	-0.000474
1047.717703	-0.000552
1047.884431	0.001062
1048.051140	0.001543
1048.217832	0.001132
1048.384505	0.000853
1048.551161	-0.000314
1048.717798	-0.000002
1048.884416	0.000492
1049.051017	0.000966
1049.217599	0.000990
1049.384163	0.001017
1049.550709	0.000675
1049.717237	0.001483
1049.883746	0.001702
1050.050237	0.002049
1050.216710	0.001218
1050.383165	0.003088
1050.549601	0.002131
1050.716019	0.002249
1050.882420	0.000778
1051.048801	-0.000427
1051.215165	0.000192
1051.381510	-0.001024
1051.547837	-0.002204
1051.714146	-0.002856
1051.880437	-0.004163
1052.046709	-0.002427
1052.212964	-0.002047
1052.379200	-0.001832
1052.545417	-0.001649
1052.711617	-0.003091
1052.877798	-0.002631
1053.043961	-0.002966
1053.210106	-0.003047
1053.376233	-0.002514
1053.542341	-0.003615
1053.708432	-0.004294
1053.874504	-0.002884
1054.040557	-0.001763
1054.206593	-0.000644
1054.372610	0.000908
1054.538609	0.002051
1054.704590	0.001634
1054.870553	0.001782
1055.036497	0.002569
1055.202424	0.003848
1055.368331	0.003047
1055.534221	0.002032
1055.700093	0.002341
1055.865946	0.000652
1056.031781	0.001171
1056.197598	0.002165
1056.363397	0.002285
1056.529177	0.000287
1056.694939	-0.000882
1056.860683	0.000185
1057.026409	0.000457
1057.192116	-0.000345
1057.357806	-0.001044
1057.523477	-0.001115
1057.689130	0.000049
1057.854764	0.000750
1058.020381	0.001422
1058.185979	0.002252
1058.351559	0.000949
1058.517120	0.001557
1058.682664	0.000252
1058.848189	0.002129
1059.013696	0.002357
1059.179185	0.000636
1059.344656	-0.002754
1059.510108	-0.002034
1059.675542	-0.001193
1059.840958	-0.001028
1060.006356	-0.000664
1060.171735	0.000981
1060.337096	-0.000297
1060.502439	-0.002404
1060.667764	-0.002368
1060.833071	-0.001063
1060.998359	-0.001936
1061.163629	-0.002814
1061.328881	-0.003352
1061.494115	-0.003061
1061.659330	-0.002734
1061.824527	-0.003018
1061.989706	-0.002895
1062.154867	-0.002708
1062.320010	-0.002792
1062.485134	-0.002945
1062.650240	-0.003419
1062.815328	-0.002132
1062.980398	-0.003215
1063.145449	-0.004020
1063.310482	-0.003774
1063.475497	-0.004069
1063.640494	-0.004433
1063.805473	-0.004850
1063.970433	-0.001869
1064.135375	-0.002976
1064.300299	-0.003778
1064.465204	-0.002523
1064.630092	-0.002352
1064.794961	-0.000568
1064.959812	-0.000543
1065.124645	-0.001156
1065.289459	-0.001480
1065.454256	-0.003289
1065.619034	-0.003081
1065.783793	-0.002260
1065.948535	-0.003268
1066.113258	-0.003110
1066.277964	-0.005040
1066.442651	-0.004752
1066.607319	-0.003439
1066.771970	-0.002337
1066.936602	-0.003430
1067.101216	-0.002740
1067.265812	-0.003676
1067.430389	-0.003369
1067.594949	-0.003373
1067.759490	-0.002510
1067.924013	-0.002037
1068.088518	-0.003455
1068.253004	-0.003208
1068.417472	-0.002053
1068.581922	-0.001084
1068.746354	-0.001452
1068.910768	-0.001689
1069.075163	-0.003297
1069.239540	-0.004281
1069.403899	-0.004307
1069.568240	-0.002196
1069.732562	-0.003457
1069.896866	-0.004310
1070.061152	-0.005638
1070.225420	-0.004613
1070.389670	-0.004439
1070.553901	-0.002676
1070.718114	-0.003063
1070.882309	-0.001894
1071.046486	-0.003827
1071.210644	-0.002254
1071.374784	-0.001710
1071.538906	-0.002323
1071.703010	-0.001741
1071.867096	-0.000808
1072.031163	-0.001148
1072.195212	-0.000009
1072.359243	-0.001141
1072.523256	-0.002256
1072.687250	-0.002173
1072.851226	-0.001993
1073.015184	-0.001382
1073.179124	-0.002118
1073.343045	-0.003129
1073.506949	-0.003058
1073.670834	-0.003197
1073.834701	-0.002045
1073.998549	-0.000588
1074.162380	-0.003026
1074.326192	-0.001889
1074.489986	-0.001241
1074.653761	-0.000712
1074.817519	-0.000861
1074.981258	-0.002750
1075.144979	-0.001751
1075.308682	-0.003611
1075.472367	-0.004444
1075.636033	-0.003127
1075.799681	-0.002643
1075.963311	-0.003279
1076.126923	-0.006171
1076.290516	-0.007486
1076.454092	-0.004861
1076.617649	-0.005890
1076.781187	-0.002976
1076.944708	-0.001260
1077.108210	-0.001589
1077.271695	-0.002806
1077.435160	-0.002761
1077.598608	-0.002368
1077.762038	-0.002522
1077.925449	-0.003853
1078.088842	-0.004716
1078.252217	-0.006820
1078.415573	-0.007495
1078.578912	-0.005546
1078.742232	-0.007466
1078.905534	-0.007672
1079.068817	-0.005429
1079.232083	-0.002977
1079.395330	-0.000764
1079.558559	0.001141
1079.721770	0.001041
1079.884962	-0.000956
1080.048136	-0.000715
1080.211293	-0.000875
1080.374430	-0.003447
1080.537550	-0.005235
1080.700651	-0.006776
1080.863735	-0.007682
1081.026800	-0.006347
1081.189846	-0.005539
1081.352875	-0.001472
1081.515885	-0.003812
1081.678877	-0.001401
1081.841851	0.002183
1082.004807	0.002028
1082.167744	0.002010
1082.330663	0.001356
1082.493564	-0.000848
1082.656447	-0.002594
1082.819312	-0.004529
1082.982158	-0.002363
1083.144986	-0.005093
1083.307796	-0.007260
1083.470587	-0.005844
1083.633361	-0.003456
1083.796116	-0.004495
1083.958853	-0.005458
1084.121571	-0.005471
1084.284272	-0.004238
1084.446954	-0.006309
1084.609618	-0.006503
1084.772264	-0.004764
1084.934892	-0.003352
1085.097501	-0.005217
1085.260092	-0.004888
1085.422665	-0.003620
1085.585220	-0.003125
1085.747756	-0.003480
1085.910274	-0.003891
1086.072774	-0.002627
1086.235256	-0.003467
1086.397720	-0.004651
1086.560165	-0.003777
1086.722592	-0.004025
1086.885001	-0.004451
1087.047392	-0.004898
1087.209764	-0.004912
1087.372119	-0.002814
1087.534455	-0.003246
1087.696772	-0.002303
1087.859072	-0.001381
1088.021353	-0.003766
1088.183616	-0.003180
1088.345861	-0.003632
1088.508088	-0.002611
1088.670296	-0.003825
1088.832486	-0.004548
1088.994658	-0.005237
1089.156812	-0.004753
1089.318948	-0.007672
1089.481065	-0.004289
1089.643164	-0.005048
1089.805245	-0.002736
1089.967308	-0.000622
1090.129352	-0.000187
1090.291378	0.000214
1090.453386	0.002952
1090.615376	-0.000216
1090.777347	-0.000004
1090.939301	-0.002611
1091.101236	-0.001103
1091.263153	-0.002629
1091.425051	-0.003489
1091.586932	-0.001788
1091.748794	-0.004183
1091.910638	-0.004675
1092.072463	-0.003661
1092.234271	-0.000971
1092.396060	0.000281
1092.557831	-0.000467
1092.719584	-0.001255
1092.881319	-0.004811
1093.043035	-0.006089
1093.204733	-0.003642
1093.366413	-0.003502
1093.528075	-0.001917
1093.689718	-0.006027
1093.851343	-0.007930
1094.012950	-0.008933
1094.174539	-0.009489
1094.336110	-0.007291
1094.497662	-0.007729
1094.659196	-0.008271
1094.820712	-0.008788
1094.982210	-0.008623
1095.143689	-0.008864
1095.305151	-0.005543
1095.466594	-0.004628
1095.628018	-0.004418
1095.789425	-0.003950
1095.950813	-0.005296
1096.112183	-0.004955
1096.273535	-0.005114
1096.434869	-0.004847
1096.596184	-0.002620
1096.757482	-0.004479
1096.918761	-0.003020
1097.080021	-0.003154
1097.241264	-0.005663
1097.402488	-0.002001
1097.563694	-0.001193
1097.724882	-0.002187
1097.886052	-0.003594
1098.047203	-0.005104
1098.208336	-0.005791
1098.369451	-0.007742
1098.530548	-0.007314
1098.691627	-0.006294
1098.852687	-0.012532
1099.013729	-0.014473
1099.174753	-0.013155
1099.335758	-0.011730
1099.496746	-0.010877
1099.657715	-0.012339
1099.818666	-0.010314
1099.979599	-0.009684
1100.140513	-0.010858
1100.301409	-0.007346
1100.462287	-0.005668
1100.623147	-0.006543
1100.783989	-0.006968
1100.944812	-0.005913
1101.105617	-0.006673
1101.266404	-0.008505
1101.427173	-0.008559
1101.587923	-0.004822
1101.748656	-0.005092
1101.909370	-0.005420
1102.070066	-0.005933
1102.230743	-0.007798
1102.391403	-0.007744
1102.552044	-0.003265
1102.712667	-0.004521
1102.873271	-0.002798
1103.033858	-0.001758
1103.194426	-0.000266
1103.354976	-0.000492
1103.515508	-0.000425
1103.676021	-0.000348
1103.836517	-0.003374
1103.996994	-0.003410
1104.157453	-0.001159
1104.317893	-0.001193
1104.478316	-0.005110
1104.638720	-0.005215
1104.799106	-0.006050
1104.959474	-0.007535
1105.119823	-0.004421
1105.280155	-0.000502
1105.440468	-0.002505
1105.600763	-0.007230
1105.761039	-0.008801
1105.921298	-0.010175
1106.081538	-0.009893
1106.241760	-0.010785
1106.401964	-0.009575
1106.562149	-0.013172
1106.722316	-0.015760
1106.882465	-0.013430
1107.042596	-0.011380
1107.202709	-0.014734
1107.362803	-0.010101
1107.522879	-0.011913
1107.682937	-0.010690
1107.842977	-0.011677
1108.002999	-0.007760
1108.163002	-0.006974
1108.322987	-0.007201
1108.482954	-0.006854
1108.642902	-0.005900
1108.802833	-0.009213
1108.962745	-0.011162
1109.122639	-0.011236
1109.282515	-0.010327
1109.442372	-0.015033
1109.602211	-0.012246
1109.762032	-0.012398
1109.921835	-0.007595
1110.081620	-0.006105
1110.241386	-0.006114
1110.401134	-0.005188
1110.560864	-0.006260
1110.720576	-0.006416
1110.880269	-0.005248
1111.039945	-0.007451
1111.199602	-0.010050
1111.359240	-0.015189
1111.518861	-0.011942
1111.678463	-0.008464
1111.838047	-0.004094
1111.997613	-0.002621
1112.157161	-0.004331
1112.316690	-0.003132
1112.476202	-0.003344
1112.635695	-0.002594
1112.795169	-0.001540
1112.954626	0.000247
1113.114064	-0.000436
1113.273484	0.000141
1113.432886	0.001870
1113.592270	0.004555
1113.751635	0.002120
1113.910983	0.003465
1114.070312	0.002038
1114.229622	0.002242
1114.388915	-0.000147
1114.548189	-0.002608
1114.707445	-0.003687
1114.866683	-0.007010
1115.025903	-0.005265
1115.185104	-0.001246
1115.344287	-0.004718
1115.503452	-0.002969
1115.662599	-0.003809
1115.821727	-0.003081
1115.980838	-0.001122
1116.139930	-0.000302
1116.299004	0.002375
1116.458059	0.000655
1116.617097	0.000995
1116.776116	0.002713
1116.935117	0.000756
1117.094099	0.004076
1117.253064	-0.001479
1117.412010	-0.005206
1117.570938	-0.010244
1117.729848	-0.010989
1117.888740	-0.009421
1118.047613	-0.012495
1118.206468	-0.012125
1118.365305	-0.008914
1118.524124	-0.010228
1118.682924	-0.008188
1118.841707	-0.007745
1119.000471	-0.006067
1119.159216	-0.007724
1119.317944	-0.011806
1119.476653	-0.014752
1119.635344	-0.020754
1119.794017	-0.021439
1119.952672	-0.020900
1120.111308	-0.018099
1120.269927	-0.014461
1120.428527	-0.016929
1120.587108	-0.014934
1120.745672	-0.012605
1120.904217	-0.009030
1121.062744	-0.003564
1121.221253	-0.004235
1121.379744	-0.004966
1121.538216	-0.009240
1121.696671	-0.011971
1121.855107	-0.013003
1122.013524	-0.014553
1122.171924	-0.014859
1122.330305	-0.016443
1122.488668	-0.014150
1122.647013	-0.014717
1122.805340	-0.014479
1122.963648	-0.010828
1123.121938	-0.005391
1123.280210	-0.001333
1123.438464	-0.002503
1123.596700	-0.003585
1123.754917	-0.000175
1123.913116	-0.000079
1124.071297	0.004478
1124.229459	0.002066
1124.387604	0.000136
1124.545730	-0.004953
1124.703838	-0.004107
1124.861928	-0.002026
1125.019999	-0.000533
1125.178052	-0.002835
1125.336088	-0.005289
1125.494104	-0.010016
1125.652103	-0.011910
1125.810083	-0.013568
1125.968045	-0.013470
1126.125989	-0.014029
1126.283915	-0.011818
1126.441823	-0.012762
1126.599712	-0.012395
1126.757583	-0.011749
1126.915436	-0.013591
1127.073270	-0.008231
1127.231087	-0.006613
1127.388885	-0.005373
1127.546665	-0.006293
1127.704426	-0.010569
1127.862170	-0.011394
1128.019895	-0.009886
1128.177602	-0.008736
1128.335291	-0.003611
1128.492961	-0.006477
1128.650614	-0.004680
1128.808248	-0.003564
1128.965864	-0.004229
1129.123461	-0.005836
1129.281041	-0.003342
1129.438602	-0.002824
1129.596145	-0.004939
1129.753670	-0.004618
1129.911176	-0.005699
1130.068665	-0.007385
1130.226135	-0.010112
1130.383587	-0.009855
1130.541020	-0.008390
1130.698436	-0.014225
1130.855833	-0.014721
1131.013212	-0.010092
1131.170573	-0.013785
1131.327915	-0.011702
1131.485239	-0.007680
1131.642545	-0.007537
1131.799833	-0.005453
1131.957103	-0.000319
1132.114354	0.003694
1132.271588	0.002247
1132.428803	-0.005971
1132.585999	-0.005808
1132.743178	-0.006910
1132.900338	-0.007722
1133.057480	-0.006880
1133.214604	-0.005499
1133.371710	-0.012468
1133.528797	-0.008595
1133.685866	-0.007465
1133.842917	-0.004050
1133.999950	-0.001885
1134.156964	-0.004242
1134.313960	-0.008144
1134.470938	-0.006496
1134.627898	-0.013561
1134.784840	-0.010658
1134.941763	-0.014348
1135.098668	-0.012895
1135.255555	-0.013903
1135.412424	-0.010374
1135.569274	-0.006728
1135.726107	-0.011539
1135.882921	-0.012597
1136.039716	-0.005127
1136.196494	-0.003351
1136.353253	-0.004727
1136.509995	-0.011335
1136.666717	-0.010832
1136.823422	-0.017106
1136.980109	-0.017642
1137.136777	-0.015010
1137.293427	-0.019572
1137.450059	-0.018043
1137.606672	-0.017549
1137.763267	-0.015246
1137.919844	-0.007385
1138.076403	-0.010356
1138.232944	-0.009724
1138.389466	-0.010428
1138.545971	-0.009414
1138.702457	-0.005704
1138.858924	-0.012247
1139.015374	-0.013895
1139.171805	-0.013544
1139.328218	-0.017207
1139.484613	-0.009235
1139.640990	-0.009592
1139.797348	-0.010483
1139.953688	-0.011625
1140.110010	-0.013479
1140.266314	-0.012666
1140.422600	-0.010492
1140.578867	-0.011699
1140.735116	-0.017567
1140.891347	-0.017682
1141.047559	-0.015231
1141.203754	-0.013439
1141.359930	-0.007990
1141.516088	-0.006011
1141.672228	-0.000359
1141.828349	-0.004638
1141.984452	0.000342
1142.140537	0.005919
1142.296604	0.006528
1142.452653	0.000599
1142.608683	-0.002525
1142.764695	-0.000866
1142.920689	0.004630
1143.076665	0.002657
1143.232622	0.000800
1143.388562	-0.004493
1143.544483	-0.002204
1143.700385	-0.009207
1143.856270	-0.007640
1144.012136	-0.002204
1144.167985	-0.011586
1144.323814	-0.018880
1144.479626	-0.019149
1144.635420	-0.019494
1144.791195	-0.015685
1144.946952	-0.013638
1145.102691	-0.009208
1145.258411	-0.013631
1145.414113	-0.017130
1145.569798	-0.015544
1145.725463	-0.013079
1145.881111	-0.021795
1146.036741	-0.017463
1146.192352	-0.017692
1146.347945	-0.018955
1146.503519	-0.023399
1146.659076	-0.017148
1146.814614	-0.019596
1146.970134	-0.016230
1147.125636	-0.017115
1147.281120	-0.014501
1147.436585	-0.016943
1147.592032	-0.020361
1147.747461	-0.017756
1147.902872	-0.015734
1148.058265	-0.014474
1148.213639	-0.005883
1148.368995	-0.011297
1148.524333	-0.012725
1148.679653	-0.014637
1148.834954	-0.019947
1148.990237	-0.020396
1149.145502	-0.020834
1149.300749	-0.018536
1149.455977	-0.020870
1149.611188	-0.022444
1149.766380	-0.012037
1149.921553	-0.013602
1150.076709	-0.005834
1150.231846	-0.006487
1150.386966	-0.006862
1150.542066	-0.022097
1150.697149	-0.023416
1150.852214	-0.019182
1151.007260	-0.018557
1151.162288	-0.018069
1151.317298	-0.013265
1151.472289	-0.013929
1151.627263	-0.007723
1151.782218	-0.006585
1151.937155	0.008999
1152.092073	0.008189
1152.246974	0.008538
1152.401856	0.010689
1152.556720	0.001558
1152.711566	-0.000081
1152.866393	-0.007972
1153.021203	-0.004213
1153.175994	0.004091
1153.330767	0.001818
1153.485521	0.000659
1153.640258	-0.009303
1153.794976	-0.021273
1153.949676	-0.017520
1154.104358	-0.024752
1154.259021	-0.021600
1154.413667	-0.030781
1154.568294	-0.039925
1154.722903	-0.040849
1154.877493	-0.032681
1155.032066	-0.022552
1155.186620	-0.017946
1155.341156	-0.020451
1155.495674	-0.018560
1155.650173	-0.018688
1155.804654	-0.017077
1155.959118	-0.015327
1156.113562	-0.015208
1156.267989	-0.025049
1156.422397	-0.025536
1156.576788	-0.027970
1156.731160	-0.029830
1156.885513	-0.027382
1157.039849	-0.019343
1157.194166	-0.013027
1157.348465	-0.014170
1157.502746	-0.012126
1157.657009	-0.012271
1157.811253	-0.013815
1157.965479	-0.017921
1158.119687	-0.019829
1158.273877	-0.023933
1158.428048	-0.032903
1158.582201	-0.032522
1158.736337	-0.025030
1158.890453	-0.028762
1159.044552	-0.026216
1159.198632	-0.023134
1159.352694	-0.009032
1159.506738	0.000851
1159.660764	0.011138
1159.814771	0.015386
1159.968761	0.019956
1160.122732	0.009407
1160.276685	0.001191
1160.430619	0.004701
1160.584535	-0.004969
1160.738434	-0.017222
1160.892313	-0.029626
1161.046175	-0.032991
1161.200019	-0.040073
1161.353844	-0.039337
1161.507651	-0.034495
1161.661440	-0.024698
1161.815210	-0.027055
1161.968962	-0.027169
1162.122697	-0.020985
1162.276412	-0.014957
1162.430110	-0.009604
1162.583789	0.002879
1162.737451	-0.001351
1162.891094	-0.001698
1163.044718	-0.011600
1163.198325	-0.012307
1163.351913	-0.004117
1163.505483	-0.011017
1163.659035	-0.000317
1163.812569	-0.007781
1163.966084	-0.008562
1164.119581	-0.006343
1164.273060	-0.012602
1164.426521	-0.001927
1164.579964	0.000324
1164.733388	0.007838
1164.886794	0.020274
1165.040182	0.006244
1165.193551	0.011629
1165.346903	0.011940
1165.500236	0.012513
1165.653551	0.024656
1165.806848	0.026128
1165.960126	0.028925
1166.113386	0.013991
1166.266628	0.010436
1166.419852	0.013638
1166.573058	0.002453
1166.726245	-0.001609
1166.879414	-0.000576
1167.032565	-0.010156
1167.185698	-0.016165
1167.338812	-0.015680
1167.491909	-0.002047
1167.644987	-0.004830
1167.798046	-0.003574
1167.951088	0.013869
1168.104111	0.005482
1168.257117	-0.003610
1168.410103	-0.004954
1168.563072	0.000041
1168.716023	-0.009205
1168.868955	-0.015909
1169.021869	-0.022633
1169.174765	-0.017587
1169.327642	-0.029076
1169.480501	-0.016830
1169.633343	-0.020058
1169.786165	-0.008338
1169.938970	-0.009647
1170.091757	-0.011643
1170.244525	-0.017080
1170.397275	-0.001000
1170.550007	-0.009985
1170.702720	-0.010799
1170.855415	-0.017336
1171.008092	-0.013974
1171.160751	-0.023294
1171.313392	-0.026654
1171.466014	-0.021664
1171.618619	-0.029214
1171.771205	-0.029214
1171.923772	-0.029214
