sample name	sample
index	386
start time	 03-04-2021  03:08:42 PM
880	-0.004373
Peak Time (s)	91.538
Peak Height 	-0.004373
calc peak height	90,93
Baseline Time (s)	9.04
Baseline Value 	-0.003091
subtract baseline	10,4
Abs	0.009910
Peak Time (s)	91.037
Peak Height 	0.00991
calc peak height	90,93
Baseline Time (s)	11.536
Baseline Value 	2.8724E-4
subtract baseline	10,3
PK_550	0.004545
Peak Time (s)	92.035
Peak Height 	0.004545
calc peak height	90,93
Baseline Time (s)	11.536
Baseline Value 	-3.2422E-4
subtract baseline	10,2
PK_880	0.006779
Peak Time (s)	92.035
Peak Height 	0.006779
calc peak height	90,93
Baseline Time (s)	10.534
Baseline Value 	5.4736E-4
subtract baseline	10,1


Time (s)	A880-A510	A880-A775	A880-A975	A880	I510	I775	I975	I880	
0.034500	-0.004475	-0.000116	-0.004382	0.006571	6785.794154	46675.878622	3989.517087	24731.635058
0.537500	-0.001978	-0.000073	-0.001404	0.003583	6835.360367	46982.384511	4005.128582	24882.507299
1.037500	-0.002797	-0.000120	-0.002483	0.003145	6831.895698	47022.079205	4003.442011	24904.720373
1.537500	0.000992	-0.000595	-0.004558	0.000548	6890.345650	47238.238650	4004.816031	25036.851002
2.035500	-0.001311	0.000028	-0.002094	0.006033	6819.180779	46744.736990	3996.886388	24758.721187
2.536000	-0.002248	0.000345	-0.000333	0.000219	6863.600904	47367.901269	4016.875637	25053.649531
3.036000	0.001969	-0.000193	-0.003060	-0.001444	6917.810474	47483.188688	4014.047501	25138.726420
3.536500	-0.000555	0.000232	-0.001366	0.000698	6874.731541	47307.371056	4012.857392	25029.200356
4.037000	-0.001121	-0.000139	0.000544	0.002159	6856.155742	47120.542882	4014.050272	24954.813310
4.537000	-0.000238	0.000795	0.001616	0.000628	6878.281687	47372.048400	4020.981035	25032.748243
5.037000	-0.000331	-0.001333	-0.004257	-0.000683	6889.499085	47288.526035	4008.860200	25099.754318
5.537500	0.001073	-0.000197	0.000975	-0.000143	6897.460516	47349.471736	4021.328443	25072.110734
6.035000	-0.000236	0.000273	-0.000614	0.000149	6882.711500	47367.729424	4016.314089	25057.224371
6.535500	0.000562	0.000457	0.000322	0.000656	6885.389735	47334.642797	4017.454450	25031.338817
7.035500	0.001150	-0.000199	-0.000537	0.000238	6894.658464	47310.220142	4016.281710	25052.649260
7.535500	-0.000037	0.000253	0.000228	0.000462	6881.658112	47333.607383	4017.721177	25041.232758
8.036500	-0.000472	-0.000656	-0.001281	-0.000106	6882.886999	47298.763792	4015.216556	25070.240980
8.536500	-0.001020	-0.000265	0.000365	-0.000162	6878.348833	47344.370491	4019.749751	25073.076833
9.039500	0.000806	0.000234	0.001822	0.000000	6893.680325	47378.959546	4023.210511	25064.819460
9.537000	-0.000376	0.000084	-0.001065	-0.000087	6883.587414	47372.524624	4015.742265	25069.256742
10.034500	0.001013	-0.000875	-0.000245	-0.000949	6904.359468	47362.533476	4020.223543	25113.350281
10.534500	0.000000	-0.000283	0.000348	0.000018	6886.087086	47324.239017	4019.224731	25063.906031
11.035000	0.003204	0.000150	-0.000017	0.000310	6913.001500	47338.626212	4017.473764	25049.000840
11.535500	-0.000922	0.000000	0.000000	0.000293	6875.078537	47325.047105	4017.565203	25049.869476
12.035500	-0.001470	-0.000014	0.001085	-0.000227	6874.826455	47376.794345	4021.849263	25076.435787
12.536000	-0.000046	-0.000168	-0.003139	-0.000174	6887.430353	47355.594901	4010.469085	25073.698720
13.036000	-0.000075	-0.000660	-0.004691	-0.002923	6912.574858	47587.199494	4013.642598	25214.681028
13.537000	0.000537	-0.000861	-0.000326	-0.001130	6901.636519	47382.519691	4020.489960	25122.626757
14.034000	0.001719	0.000330	0.000995	-0.000517	6906.898815	47441.749700	4022.381427	25091.254557
14.537000	0.001339	-0.000369	-0.001804	0.000887	6890.413092	47226.633433	4011.193286	25019.524530
15.035000	-0.000086	-0.000281	0.002509	-0.000219	6887.473685	47348.632778	4025.637669	25076.006987
15.553000	-0.002461	-0.000120	0.000079	0.005039	6817.771699	46830.228926	4005.202136	24808.885085
16.035000	0.001527	-0.000120	0.000924	-0.001167	6911.139049	47462.276502	4023.931785	25124.502796
16.537000	0.000812	-0.000015	0.005669	-0.001023	6903.187450	47458.344961	4036.321602	25117.165316
17.035500	-0.000557	-0.000635	0.002958	-0.001205	6892.226086	47413.389628	4029.495878	25126.482371
17.536500	-0.002723	-0.000501	-0.001332	0.003568	6828.726689	46940.512878	4005.356836	24883.264042
18.036500	0.000722	-0.000417	0.003183	-0.000692	6899.297325	47383.144085	4028.720208	25100.191931
18.539500	-0.000719	-0.000443	-0.000117	0.000094	6878.767767	47300.041419	4017.782785	25060.001024
19.037000	-0.000440	-0.000062	-0.000308	0.000554	6877.107989	47292.022752	4016.051803	25036.548239
19.537000	-0.001519	-0.000276	-0.005558	0.001537	6858.206588	47169.838469	3999.588158	24986.442188
20.034500	-0.001569	-0.000024	-0.000984	0.000826	6864.248649	47268.011904	4013.529831	25022.641967
20.535000	-0.000548	-0.001054	-0.000768	-0.000086	6881.999623	47256.075302	4016.529192	25069.235387
21.035500	-0.000220	-0.000062	0.001147	0.000552	6879.146928	47292.214923	4019.931425	25036.619383
21.535500	-0.002717	-0.000758	0.001243	0.001414	6848.377073	47133.190214	4017.887892	24992.674198
22.036000	-0.000296	-0.001240	-0.005615	-0.000359	6886.832758	47264.851298	4004.420683	25083.155979
22.536000	-0.001088	-0.000442	-0.002986	0.000457	6872.044413	47263.047825	4009.202427	25041.459443
23.039000	0.000023	-0.000190	0.001075	0.000372	6883.040857	47297.535365	4020.221667	25045.836118
23.537000	-0.000635	-0.000485	0.002048	0.001148	6869.859275	47188.200253	4020.745344	25006.247545
24.037000	0.001390	0.000914	0.006390	0.000815	6891.554032	47365.134508	4033.301051	25023.218402
24.537500	0.001510	-0.000172	0.000285	0.000379	6896.676355	47298.622708	4018.093459	25045.443804
25.038000	-0.000324	0.000262	0.002505	0.000974	6874.316115	47282.222254	4022.431312	25015.106046
25.535000	-0.001029	0.000467	0.001007	0.001828	6860.023386	47215.923994	4016.161196	24971.640625
26.035500	-0.000090	0.000025	0.004393	0.000387	6881.861280	47318.034719	4029.071679	25045.071195
26.536000	-0.000779	-0.000617	-0.000749	-0.000211	6881.023263	47313.495098	4016.912818	25075.618706
27.036000	-0.000680	-0.000839	0.001087	-0.000325	6882.981369	47302.438891	4022.114631	25081.426705
27.536500	-0.001537	-0.000695	-0.000317	0.000951	6863.394920	47186.776690	4014.968248	25016.260061
28.036500	0.001232	-0.000138	-0.002184	-0.002059	6916.676402	47552.022722	4018.013295	25170.264723
28.536500	-0.000371	-0.000598	0.000396	-0.001430	6896.021100	47440.255055	4023.223886	25138.006619
29.037000	0.000936	0.000192	0.002537	-0.000731	6901.636716	47449.524341	4027.089238	25102.205586
29.537500	0.002150	0.000389	0.003873	-0.000199	6907.938715	47415.175138	4029.246743	25074.964421
30.034500	0.000850	0.000190	0.003017	0.000447	6889.966094	47328.695324	4025.214297	25041.983872
30.535500	0.001373	0.000910	0.002758	-0.000278	6901.482414	47476.704475	4026.465566	25079.019621
31.035500	0.002184	-0.000382	0.002710	-0.000843	6914.224804	47402.185598	4027.854235	25107.919855
31.552000	-0.002179	-0.000364	0.003093	0.004180	6828.116149	46892.487393	4015.452781	24852.305597
32.036500	-0.002360	-0.000454	0.003352	0.001933	6846.908160	47111.398036	4022.135218	24966.291235
32.564000	0.002134	0.000086	0.006361	-0.000284	6908.582063	47392.880862	4036.191776	25079.332069
33.037000	0.001857	0.000174	0.002437	0.000172	6901.798924	47355.210559	4024.398141	25056.030319
33.537500	-0.000345	-0.000828	0.000084	-0.001314	6895.181947	47404.761471	4022.076089	25132.052008
34.037500	-0.000624	-0.000764	0.002561	-0.000481	6884.935424	47326.001182	4026.480662	25089.412689
34.535000	0.000976	0.000488	0.001307	-0.001899	6912.821110	47599.954255	4026.920715	25162.057644
35.035000	-0.001335	0.000191	0.001467	0.001123	6863.678129	47259.747288	4019.261931	25007.523954
35.535000	-0.000392	0.000227	0.001209	0.001583	6868.106510	47216.415910	4017.348069	24984.101010
36.036000	-0.001260	-0.000668	0.000834	0.000716	6868.091885	47213.561751	4018.661239	25028.278837
36.536000	-0.000538	-0.000322	0.000765	0.001003	6872.087893	47219.585031	4017.712312	25013.650565
37.036500	0.000390	-0.000401	0.003533	0.000878	6881.755348	47224.293292	4025.442396	25019.990357
37.536500	-0.002500	-0.000332	0.002141	0.000841	6855.597772	47235.091410	4021.815455	25021.902766
38.037000	-0.001149	0.000069	0.001133	0.001261	6864.119298	47233.210995	4018.006151	25000.509423
38.537000	-0.000693	-0.000022	0.002493	0.001006	6870.627082	47249.844983	4022.314259	25013.462923
39.035000	0.001820	-0.000189	0.002559	0.001240	6891.594103	47208.952935	4021.864359	25001.534569
39.535000	-0.002294	-0.000086	0.003897	0.001108	6855.039408	47232.969313	4025.802956	25008.281294
40.035000	-0.000841	-0.000007	0.003464	0.000840	6870.796504	47268.341185	4025.359082	25021.933569
40.536000	-0.000577	-0.000741	0.001449	0.000724	6874.285432	47205.366642	4020.280349	25027.864114
41.035500	-0.000853	0.000161	0.003894	0.001089	6868.405283	47260.202510	4025.845181	25009.269985
41.536500	-0.001259	-0.000638	0.004782	0.001229	6863.398330	47164.314962	4027.853701	25002.112210
42.039000	-0.000391	0.000474	-0.000683	0.001327	6870.462948	47267.799629	4013.001575	24997.130283
42.536000	0.000563	0.000160	0.002433	0.001403	6878.516130	47227.888411	4021.093200	24993.231355
43.037000	0.001271	0.000059	-0.000822	0.001206	6886.845506	47237.809191	4012.951311	25003.285954
43.537500	-0.000901	-0.000189	-0.000293	0.001512	6864.083773	47181.259883	4013.543653	24987.700251
44.034000	-0.000102	-0.000456	-0.000904	0.000766	6878.261331	47230.122954	4013.901287	25025.702702
44.537500	0.000826	0.000423	0.001004	0.000912	6885.462514	47305.035108	4018.590542	25018.295193
45.035000	0.003542	0.000129	0.000836	-0.003130	6948.175427	47689.823321	4028.964695	25225.318981
45.535500	-0.002547	-0.000051	0.000365	0.005388	6813.831375	46801.862810	4005.033837	24791.240482
46.039500	0.001603	-0.000010	0.004905	-0.000732	6907.815886	47428.906481	4033.465958	25102.225504
46.536500	0.000150	-0.000230	0.000406	-0.000923	6896.149216	47425.983638	4021.893881	25112.033201
47.036500	0.001779	-0.000145	0.000173	-0.001000	6911.935809	47442.647198	4021.477136	25115.978817
47.537000	-0.001860	-0.000974	-0.001797	0.004704	6826.244458	46777.633717	4001.144902	24825.764405
48.036500	0.000274	0.000367	0.000946	-0.000037	6889.121061	47396.354361	4020.969468	25066.724073
48.537500	-0.000401	-0.000203	0.001876	0.000606	6876.981059	47272.192489	4021.733328	25033.857348
49.035000	-0.000380	-0.000060	0.001505	0.001593	6868.122667	47186.114557	4018.109916	24983.577007
49.535000	-0.002758	-0.000550	-0.000580	0.004785	6817.371837	46812.345325	4004.132317	24821.670192
50.035500	0.000793	0.000232	-0.001760	-0.000287	6896.211668	47408.055251	4014.423759	25079.471853
50.536000	-0.000346	0.000644	0.004836	-0.000348	6886.270688	47456.648752	4032.245365	25082.597951
51.036000	0.001121	-0.000758	0.001282	-0.002724	6921.826146	47556.700661	4029.072884	25204.449611
51.536000	-0.001489	-0.000055	-0.002469	0.003449	6841.031815	46997.929325	4002.680990	24889.324802
52.036500	0.002225	0.000488	0.004942	0.004064	6869.354074	46990.532671	4020.687489	24858.159169
52.537000	0.029847	0.005255	0.002368	-0.034602	7526.168987	51626.826036	4121.196469	26904.991129
53.033500	-0.005709	-0.009575	0.012346	0.205258	5347.124777	30011.578194	3603.183118	16707.882005
53.534500	-0.016624	-0.032078	-0.002936	-0.117117	7927.680152	56968.066697	4366.428376	31932.860680
54.035000	-0.033035	-0.137914	-0.013651	-0.286841	10062.022015	65535.000000	5032.131860	45826.773408
54.535500	-0.057015	-0.301928	-0.041642	-0.450855	12792.358718	65535.000000	5830.745390	65535.000000
55.035000	-0.003317	-0.187400	0.007436	-0.336327	11497.648425	65535.000000	5415.258715	51010.533876
55.535500	-0.005063	-0.113034	0.005747	-0.261961	10113.297712	65535.000000	5004.893669	43435.379379
56.039000	-0.014021	-0.073566	-0.003788	-0.220325	9318.548581	65223.165191	4766.580871	39727.574598
56.536000	-0.005972	-0.083670	-0.008298	-0.232597	9626.679896	65535.000000	4800.946888	40783.711424
57.037000	-0.001070	-0.077142	-0.007236	-0.226069	9601.480943	65535.000000	4776.680189	40218.144484
57.537000	0.001387	-0.055232	-0.003578	-0.200666	9255.886410	65033.329654	4683.117671	38096.580486
58.034500	0.004681	-0.051386	-0.001869	-0.195469	9228.045785	64840.429458	4668.542325	37677.694268
58.534500	0.002165	-0.033838	-0.005954	-0.167663	8800.369831	63394.784387	4540.556914	35519.361632
59.035000	0.003587	-0.025439	-0.003568	-0.150846	8594.390886	62233.642214	4485.653183	34279.450488
59.535500	0.003049	-0.016954	0.000335	-0.128580	8302.406006	60380.739474	4418.384129	32710.038549
60.035000	0.003483	-0.012827	-0.003458	-0.109118	8070.209405	58386.907041	4337.175658	31402.584304
60.536000	0.002260	-0.010238	-0.000755	-0.092040	7856.295117	56566.567975	4289.107256	30302.608028
61.036500	-0.001211	-0.010077	-0.000021	-0.076671	7645.305018	54720.238952	4241.780871	29349.039941
61.536500	0.000373	-0.004837	0.003080	-0.066284	7549.810289	54109.912637	4218.803380	28723.411885
62.037000	0.001053	-0.005717	0.004205	-0.058713	7476.395851	53123.121320	4198.794817	28276.695671
62.536500	-0.000086	-0.006872	-0.000050	-0.072752	7614.798560	54635.167704	4229.283175	29111.252488
63.035000	0.000099	-0.004472	0.002058	-0.025165	7125.836955	49523.870219	4093.224833	26388.469321
63.535000	-0.010821	-0.002354	-0.005083	-0.033255	7098.316299	50632.503537	4095.921491	26830.597402
64.039000	-0.004047	-0.002111	-0.002569	-0.044101	7272.708075	51866.714802	4134.507481	27436.323875
64.535500	-0.002466	-0.002590	-0.000320	-0.043577	7283.407574	51753.843221	4139.578020	27406.747251
65.048000	-0.002921	-0.001971	-0.000083	-0.045998	7303.349122	52096.793604	4147.425779	27543.844854
65.538500	-0.004394	-0.001825	-0.004187	-0.042638	7254.475961	51734.199965	4125.502993	27353.765426
66.036500	-0.000269	-0.002436	0.003171	-0.049765	7369.129657	52472.268713	4168.396178	27758.736680
66.536500	0.001122	-0.001994	0.004303	-0.051821	7404.842877	52758.103420	4178.027798	27876.799112
67.033500	0.003418	-0.001374	0.000495	-0.053200	7443.256664	52988.189564	4170.685472	27956.354161
67.534000	0.000489	-0.001826	-0.002131	-0.049438	7373.571674	52504.586181	4151.556791	27740.003455
68.035000	0.004928	-0.001363	0.003871	-0.055629	7484.767224	53270.306141	4188.306984	28096.987024
68.535000	0.002931	-0.001451	0.001424	-0.056405	7471.859859	53350.052588	4183.208868	28142.088380
69.035500	0.002865	-0.001570	0.008926	-0.056664	7473.894054	53366.337337	4207.054294	28157.170083
69.535500	0.001398	-0.001454	0.001031	-0.050616	7395.199879	52681.913950	4164.520395	27807.563672
70.036000	0.004925	-0.001837	0.002969	-0.056105	7489.782923	53270.504611	4187.009375	28124.676273
70.536500	0.003528	-0.001526	0.002994	-0.055226	7465.713843	53204.725623	4184.401455	28073.606583
71.036500	0.004398	-0.001460	0.000727	-0.054185	7463.910434	53091.810883	4174.355396	28013.244811
71.537000	0.000011	-0.001737	-0.002495	-0.047439	7348.058879	52286.978234	4144.551578	27625.832886
72.034500	0.004006	-0.001536	0.003317	-0.051146	7427.893501	52733.264948	4173.000827	27837.988034
72.537500	0.003303	-0.001277	0.003038	-0.049272	7401.020244	52548.387119	4166.512905	27730.526643
73.040500	0.004045	-0.000777	0.003641	-0.047091	7386.084513	52356.575383	4161.777673	27606.020639
73.535500	-0.000170	-0.001475	-0.002396	-0.039727	7267.697465	51447.227322	4122.246371	27190.240547
74.038000	0.003603	-0.000859	0.005063	-0.043874	7348.338136	51982.475662	4156.410953	27423.531124
74.535500	0.003474	-0.000285	0.004640	-0.041986	7327.658129	51834.166820	4149.536772	27317.043508
75.039000	0.003279	-0.000565	0.000973	-0.040168	7307.111328	51598.280385	4133.358858	27214.900674
75.536500	0.000488	-0.000697	0.003768	-0.035097	7227.807897	51018.456273	4126.708043	26932.366122
76.036500	0.003938	-0.000495	0.004592	-0.037205	7283.726357	51275.037511	4135.282772	27049.414719
76.537000	0.002374	0.000022	0.008678	-0.035451	7250.258011	51137.515106	4142.147331	26952.013166
77.037000	0.004241	0.000811	0.003640	-0.033737	7251.796343	51034.930757	4122.380192	26857.198365
77.535000	0.001147	-0.000148	0.000355	-0.028803	7171.842104	50386.351677	4098.727766	26586.281162
78.035500	0.001558	0.000119	0.007169	-0.031815	7205.750087	50746.165407	4127.056277	26751.278340
78.535000	0.002693	-0.000224	0.004312	-0.031244	7211.363529	50645.561138	4117.101967	26719.925028
79.035500	0.004582	0.001181	0.001504	-0.029510	7212.911348	50609.433620	4104.031225	26624.918523
79.536000	0.000099	0.000775	0.004086	-0.021893	7094.025274	49736.390947	4089.702018	26212.027281
80.042000	0.003655	0.001615	0.005446	-0.027294	7181.708131	50414.182406	4108.982542	26504.040905
80.536500	0.003693	0.001328	0.008052	-0.026371	7172.965503	50281.992675	4113.828132	26453.874120
81.036500	0.003785	0.001803	0.009150	-0.024860	7158.983504	50169.032562	4112.635562	26371.976961
81.536500	-0.001531	0.000312	0.002103	-0.020691	7066.670186	49557.192119	4080.720441	26147.501602
82.034500	0.005788	0.001191	0.001660	-0.024137	7171.596099	50024.077138	4089.187137	26332.914559
82.535000	0.002994	0.001356	0.003050	-0.022842	7131.427126	49901.595564	4089.452281	26263.056301
83.035500	0.005011	0.001106	0.003430	-0.022108	7143.986508	49795.285999	4088.452178	26223.561037
83.535500	0.000339	0.001547	0.003317	-0.015349	7033.378029	49118.083740	4069.177903	25863.005217
84.036000	0.004692	0.002364	0.009893	-0.019040	7110.922026	49600.277457	4098.089290	26059.236857
84.539000	0.003612	0.001509	0.007973	-0.018954	7099.593656	49499.304795	4092.386729	26054.648779
85.036000	0.005408	0.001743	0.005573	-0.017295	7100.914788	49346.598480	4080.927282	25966.236581
85.536500	0.005508	0.001932	-0.000650	-0.016508	7094.249143	49282.706590	4061.390411	25924.435754
86.037000	0.004329	0.001987	0.009106	-0.015746	7075.488458	49207.264068	4086.516249	25884.059732
86.537000	0.004503	0.002553	0.006428	-0.014349	7063.706172	49118.729613	4075.067027	25810.138605
87.034500	0.005919	0.002661	0.005814	-0.013197	7066.251399	49007.889345	4070.141099	25749.426274
87.535000	0.000939	0.002308	0.004017	-0.007873	6968.246770	48409.204081	4050.473197	25470.720291
88.035000	0.005742	0.003464	0.007793	-0.011416	7047.450397	48904.235671	4070.692198	25655.826460
88.536000	0.006130	0.003081	0.008363	-0.011312	7050.167713	48852.573923	4071.990564	25650.334399
89.038500	0.004629	0.003493	0.007295	-0.010629	7029.277918	48823.924962	4067.117088	25614.556859
89.536500	0.004467	0.003785	0.005092	-0.004459	6969.313696	48206.668513	4044.083618	25293.794187
90.036000	0.004298	0.002983	0.008558	-0.009571	7016.051967	48658.536542	4067.688706	25559.253720
90.536500	0.004656	0.003828	0.008089	-0.008358	7007.932430	48619.704354	4063.022517	25495.954386
91.037000	0.005168	0.003593	0.009910	-0.008249	7011.754667	48583.456297	4067.769541	25490.277754
91.537500	0.005318	0.002862	0.003773	-0.004373	6976.508358	48101.532663	4040.261851	25289.345747
92.035000	0.006779	0.004545	0.008212	-0.006054	7006.219093	48453.027357	4056.999436	25376.301891
92.535500	0.005998	0.003679	0.009666	-0.006754	7005.444566	48435.618462	4062.948429	25412.578589
93.035500	0.004596	0.004656	0.009662	-0.005737	6982.559905	48431.377617	4060.124648	25359.854617
93.536000	0.002611	0.003558	0.006475	0.000086	6909.581496	47711.693943	4035.499197	25060.432412
94.036000	0.004608	0.003757	0.007241	-0.005250	6978.084784	48286.373944	4052.120934	25334.680684
94.536500	0.005712	0.004616	0.008954	-0.004263	6979.185456	48272.967250	4054.112240	25283.676180
95.036000	0.005788	0.004895	0.009227	-0.003898	6976.461321	48263.966435	4053.861831	25264.863997
95.553000	0.004415	0.004561	0.009235	0.002393	6904.919957	47577.379990	4036.723785	24942.879121
96.034000	0.007264	0.005205	0.009321	-0.002841	6980.412614	48186.006305	4051.218812	25210.436498
96.559500	0.005122	0.004965	0.009138	-0.002786	6959.752963	48155.348168	4050.565911	25207.622757
97.035000	0.006781	0.004790	0.009018	-0.002466	6972.333936	48103.746570	4049.360861	25191.164415
97.535000	0.004953	0.004476	0.004524	0.003407	6900.517813	47464.516685	4021.324828	24891.430298
98.035500	0.006140	0.005363	0.009879	-0.000997	6952.535278	48010.717265	4047.700730	25115.829433
98.560500	0.006362	0.005012	0.009585	-0.001555	6959.831622	48032.098314	4048.418768	25144.387830
99.036500	0.007146	0.004652	0.006954	-0.001016	6962.141862	47938.910364	4039.786114	25116.806607
