sample name	sample
index	239
start time	 02-22-2021  11:25:44 AM
880	-0.066323
Peak Time (s)	92.035
Peak Height 	-0.06632
calc peak height	90,93
Baseline Time (s)	11.536
Baseline Value 	-0.004569
subtract baseline	10,4
Abs	-0.008579
Peak Time (s)	92.536
Peak Height 	-0.008579
calc peak height	90,93
Baseline Time (s)	9.034
Baseline Value 	8.1342E-4
subtract baseline	10,3
PK_550	-0.007931
Peak Time (s)	92.035
Peak Height 	-0.007931
calc peak height	90,93
Baseline Time (s)	9.034
Baseline Value 	-7.5508E-4
subtract baseline	10,2
PK_880	-0.005717
Peak Time (s)	92.536
Peak Height 	-0.005717
calc peak height	90,93
Baseline Time (s)	11.536
Baseline Value 	0.001442
subtract baseline	10,1


Time (s)	A880-A510	A880-A775	A880-A975	A880	I510	I775	I975	I880	
0.035000	-0.000912	0.000917	0.000133	0.002940	6870.593089	46654.486769	3986.616068	24514.873540
0.535500	-0.003190	-0.000192	-0.001329	0.007109	6811.852320	46125.944990	3972.010753	24308.086609
1.035500	-0.002382	-0.000802	0.001988	0.004043	6847.042205	46370.991526	3988.578833	24459.946195
1.536000	-0.001859	0.000514	0.000520	0.002342	6867.392064	46674.147897	3989.191385	24544.708048
2.036000	-0.001585	-0.000146	0.004396	0.001681	6875.978117	46674.321739	4001.125588	24577.741661
2.536000	-0.002858	-0.000429	0.000909	0.004465	6838.855126	46366.151336	3984.661788	24438.986433
3.036500	0.001008	0.000379	0.001437	-0.000559	6920.650472	46953.939293	3999.225343	24690.013034
3.537000	-0.002472	-0.000303	0.006220	0.000788	6876.036517	46748.584449	4008.332237	24622.433204
4.037000	-0.000601	-0.000237	0.001357	0.001259	6888.922439	46707.595684	3994.224967	24598.829988
4.537500	-0.001304	-0.000006	-0.000662	0.001717	6878.228869	46684.738391	3987.735238	24575.933903
5.035000	-0.001662	0.000439	0.003708	0.001779	6874.367796	46723.333474	3999.046372	24572.829526
5.535500	-0.002038	-0.000250	0.002377	0.000808	6879.840425	46751.811596	3998.096843	24621.406492
6.035000	-0.000995	-0.000237	-0.001734	0.000884	6888.742000	46745.446694	3987.109087	24617.583690
6.536000	-0.001588	-0.000172	0.005640	0.000674	6885.216460	46773.280830	4007.091795	24628.129029
7.036500	-0.001257	-0.000538	0.001944	0.000455	6890.285470	46758.470018	3997.887007	24639.117213
7.536500	-0.000763	0.000355	-0.000686	0.000771	6891.929191	46816.723189	3990.145872	24623.254524
8.037000	-0.000860	0.000131	0.005638	0.000247	6895.871145	46847.067333	4008.220588	24649.531667
8.537000	-0.000844	0.000535	-0.001440	0.000695	6891.890010	46842.709484	3988.371769	24627.094764
9.034500	0.000862	0.000000	0.000000	-0.000012	6914.208598	46859.982753	3993.998073	24662.504781
9.534500	-0.000783	0.000011	0.000420	0.000035	6898.545872	46856.402502	3994.978844	24660.172599
10.035500	0.000015	-0.000087	-0.002071	-0.000045	6906.662742	46854.577642	3988.656967	24664.168990
10.535500	-0.003200	-0.000876	-0.000043	-0.000863	6884.523160	46857.498305	3996.124920	24705.289780
11.035500	0.000577	0.000136	0.002506	0.000054	6910.958214	46867.142228	4000.429257	24659.222050
11.535500	0.000000	-0.001167	0.000006	0.000000	6906.110158	46740.793054	3993.982511	24661.925879
12.036500	-0.003179	-0.000478	-0.001953	0.004198	6838.360350	46388.024211	3977.920446	24452.254428
12.536500	-0.001032	-0.000494	0.002237	-0.000494	6901.130033	46858.754930	4001.165937	24686.713699
13.037000	-0.002004	-0.001145	0.000005	-0.002307	6908.918287	46976.641842	4000.058714	24778.025852
13.537500	-0.001181	0.000249	0.000491	0.000552	6890.092184	46828.177306	3993.805949	24634.232360
14.034500	-0.003987	-0.000732	-0.000059	0.004729	6826.194605	46309.452248	3981.456034	24425.908821
14.535500	-0.002601	-0.000016	0.000240	0.003219	6852.568343	46532.521154	3986.166771	24500.980321
15.035500	-0.001913	-0.000832	0.000465	-0.000480	6892.853919	46823.132860	3996.452721	24686.005691
15.548000	-0.000379	-0.001290	0.004016	-0.000633	6908.463729	46792.345432	4006.249181	24693.714574
16.036000	-0.002145	-0.000972	-0.000292	0.003229	6856.642564	46435.537015	3984.752023	24500.468049
16.536000	-0.001594	0.000177	0.004172	0.000339	6888.253844	46842.419882	4004.083413	24644.938808
17.036500	0.000982	-0.000512	0.007489	0.000084	6914.440324	46798.528802	4013.592489	24657.721416
17.536500	0.001057	-0.000648	0.007596	-0.003346	6947.102621	47132.777876	4023.085418	24830.512514
18.036500	-0.004705	-0.001002	0.001696	0.001447	6849.529624	46611.537535	3994.621968	24589.419684
18.537000	-0.002981	-0.000743	0.001618	0.000436	6874.581537	46739.563528	3997.076325	24640.045079
19.034500	-0.001977	-0.000874	0.000230	0.000979	6878.832542	46671.696189	3992.002996	24612.873486
19.535000	-0.001075	-0.000633	0.000506	0.001380	6883.437360	46655.496036	3991.673318	24592.785253
20.035500	-0.002351	-0.000669	-0.001011	0.002183	6864.333928	46571.015198	3985.606428	24552.638774
20.535500	-0.001338	-0.000578	0.001667	0.001397	6880.864810	46659.316888	3994.678464	24591.938240
21.035500	-0.001958	0.000143	0.002259	0.001386	6875.258038	46733.182129	3996.264884	24592.482009
21.536000	-0.001229	-0.000355	0.000837	0.001696	6879.103893	46651.676977	3991.711929	24576.958903
22.036500	-0.003062	-0.001056	0.000192	0.002455	6855.339811	46504.805232	3988.037873	24539.083573
22.537000	-0.003273	-0.001457	-0.000314	0.000211	6873.979149	46690.365134	3992.590692	24651.360933
23.037500	0.000733	-0.000648	0.002700	0.000910	6904.474787	46701.359140	3998.679649	24616.303011
23.537000	-0.002606	-0.000807	0.001473	0.000822	6874.480843	46694.146435	3995.677430	24620.692709
24.035000	-0.002732	-0.000800	0.001243	0.000763	6873.870006	46700.843603	3995.229407	24623.665276
24.535000	-0.002340	-0.000618	0.001692	0.001321	6872.349906	46663.047671	3994.943160	24595.756857
25.035500	-0.002669	-0.000854	0.002796	0.000265	6879.023703	46745.724009	4000.637837	24648.627173
25.535000	-0.002340	-0.000312	0.001618	0.001100	6874.377085	46716.070452	3995.330022	24606.783093
26.036000	-0.002015	-0.000910	0.001849	0.000803	6880.092112	46685.766609	3996.719225	24621.650896
26.536500	-0.001267	-0.000019	0.004728	0.001016	6885.023322	46754.253782	4003.764029	24611.020343
27.037000	-0.001217	-0.000609	0.001191	0.000870	6886.831474	46709.368377	3994.812421	24618.322355
27.537500	0.000882	0.000256	0.002418	-0.000519	6919.100727	46937.320594	4001.708998	24687.964209
28.037500	-0.002741	-0.000626	0.001900	0.003700	6846.894523	46423.055340	3989.248638	24477.030334
28.537500	-0.000037	0.000013	-0.002287	0.000051	6905.300057	46854.955867	3987.841929	24659.383976
29.037500	-0.000377	-0.000512	-0.001752	-0.000728	6909.354168	46880.620627	3991.278951	24698.468878
29.535000	-0.001822	-0.000317	0.006074	-0.000474	6893.646036	46874.745627	4011.304624	24685.747783
30.036000	-0.003407	-0.001206	-0.001135	0.004084	6837.327120	46326.545796	3980.338516	24457.953652
30.536000	0.000403	-0.000778	0.002036	-0.000690	6916.242942	46849.911989	4001.151667	24696.559691
31.039000	-0.002355	-0.000368	-0.000433	-0.000759	6891.352298	46898.410146	3994.824522	24700.037701
31.536000	-0.004038	-0.001109	-0.000634	0.001491	6855.233385	46596.452667	3988.397985	24587.251864
32.036500	-0.003967	-0.000907	-0.002344	0.004303	6830.238489	46334.501567	3976.634026	24447.031196
32.549000	-0.000040	-0.001420	0.000848	-0.000965	6914.690874	46812.751292	3998.741189	24710.409201
33.037500	-0.000861	-0.000055	0.004465	-0.000643	6904.097504	46918.379113	4007.469482	24694.238760
33.537000	0.000644	0.000140	0.003577	-0.000159	6913.552355	46889.117258	4003.827135	24669.918210
34.035000	-0.000474	0.000221	-0.001878	0.001184	6890.786373	46761.460701	3985.951220	24602.611784
34.535500	0.001570	-0.000323	0.002559	-0.001781	6937.270537	47006.691240	4005.427757	24751.497354
35.035500	-0.004895	-0.002408	0.002230	-0.000252	6863.339385	46641.048087	4000.506874	24674.574454
35.536000	-0.000851	-0.000280	0.004076	0.001500	6884.399886	46678.972138	4000.757661	24586.791056
36.036500	-0.002388	-0.001095	-0.000118	0.001555	6869.758482	46591.364991	3989.579969	24584.030831
36.537000	-0.001420	-0.000336	0.001897	0.001927	6875.228986	46630.271703	3993.888971	24565.412752
37.037000	-0.001042	-0.000436	-0.001166	0.001338	6884.132982	46679.615301	3987.407436	24594.887168
37.534500	0.001804	0.000198	0.004764	0.001989	6904.393165	46677.866027	4001.282475	24562.315203
38.034500	-0.002592	-0.001502	0.000894	0.000775	6875.049633	46628.937734	3994.280034	24623.079454
38.535000	-0.002674	-0.000826	-0.001806	0.001026	6871.987940	46671.804753	3986.552652	24610.509119
39.035000	-0.001553	-0.000355	0.004226	0.001074	6881.846951	46714.398119	4002.277827	24608.072050
39.535500	-0.002409	-0.000304	0.003621	0.001710	6868.136748	46655.332705	3998.999946	24576.258082
40.036500	-0.002844	0.000154	0.003156	0.003820	6844.862502	46489.284588	3992.225312	24471.070430
40.536000	-0.001024	-0.001030	0.002157	0.000752	6889.700820	46678.819427	3997.666791	24624.226611
41.036500	-0.002344	-0.000581	-0.000000	0.001114	6874.210085	46687.506398	3991.044000	24606.084020
41.536500	-0.001946	-0.000183	0.001292	0.001616	6873.254476	46677.078155	3993.116830	24580.984142
42.037500	-0.003141	-0.000482	0.000339	0.002349	6855.586606	46573.204075	3988.699416	24544.377491
42.537000	-0.000899	-0.001298	0.000764	0.000468	6893.468165	46680.446770	3994.746458	24638.451227
43.034500	-0.002045	-0.000964	0.003973	0.000902	6878.909816	46670.353284	4002.065650	24616.720500
43.535000	-0.003039	-0.000230	0.001495	0.001808	6861.467941	46652.995639	3993.146438	24571.390765
44.035500	-0.005379	-0.000816	0.004203	0.002788	6831.179621	46495.441865	3997.690460	24522.452019
44.535500	0.000603	-0.000048	0.005421	-0.000785	6918.987384	46933.539366	4010.391847	24701.379060
45.036000	0.002631	-0.000753	0.003939	-0.003861	6966.691590	47174.563485	4014.648175	24856.559001
45.536500	0.001480	0.000225	-0.002349	-0.000362	6923.205877	46918.341101	3988.758769	24680.124087
46.037000	-0.002886	-0.000794	-0.000303	0.002387	6857.570306	46537.968489	3986.921629	24542.472123
46.537000	-0.000925	-0.000587	0.002372	-0.000909	6905.969096	46891.492317	4002.622309	24707.614262
47.037500	0.001817	-0.000074	0.003557	-0.000230	6925.113538	46874.554555	4003.961850	24673.465829
47.534500	-0.000257	-0.000810	0.001680	-0.001236	6915.192222	46901.953025	4001.656926	24724.050645
48.067500	-0.003011	-0.001013	0.005015	0.001897	6860.912936	46565.257350	4002.189021	24566.930654
48.535500	-0.004278	-0.001459	0.005039	0.001010	6857.433297	46609.578421	4004.603097	24611.278014
49.036000	-0.000987	-0.000336	0.000740	0.001557	6882.616587	46667.654106	3991.824248	24583.936163
49.541500	-0.001151	-0.000879	0.005270	-0.001331	6907.771171	46904.549388	4011.443539	24728.812051
50.036000	-0.001358	-0.000802	0.001166	0.001557	6879.198757	46620.688315	3992.939666	24583.927410
50.536000	-0.000430	-0.000076	0.002907	-0.000584	6907.538704	46910.322836	4003.177694	24691.269020
51.037000	0.001682	0.000049	0.006520	-0.003517	6954.547981	47221.319143	4020.647966	24839.156877
51.537000	0.001134	-0.000570	-0.001031	-0.002840	6943.088530	47089.251947	3998.732324	24804.929425
52.037000	-0.002783	0.001299	0.000192	-0.000450	6884.558833	47036.164438	3995.655638	24684.512549
52.537500	-0.002210	-0.002858	0.004293	-0.013114	7008.367916	47909.371267	4040.632102	25330.063758
53.035000	-0.002127	-0.009217	0.019320	0.207201	5367.813874	29605.008769	3593.221441	16392.504849
53.535500	-0.023058	-0.019673	0.004133	0.014233	6575.149717	43557.028952	3967.735248	23959.214105
54.035500	-0.035499	-0.061832	0.002209	-0.197249	8721.233252	62945.031699	4659.142935	37191.550894
54.536000	-0.019052	-0.068923	0.004829	-0.214828	9196.965201	64412.814985	4745.135027	38609.379057
55.036500	-0.017655	-0.038246	-0.001030	-0.165895	8542.450152	61880.613835	4520.847234	34800.828175
55.536500	-0.020868	-0.037446	-0.002176	-0.164570	8483.623016	61809.246153	4511.383534	34703.525583
56.036500	-0.012759	-0.042076	-0.000200	-0.178547	8775.752366	63090.981374	4573.435679	35744.767026
56.534000	-0.008347	-0.051820	-0.002405	-0.196886	9092.642812	64294.233585	4638.563598	37162.886854
57.037500	-0.003857	-0.050942	-0.004044	-0.196010	9144.521933	64294.478381	4628.249468	37093.737895
57.535000	-0.002215	-0.048085	-0.000724	-0.193064	9125.756801	64281.903614	4629.777586	36862.351060
58.035000	-0.001650	-0.038068	-0.004634	-0.176490	8899.862692	63361.962990	4547.914492	35589.453288
58.535000	-0.006201	-0.027788	-0.004507	-0.155214	8552.526957	61850.224719	4467.346373	34025.000922
59.036000	-0.006162	-0.021927	-0.003821	-0.140049	8358.490627	60600.604102	4414.408936	32955.795352
59.536000	-0.008665	-0.018668	-0.001856	-0.127766	8175.242634	59413.921297	4377.746120	32116.709327
60.035500	-0.006986	-0.017338	-0.010680	-0.126651	8182.113126	59442.034836	4343.246369	32041.725180
60.536500	-0.005752	-0.016877	-0.009301	-0.117664	8088.376251	58342.664542	4317.363194	31444.214148
61.037000	-0.005479	-0.017908	-0.006939	-0.124116	8169.586453	59039.148366	4347.390980	31871.934533
61.537000	-0.003679	-0.012967	-0.008174	-0.110148	8023.546037	57884.109508	4295.977461	30953.884001
62.035000	-0.017436	-0.019407	-0.005071	-0.090298	7640.822634	54654.022009	4241.384025	29699.004075
62.535000	-0.015247	-0.011775	-0.003949	-0.044683	7188.184987	50319.540828	4106.177610	27023.745508
63.035000	-0.010947	-0.006614	-0.008759	-0.069546	7487.145203	53714.261376	4165.406129	28447.075117
63.535500	-0.009278	-0.009340	-0.011640	-0.087658	7701.657927	55546.901812	4212.252869	29536.410942
64.035500	-0.008237	-0.012898	-0.009397	-0.103184	7888.989776	57018.129135	4269.026722	30507.127117
64.538500	-0.010697	-0.012755	-0.013102	-0.102194	7849.385789	56912.548976	4253.799077	30444.143278
65.067000	-0.006738	-0.012719	-0.011188	-0.102349	7896.641268	56936.293696	4260.487453	30453.983824
65.539500	-0.006500	-0.012406	-0.007906	-0.101022	7884.098883	56810.400403	4266.842174	30369.864129
66.037500	-0.011156	-0.012217	-0.010509	-0.095352	7766.610723	56134.117359	4240.159729	30013.106351
66.537500	-0.007978	-0.012097	-0.007611	-0.099527	7849.983780	56663.336798	4262.939933	30275.353925
67.034500	-0.007771	-0.012372	-0.014313	-0.099837	7855.886114	56667.584509	4242.335051	30294.879379
67.535000	-0.006697	-0.011460	-0.008650	-0.099173	7860.595035	56698.344361	4258.421835	30252.997369
68.035000	-0.009258	-0.011416	-0.014141	-0.093764	7770.097280	56037.851164	4223.585193	29914.049640
68.536000	-0.006128	-0.011759	-0.010438	-0.099349	7869.135731	56683.027753	4253.214997	30264.072248
69.036000	-0.003393	-0.011197	-0.008541	-0.098937	7895.874646	56701.676630	4258.014092	30238.144672
69.536000	-0.004058	-0.010995	-0.009506	-0.098817	7886.822721	56711.884265	4254.508026	30230.587182
70.036500	-0.007156	-0.009364	-0.010090	-0.091752	7771.100419	56042.589601	4230.032163	29788.988587
70.537000	-0.005217	-0.010725	-0.009142	-0.098042	7864.584224	56649.259237	4253.178331	30181.745297
71.034000	-0.003382	-0.010473	-0.003961	-0.097451	7878.878089	56607.305298	4268.056537	30144.628031
71.537000	-0.004865	-0.010683	-0.008910	-0.097555	7863.041396	56594.225284	4252.358491	30151.152700
72.035000	-0.007388	-0.010418	-0.010941	-0.091604	7766.830244	55895.686983	4226.869013	29779.814178
72.535500	-0.002875	-0.009846	-0.005861	-0.095962	7867.600956	56500.898063	4257.056525	30051.264106
73.035500	-0.003261	-0.010629	-0.009182	-0.096065	7864.343704	56416.995038	4246.691391	30057.704974
73.536000	-0.002429	-0.009870	-0.009655	-0.094936	7860.935657	56371.289698	4241.558710	29987.089376
74.036500	-0.008303	-0.009839	-0.013597	-0.088859	7725.855617	55632.065272	4209.888971	29610.270434
74.536500	-0.002944	-0.009627	-0.007125	-0.093018	7833.140093	56165.627143	4243.519513	29867.627739
75.037000	-0.004331	-0.010048	-0.007550	-0.092660	7813.292273	56070.056919	4241.009487	29845.335889
75.537000	-0.004316	-0.009672	-0.008173	-0.091564	7801.037247	55982.008026	4235.526609	29777.348164
76.037000	-0.006002	-0.009485	-0.012484	-0.085505	7714.133611	55269.142114	4202.906223	29404.566015
76.535000	-0.004016	-0.009306	-0.010200	-0.089699	7783.353864	55799.068565	4223.194647	29662.060667
77.035500	-0.004503	-0.009258	-0.009738	-0.089115	7771.287232	55733.786858	4222.808319	29626.048956
77.535500	-0.002723	-0.010211	-0.006880	-0.089071	7790.860984	55612.561799	4231.711676	29623.311499
78.036000	-0.006983	-0.010137	-0.011154	-0.082781	7673.090849	54863.380831	4198.578061	29238.586463
78.536000	-0.003651	-0.009199	-0.007277	-0.086870	7755.633993	55468.515335	4223.491120	29488.088577
79.036500	-0.005315	-0.010211	-0.004727	-0.087236	7741.094864	55390.342124	4232.721384	29510.498916
79.537000	-0.003412	-0.009373	-0.008202	-0.086448	7753.582504	55396.451463	4219.245825	29462.217221
80.037000	-0.007225	-0.008943	-0.012636	-0.079842	7638.148550	54655.120503	4184.950660	29060.772682
80.537500	-0.004079	-0.009914	-0.008221	-0.085368	7734.039337	55200.825577	4215.792812	29396.183148
81.034500	-0.003397	-0.008925	-0.010145	-0.084022	7726.619867	55157.805078	4205.568849	29314.066582
81.535000	-0.005159	-0.009517	-0.008420	-0.083929	7705.978400	55075.449450	4210.659907	29308.388347
82.035500	-0.008953	-0.009373	-0.012939	-0.078218	7601.601019	54410.900035	4179.051261	28962.995091
82.535500	-0.004469	-0.009326	-0.006728	-0.082760	7700.665904	54958.095873	4212.296816	29237.332164
83.035500	-0.003911	-0.009089	-0.007568	-0.082522	7704.224301	54957.985698	4208.926670	29222.898216
83.536000	-0.005774	-0.009569	-0.010684	-0.082319	7681.338207	54876.177340	4198.601799	29210.573728
84.036500	-0.008967	-0.009307	-0.012163	-0.075760	7574.821934	54127.966032	4173.924587	28815.721542
84.536500	-0.005495	-0.009080	-0.009198	-0.080895	7668.707727	54764.336320	4198.793991	29124.309165
85.037000	-0.007019	-0.008754	-0.007090	-0.079972	7641.823699	54693.081432	4202.473382	29068.574125
85.534500	-0.006024	-0.008846	-0.008645	-0.079283	7645.171615	54599.958943	4195.515061	29027.032839
86.035000	-0.009926	-0.008839	-0.011060	-0.073967	7545.177654	53971.749358	4171.827037	28708.772606
86.535000	-0.007563	-0.009765	-0.013658	-0.078729	7622.291203	54424.970894	4178.415108	28993.684463
87.035500	-0.006978	-0.009237	-0.011918	-0.077838	7618.948425	54381.960759	4181.008914	28940.164047
87.536000	-0.006012	-0.009143	-0.008151	-0.077111	7621.553041	54306.896370	4190.337228	28896.523044
88.036000	-0.011919	-0.009181	-0.014315	-0.070487	7486.808584	53524.283967	4151.528767	28502.535492
88.536500	-0.007003	-0.008405	-0.011435	-0.075276	7590.826073	54177.266618	4174.666070	28786.780729
89.037000	-0.003503	-0.008510	-0.012465	-0.074731	7622.962714	54100.599112	4169.882604	28754.293710
89.537000	-0.007020	-0.008386	-0.009941	-0.074004	7576.877573	54029.524438	4175.344069	28710.996226
90.036000	-0.011169	-0.008626	-0.014260	-0.067343	7461.510567	53223.379682	4142.328713	28317.650777
90.535000	-0.008597	-0.008917	-0.008610	-0.073516	7554.617880	53909.654369	4177.911795	28681.938733
91.035000	-0.008221	-0.008416	-0.010617	-0.072088	7543.323750	53800.922942	4167.475207	28597.250302
91.535000	-0.006495	-0.008710	-0.010561	-0.071467	7555.188597	53693.758928	4165.764141	28560.479113
92.035500	-0.008785	-0.007931	-0.011070	-0.066323	7475.905522	53185.714195	4148.784392	28257.913237
92.536000	-0.005717	-0.007958	-0.008579	-0.069999	7547.772685	53610.052814	4167.317425	28473.732989
93.036000	-0.007469	-0.008513	-0.008780	-0.069713	7525.927874	53511.868686	4165.843703	28456.870030
93.535500	-0.007056	-0.007901	-0.005758	-0.068381	7516.119753	53428.003875	4170.962562	28378.508612
94.036500	-0.008648	-0.008353	-0.009923	-0.065019	7463.582708	52986.182018	4148.314973	28181.780160
94.537000	-0.005792	-0.008195	-0.007556	-0.067668	7522.007264	53311.095265	4163.364249	28336.674071
95.034500	-0.007468	-0.008409	-0.013284	-0.067114	7498.257461	53222.049795	4144.548049	28304.235902
95.534500	-0.006188	-0.008048	-0.009982	-0.066194	7502.083701	53157.318617	4151.652138	28250.398105
96.057000	-0.007554	-0.007862	-0.010408	-0.065664	7481.966012	53117.452462	4148.795065	28219.438070
96.535000	-0.005908	-0.006932	-0.009187	-0.064158	7483.445498	53050.918433	4147.946822	28131.689507
97.035500	-0.006149	-0.007804	-0.010738	-0.064309	7482.484356	52967.677942	4143.774479	28140.444746
97.535500	-0.007802	-0.007350	-0.008803	-0.063332	7454.721895	52907.369123	4146.625992	28083.648190
98.060500	-0.010261	-0.007071	-0.008840	-0.057289	7366.108973	52248.045483	4128.639995	27735.194375
98.536500	-0.006659	-0.007594	-0.013302	-0.062798	7461.143709	52817.930376	4131.719315	28052.670046
