sample name	sample
index	735
start time	 03-25-2021  03:29:29 PM
880	-0.038884
Peak Time (s)	91.035
Peak Height 	-0.03888
calc peak height	90,93
Baseline Time (s)	8.541
Baseline Value 	-0.005624
subtract baseline	10,4
Abs	-0.001020
Peak Time (s)	92.039
Peak Height 	-0.00102
calc peak height	90,93
Baseline Time (s)	10.036
Baseline Value 	0.00656
subtract baseline	10,3
PK_550	-0.000747
Peak Time (s)	91.035
Peak Height 	-7.4696E-4
calc peak height	90,93
Baseline Time (s)	11.536
Baseline Value 	9.7674E-4
subtract baseline	10,2
PK_880	-0.000646
Peak Time (s)	90.535
Peak Height 	-6.457E-4
calc peak height	90,93
Baseline Time (s)	10.036
Baseline Value 	0.001567
subtract baseline	10,1


Time (s)	A880-A510	A880-A775	A880-A975	A880	I510	I775	I975	I880	
0.035000	0.000214	-0.000378	-0.004033	0.002882	7159.060828	43993.639681	3951.025239	23476.682812
0.535500	-0.003114	-0.001226	-0.000717	0.003358	7121.892777	43868.721615	3958.127365	23454.151699
1.036000	-0.002922	-0.000638	-0.000776	0.005767	7100.372531	43697.397716	3951.954783	23340.392813
1.536500	0.000731	-0.000352	-0.003439	0.002942	7163.544695	43990.448570	3952.357481	23473.823771
2.037000	0.000524	-0.001440	-0.000113	0.000695	7183.642423	44100.238226	3966.356115	23580.637644
2.537000	0.002836	0.000420	-0.003212	0.002236	7191.251868	44130.444637	3954.689155	23507.325405
3.037500	-0.001203	-0.000753	-0.003820	0.004047	7133.792160	43848.290139	3948.653905	23421.534733
3.534500	0.000413	-0.001055	0.001108	0.000277	7186.671210	44176.378732	3970.505615	23600.544880
4.035000	0.001230	-0.000331	0.001856	0.000039	7197.108647	44267.836616	3973.010906	23611.908951
4.534500	0.001660	0.000030	-0.000096	0.000362	7198.163221	44271.528561	3967.241023	23596.494613
5.035000	-0.001350	-0.000444	-0.001574	0.005065	7122.437752	43781.528288	3951.713377	23373.456023
5.541500	0.000948	-0.000466	0.001157	0.000022	7194.479426	44256.639325	3971.276551	23612.696789
6.036000	0.003391	0.000256	0.006296	0.000132	7217.626100	44314.858310	3984.120243	23607.435933
6.541500	0.000503	-0.000319	0.003213	0.000256	7187.764323	44248.287641	3975.911857	23601.522504
7.036500	0.000298	-0.000634	0.000323	0.000175	7186.548084	44226.121594	3968.775906	23605.411083
7.537000	-0.001904	-0.000376	-0.001025	-0.000412	7170.620578	44306.594774	3966.848532	23633.442048
8.037000	0.001048	-0.000660	-0.005097	-0.000439	7200.039062	44281.970171	3956.664986	23634.702005
8.541000	0.001275	0.000269	0.002633	0.000000	7197.932731	44328.750622	3975.088626	23613.755272
9.035000	-0.000454	-0.001136	-0.002728	-0.000953	7190.251248	44285.620789	3963.912655	23659.265996
9.535500	0.003564	0.000672	-0.000958	0.000328	7217.406430	44335.844545	3965.147002	23598.111148
10.035500	0.000000	-0.000379	0.000000	-0.000751	7192.747066	44338.479396	3970.302526	23649.606599
10.536000	-0.000519	0.000274	0.001418	0.000000	7180.199988	44329.148018	3971.997446	23613.744198
11.036000	-0.001448	-0.000593	-0.002829	0.004315	7128.797855	43838.115023	3950.455291	23408.883423
11.536000	0.001446	0.000000	0.002388	-0.000243	7202.031211	44326.202745	3975.082618	23625.331799
12.036500	0.001066	-0.000615	-0.003051	-0.000563	7201.447154	44298.150933	3962.117809	23640.653095
12.537000	0.001424	0.000707	-0.002056	0.000189	7197.533214	44352.397068	3962.727366	23604.722718
13.037000	-0.000936	-0.000911	-0.001938	0.004145	7135.441415	43824.154430	3953.101598	23416.888692
13.535000	0.000352	0.000036	-0.004740	0.000553	7183.341328	44253.877342	3955.077739	23587.391014
14.035000	-0.001037	-0.000501	0.000013	0.002196	7153.527378	44046.984529	3962.884993	23509.244490
14.535500	-0.000482	-0.000368	-0.003564	0.002116	7159.746618	44067.049261	3954.106951	23513.014165
15.041000	-0.004053	-0.000076	-0.001532	0.004100	7105.568916	43907.124088	3954.226707	23419.019844
15.536000	0.001336	0.000177	0.002694	0.000802	7190.604518	44243.590604	3973.202875	23575.530673
16.036500	0.001190	-0.000986	-0.000806	0.000080	7196.307637	44201.746841	3966.160618	23609.961561
16.536500	0.001986	-0.000258	-0.002605	0.000181	7203.181391	44261.217672	3961.365809	23605.098757
17.039000	-0.000611	-0.000332	0.000263	0.004756	7132.654580	43821.139596	3957.078668	23388.038752
17.536500	0.001995	-0.000753	-0.004688	-0.000424	7209.284224	44271.761858	3957.653057	23634.007927
18.037500	0.001076	0.000554	-0.001321	0.001912	7177.080042	44173.936179	3960.243557	23522.732884
18.535000	0.001039	-0.000092	-0.005169	0.001348	7182.277811	44166.149856	3952.018714	23549.538513
19.035000	-0.000283	-0.000467	0.000782	0.001776	7165.037670	44089.881559	3965.883236	23529.163671
19.535500	0.000362	-0.000108	0.002324	0.001268	7176.382888	44172.155136	3971.077593	23553.321515
20.035000	0.000297	-0.000515	0.001229	0.001291	7175.524219	44131.410380	3968.242245	23552.241470
20.535500	-0.000137	-0.000368	-0.003279	0.001094	7173.189818	44164.037628	3957.380477	23561.628311
21.036000	0.000618	-0.000680	0.003724	0.000927	7182.267830	44150.189298	3975.504407	23569.545412
21.536500	0.000108	0.000269	0.000178	0.001639	7170.238997	44172.745472	3964.705073	23535.692128
22.036500	0.000970	0.000089	0.001524	0.001530	7179.803880	44166.093496	3968.386049	23540.897610
22.537500	-0.000321	-0.000939	-0.005471	0.000659	7175.660290	44151.112853	3952.983942	23582.323812
23.035000	-0.001888	-0.000165	-0.002549	0.002733	7139.932643	44027.950304	3955.103129	23483.748722
23.535500	0.000785	0.000564	0.000107	0.001855	7174.774100	44180.234576	3963.982233	23525.421101
24.035000	0.001548	0.000177	-0.000050	0.001509	7185.713922	44176.433738	3964.458262	23541.880076
24.536000	0.000536	-0.000799	-0.002069	0.001043	7180.330723	44127.967514	3960.548671	23564.063876
25.036000	0.001864	0.000833	0.002766	0.002127	7182.737359	44180.026073	3970.020100	23512.517864
25.536500	0.000413	0.000126	0.002190	0.001203	7177.532821	44200.607165	3970.902616	23556.423517
26.036000	0.000445	-0.000213	-0.001480	0.001707	7172.884523	44120.551433	3960.358734	23532.463456
26.536500	-0.001243	-0.000536	-0.002351	0.000872	7164.487902	44169.130597	3960.267518	23572.177737
27.037000	0.001338	0.000090	-0.000256	0.000904	7189.610569	44225.526021	3965.465939	23570.640885
27.537000	0.003613	0.000644	0.002765	-0.002088	7241.994694	44564.146990	3980.758876	23713.615073
28.034500	0.000841	0.000273	-0.004288	0.000780	7185.927119	44254.795165	3955.638529	23576.553023
28.535500	0.001110	0.000959	0.003552	0.001249	7183.946186	44275.423169	3974.247440	23554.218999
29.035000	0.000159	-0.000696	-0.000751	0.000069	7186.213293	44230.225896	3966.323202	23610.440265
29.535500	0.002686	-0.000259	0.001436	0.000252	7209.434425	44254.463137	3971.404190	23601.748739
30.036500	0.000979	0.000897	0.000858	0.001428	7180.895659	44252.507264	3966.957031	23545.715236
30.536000	0.001873	-0.000545	-0.004032	-0.000069	7204.548819	44257.842776	3958.409412	23617.068110
31.036500	0.000159	0.000520	-0.004813	0.003349	7153.939494	44034.431277	3947.922268	23454.564345
31.537000	0.003466	0.000674	0.000731	0.001351	7206.266454	44238.648021	3966.831404	23549.383209
32.034500	0.003457	0.000837	0.002275	0.001432	7205.379079	44246.471936	3970.537838	23545.549760
32.537500	0.002061	0.000551	0.000107	0.000848	7197.318831	44274.812252	3966.525240	23573.322725
33.035000	-0.003128	-0.000361	-0.001616	0.005793	7098.128201	43720.893594	3949.795694	23339.162184
33.538000	0.003579	-0.000283	0.001854	0.000234	7218.489216	44253.809904	3972.510451	23602.581699
34.035500	0.002338	0.000276	-0.000780	0.000941	7199.146943	44239.767627	3964.049177	23568.891906
34.536000	0.001509	0.000208	-0.000861	0.001981	7180.669813	44134.502211	3961.225086	23519.452773
35.036000	-0.000511	0.000165	-0.001332	0.003453	7146.363795	43991.059780	3956.347410	23449.642823
35.536500	0.002096	0.000013	0.007469	0.001766	7188.592804	44136.449423	3982.938845	23529.662377
36.037000	-0.000314	-0.000290	-0.002231	0.001595	7166.518689	44123.900657	3958.754049	23537.799877
36.537000	0.001219	-0.000187	-0.002095	0.001841	7179.192994	44110.313237	3958.476735	23526.094006
37.037000	0.000845	0.000302	-0.001420	0.001854	7175.376883	44155.459405	3960.138966	23525.475244
37.534500	0.001826	-0.000116	-0.000891	0.001940	7184.205531	44107.666447	3961.254763	23521.405937
38.035000	0.001014	0.000168	0.001358	0.001773	7177.837226	44150.419043	3967.347111	23529.300720
38.534500	0.001798	-0.000139	-0.005375	0.001905	7184.267835	44108.789184	3950.114786	23523.033088
39.035000	0.000645	-0.000162	0.001857	0.002298	7169.033085	44069.407950	3967.283180	23504.389086
39.536000	0.001655	0.000683	-0.005253	0.002277	7179.182816	44151.448139	3949.491561	23505.362824
40.036000	0.000830	0.000439	0.002079	0.002276	7171.079385	44128.506233	3967.902118	23505.452497
40.537000	-0.000249	-0.000378	-0.001901	0.001647	7166.649621	44110.673408	3959.451362	23535.322138
41.036500	0.000254	-0.000613	0.001586	0.001874	7169.361107	44066.790842	3967.669956	23524.516454
41.537000	0.000270	0.000254	0.000747	0.002013	7168.149167	44135.783610	3965.196974	23517.904793
42.035000	-0.000848	-0.000440	-0.001669	0.001640	7160.826983	44105.356133	3960.050986	23535.626795
42.535000	0.001544	-0.000005	0.001359	0.002008	7180.745507	44111.736911	3966.757024	23518.149831
43.035000	-0.001056	-0.000529	0.002585	0.001914	7156.100620	44070.949691	3970.099369	23522.623872
43.535500	-0.000634	-0.000324	-0.000253	0.001866	7160.702671	44094.897166	3963.044874	23524.882022
44.036000	0.004895	0.001088	0.001739	-0.001347	7247.414406	44535.735995	3976.242362	23678.121706
44.535500	0.001015	-0.000152	0.000165	0.000156	7193.815623	44273.731702	3968.421062	23606.290342
45.036500	-0.002457	-0.000579	-0.001207	0.006093	7101.727459	43672.311683	3950.066019	23325.048833
45.536500	0.002100	0.000385	0.003470	0.000973	7196.471229	44247.143865	3974.742268	23567.387995
46.034000	-0.000092	-0.000836	-0.005178	-0.000231	7186.694926	44245.476989	3955.942059	23624.776329
46.537500	0.001224	0.001136	0.000649	0.001265	7184.924325	44290.796613	3966.839219	23553.466020
47.035000	-0.002339	-0.000344	-0.002220	0.005834	7105.370838	43718.680474	3948.189511	23337.220630
47.537500	-0.000954	0.000486	-0.003282	0.002231	7153.992510	44137.120931	3954.526279	23507.563645
48.035000	0.000772	-0.000422	0.001924	0.001933	7173.876200	44079.316975	3968.377339	23521.723739
48.535500	0.001541	0.000447	0.006145	0.000563	7194.996436	44292.049522	3982.627120	23586.896607
49.036000	-0.002276	-0.000174	-0.001876	0.006182	7102.611919	43701.955756	3948.179665	23320.850541
49.536500	0.002794	0.000653	0.003291	0.000934	7203.738915	44276.331306	3974.384479	23569.242289
50.036500	0.004100	0.000314	0.000956	-0.002403	7250.027767	44562.780355	3976.940190	23728.742441
50.537000	0.003748	0.000860	0.007011	-0.000627	7228.748832	44445.043571	3987.914055	23643.704054
51.037000	-0.007893	-0.002062	0.001003	0.006687	7043.740513	43477.868978	3954.096881	23297.101554
51.534500	-0.048553	-0.008379	0.007330	0.330924	4686.618163	21869.977011	3390.614648	12562.746073
52.035000	-0.062848	-0.013947	-0.004722	0.039170	6287.471772	39539.744898	3862.673914	21826.470248
52.535500	-0.073927	-0.025138	-0.017609	-0.097277	7422.222003	51779.668181	4189.858633	28816.559857
53.036000	-0.055769	-0.055892	-0.000573	-0.222314	9189.799987	63624.521529	4701.201476	37466.450229
53.536000	-0.035610	-0.036602	0.007303	-0.187274	8977.834665	61462.801544	4590.083701	34786.369015
54.036000	-0.034345	-0.035107	0.003332	-0.184567	8957.673249	61299.579241	4563.813595	34588.170586
54.536500	-0.033452	-0.028898	-0.005905	-0.171006	8783.433552	60319.707676	4477.113535	33613.656186
55.036500	-0.020982	-0.028359	-0.009335	-0.179269	9071.276324	61494.787662	4495.116883	34203.793733
55.537000	-0.001575	-0.031774	-0.009317	-0.191568	9538.918726	62705.097523	4541.907868	35103.234135
56.037500	0.000853	-0.029352	-0.006308	-0.188510	9529.290846	62617.824435	4541.721839	34877.259860
56.537500	0.007316	-0.020793	-0.008750	-0.171940	9376.731381	61526.862075	4470.053617	33679.836306
57.035500	0.015382	-0.023536	-0.004657	-0.182268	9657.070244	62559.288547	4524.124357	34420.789520
57.535500	0.018117	-0.022627	-0.006766	-0.181138	9682.101850	62528.922905	4511.823432	34338.877176
58.036000	0.023063	-0.010986	-0.004531	-0.154717	9354.727129	60534.549795	4422.806656	32482.651534
58.536000	0.005856	-0.005128	-0.005479	-0.108324	8474.971695	55401.005567	4262.285827	29484.448337
59.036000	-0.002634	-0.001694	-0.007699	-0.046198	7637.844243	48767.951910	4070.353208	25939.733922
59.536500	-0.002291	-0.003164	-0.007167	-0.075580	7973.722505	51810.829458	4156.053854	27553.128037
60.036500	0.001282	-0.005426	-0.007575	-0.104343	8366.155904	54886.622886	4242.921076	29241.781956
60.537500	0.001119	-0.001780	-0.007944	-0.058363	7814.837917	50060.714572	4103.795913	26594.493229
61.037500	-0.007477	-0.003129	-0.009701	-0.046787	7591.637162	48678.709069	4066.449917	25971.044425
61.535000	-0.001633	-0.003790	-0.009634	-0.049121	7680.872285	48855.331181	4073.091023	26095.412540
62.035500	-0.000676	-0.001323	-0.008380	-0.060183	7815.128587	50308.542921	4107.739690	26694.045669
62.535000	0.007226	0.000102	-0.008168	-0.056829	7866.899850	50098.452477	4098.806433	26510.896039
63.038500	0.008479	0.000363	-0.013118	-0.049186	7794.315623	49303.580910	4063.646189	26098.876954
63.536000	0.012434	0.001847	-0.013219	-0.052451	7876.413547	49813.474801	4072.384553	26274.006404
64.036000	0.014456	0.002077	-0.015083	-0.053814	7915.371469	49985.713850	4070.994231	26347.494157
64.536500	0.016397	0.003299	-0.010374	-0.053964	7939.596482	50134.627438	4084.523291	26355.592735
65.037000	0.016148	0.004480	-0.011260	-0.048652	7875.438174	49687.766995	4067.294252	26070.363284
65.537500	0.021019	0.005359	-0.011468	-0.052749	7979.313120	50226.587034	4078.076148	26290.048671
66.034500	0.022017	0.006009	-0.009966	-0.052269	7985.387000	50245.112387	4080.927437	26264.214075
66.535000	0.021453	0.005641	-0.012321	-0.052788	7984.853488	50261.520586	4075.812331	26292.144055
67.035500	0.017346	0.004713	-0.011502	-0.048607	7888.666843	49707.969936	4066.502504	26067.932385
67.535500	0.019708	0.006407	-0.008198	-0.052867	7965.370500	50353.749441	4087.551279	26296.420228
68.036000	0.020687	0.005298	-0.010264	-0.052727	7975.170320	50217.497156	4081.374100	26288.866984
68.536000	0.018419	0.004914	-0.012129	-0.052567	7946.867973	50158.371627	4075.731495	26280.274907
69.036500	0.014904	0.004818	-0.013021	-0.047999	7853.740650	49653.841959	4060.648549	26035.525171
69.537000	0.014771	0.004754	-0.013045	-0.049428	7868.552118	49800.848582	4064.511267	26111.792075
70.037000	0.015312	0.004770	-0.012268	-0.047813	7856.269622	49628.626013	4062.207256	26025.619529
70.537000	0.013141	0.003896	-0.012360	-0.046576	7817.499254	49402.129201	4058.558436	25959.788404
71.035000	0.008704	0.002806	-0.015311	-0.040549	7700.361647	48646.829225	4034.212107	25641.876142
71.535500	0.010762	0.002588	-0.010226	-0.043881	7760.349535	48975.789371	4057.022279	25817.088248
72.035500	0.011929	0.002509	-0.006593	-0.041494	7746.704205	48715.035184	4060.439229	25691.437378
72.535500	0.010276	0.002129	-0.011358	-0.039888	7710.441564	48506.220226	4043.080072	25607.269947
73.036000	0.005783	0.001290	-0.013165	-0.034427	7601.366082	47849.792732	4023.586253	25323.402765
73.536500	0.008603	0.001276	-0.010193	-0.037446	7665.042904	48161.587403	4039.631190	25479.874428
74.037000	0.008901	0.002295	-0.011394	-0.035427	7646.185822	48057.533714	4030.980273	25375.095688
74.537000	0.009138	0.002246	-0.008785	-0.034054	7633.782275	47910.108967	4034.295352	25304.152695
75.037000	0.007027	0.001985	-0.008351	-0.032433	7593.249459	47715.530781	4031.111304	25220.626070
75.537500	0.006646	0.000657	-0.008839	-0.032868	7593.829316	47623.575451	4030.969308	25242.999558
76.040000	0.004035	0.001351	-0.008947	-0.031350	7549.385228	47538.843519	4026.627237	25165.030211
76.535500	0.005137	0.000660	-0.009037	-0.031335	7561.047155	47466.421930	4026.344742	25164.242099
77.036000	-0.000407	0.000621	-0.008616	-0.026699	7452.989140	46989.569182	4015.163435	24927.766645
77.535500	0.003254	0.002386	-0.004856	-0.029079	7516.799415	47412.106415	4031.488699	25048.841229
78.036500	0.001998	0.001447	-0.008694	-0.029461	7507.517543	47355.093444	4022.272033	25068.343793
78.536500	0.000628	0.000639	-0.005896	-0.030043	7499.156201	47331.938969	4031.284784	25098.065378
79.036500	-0.002953	0.001317	-0.006763	-0.024706	7405.612117	46858.178656	4014.795215	24826.855189
79.537000	-0.000165	0.001668	-0.010633	-0.028998	7479.718619	47330.333727	4015.909428	25044.722109
80.035000	0.000115	0.000561	-0.010083	-0.029950	7492.743774	47314.460877	4019.881540	25093.327320
80.534500	0.000585	0.001414	-0.008847	-0.029377	7491.642805	47343.040477	4021.641441	25064.045364
81.035000	-0.001562	-0.000154	-0.007206	-0.029969	7475.226353	47243.351412	4027.585476	25094.300278
81.535500	-0.001233	0.001203	-0.002863	-0.030358	7482.808080	47421.969279	4040.284539	25114.219909
82.035500	-0.001972	0.000851	-0.008010	-0.030739	7479.024529	47424.876136	4027.495775	25133.687882
82.536000	-0.002351	0.000512	-0.005547	-0.031439	7482.409354	47461.806430	4035.966448	25169.562550
83.036000	-0.004623	0.000338	-0.008447	-0.028877	7431.650322	47182.261423	4021.376676	25038.556631
83.537000	-0.003805	-0.000498	-0.004023	-0.032976	7483.290554	47516.020614	4044.226906	25248.589594
84.037000	-0.002530	-0.000396	-0.005169	-0.033443	7501.714224	47574.350763	4042.387356	25272.604012
84.534500	-0.001826	0.000280	-0.010908	-0.033947	7514.546291	47695.848944	4028.321107	25298.593461
85.037500	-0.006388	-0.000849	-0.013184	-0.032701	7453.198632	47451.723472	4018.955077	25234.401975
85.535000	-0.002506	-0.000560	-0.004331	-0.035217	7520.828872	47740.229597	4049.470925	25364.246477
86.035500	-0.002076	-0.000846	-0.006253	-0.036651	7540.719628	47858.840624	4048.142814	25438.571619
86.535500	-0.003967	-0.001354	-0.008341	-0.037334	7527.817698	47876.972114	4044.333734	25474.065589
87.036000	-0.003539	-0.000801	-0.009303	-0.037566	7534.862948	47958.308990	4042.358953	25486.123226
87.536000	-0.004149	-0.001684	-0.001097	-0.038864	7542.205883	48001.299607	4068.328903	25553.745743
88.036000	-0.001349	-0.000746	-0.012691	-0.038805	7571.635089	48092.727570	4036.564351	25550.704438
88.537000	-0.000869	-0.000821	-0.005103	-0.039644	7585.840958	48172.156895	4059.449059	25594.493441
89.037000	-0.002438	-0.001160	-0.009015	-0.040659	7579.870688	48242.653831	4051.532791	25647.623261
89.537000	-0.002290	-0.000767	-0.012897	-0.040985	7584.990342	48317.829090	4041.885471	25664.740310
90.034500	-0.002794	-0.000917	-0.003926	-0.041435	7584.397935	48349.056414	4067.616649	25688.323340
90.535000	-0.000646	-0.001431	-0.003227	-0.042576	7620.039413	48414.719312	4072.708086	25748.302550
91.035000	-0.004673	-0.000747	-0.011577	-0.038884	7536.825007	48100.798148	4039.778299	25554.821847
91.536000	-0.001123	-0.001474	-0.009509	-0.043759	7627.721390	48534.333709	4058.653180	25810.651839
92.039000	-0.001671	-0.001314	-0.001020	-0.043837	7622.600056	48559.310226	4082.363891	25814.777520
92.536500	-0.001188	-0.001638	-0.004820	-0.044436	7634.384021	48588.143868	4073.448743	25846.394124
93.036500	-0.003962	-0.001660	-0.009583	-0.040893	7565.977525	48214.872521	4050.623008	25659.882890
93.536500	0.001353	-0.000682	-0.002990	-0.044692	7665.009553	48715.783340	4079.250024	25859.960155
94.037000	0.000992	-0.001331	-0.008930	-0.045289	7667.589860	48710.255365	4064.446578	25891.532544
94.537000	0.001553	-0.001509	-0.008624	-0.045151	7672.245817	48676.983672	4064.907890	25884.238201
95.035000	-0.000191	-0.001201	-0.010777	-0.041474	7613.005478	48323.536162	4048.957026	25690.380107
95.535000	0.000660	-0.000912	-0.007276	-0.045191	7662.870958	48744.170678	4068.738074	25886.347753
96.035000	0.002031	-0.001291	-0.005172	-0.045264	7678.746684	48711.914422	4074.770467	25890.228968
96.535500	0.001533	-0.001037	-0.009159	-0.044287	7662.537154	48635.726143	4061.062007	25838.545578
