sample name	sample
index	301
start time	 02-25-2021  02:06:56 PM
880	-0.018471
Peak Time (s)	92.536
Peak Height 	-0.01847
calc peak height	90,93
Baseline Time (s)	9.037
Baseline Value 	-0.004685
subtract baseline	10,4
Abs	-0.005978
Peak Time (s)	90.037
Peak Height 	-0.005978
calc peak height	90,93
Baseline Time (s)	8.537
Baseline Value 	3.6587E-5
subtract baseline	10,3
PK_550	-0.003550
Peak Time (s)	92.035
Peak Height 	-0.00355
calc peak height	90,93
Baseline Time (s)	10.537
Baseline Value 	2.6278E-4
subtract baseline	10,2
PK_880	-0.009143
Peak Time (s)	92.035
Peak Height 	-0.009143
calc peak height	90,93
Baseline Time (s)	11.035
Baseline Value 	0.002971
subtract baseline	10,1


Time (s)	A880-A510	A880-A775	A880-A975	A880	I510	I775	I975	I880	
0.035000	-0.000735	-0.000090	0.004060	0.002520	6848.042825	45587.407796	4002.649885	24103.382941
0.537500	-0.004793	-0.000730	-0.005146	0.003437	6803.516471	45434.874864	3977.617655	24058.711530
1.035500	-0.002309	-0.000386	-0.004193	0.004660	6814.751558	45348.905735	3976.956871	23999.272446
1.537000	-0.001053	-0.000006	-0.002418	0.002041	6849.493902	45642.717288	3987.745153	24126.741064
2.036000	-0.001810	-0.000297	-0.001464	0.001726	6845.509654	45645.033900	3990.878713	24142.100594
2.536000	-0.001894	0.000020	0.002875	0.001358	6848.065405	45712.428970	4002.590824	24160.083246
3.036500	-0.000479	-0.000160	0.004708	-0.000036	6873.436151	45832.166159	4010.693122	24228.363653
3.537000	-0.000220	0.000319	0.000048	0.000825	6867.978196	45794.406775	3996.867074	24186.156709
4.037000	-0.000991	-0.000103	0.001349	0.000108	6867.500960	45823.556331	4001.901792	24221.310949
4.537500	-0.001121	0.000350	0.001934	0.000594	6861.927588	45820.325961	4002.149877	24197.504505
5.034500	-0.001147	0.000175	-0.003420	0.000340	6863.991923	45828.064859	3989.470575	24209.930786
5.535000	-0.001486	0.000477	0.003764	0.000863	6856.199765	45806.221483	4006.058573	24184.295953
6.038000	-0.000248	-0.000031	-0.001020	0.000084	6874.445417	45833.090683	3996.055204	24222.496608
6.535500	-0.001666	-0.000252	0.003756	-0.000024	6862.583930	45821.845839	4008.266118	24227.754972
7.036000	-0.003195	-0.000689	-0.004697	0.004596	6807.427002	45325.689790	3975.884728	24002.394786
7.536000	-0.000740	-0.000645	-0.000976	-0.000794	6877.940719	45859.128852	3998.350350	24265.574289
8.036500	0.000402	-0.000203	0.004840	-0.000196	6882.878995	45843.725580	4011.430026	24236.203507
8.536500	0.001339	0.000099	0.000000	0.000209	6887.711636	45833.527960	3998.281306	24216.328724
9.037000	0.000032	-0.000218	-0.001336	0.000000	6877.739528	45822.879971	3995.478336	24226.597260
9.534500	0.000439	0.000222	-0.001205	-0.000065	6882.024970	45872.721033	3995.965709	24229.773682
10.034500	-0.001757	-0.000469	0.001039	-0.000045	6861.949575	45802.494125	4001.507270	24228.788481
10.537500	-0.002994	0.000000	0.003456	0.000315	6847.560302	45813.323866	4006.663241	24211.170466
11.035000	0.000000	0.000961	0.002697	0.001242	6866.202753	45816.601001	4002.436658	24165.770075
11.535500	-0.001405	-0.000969	-0.001425	-0.000769	6871.684868	45824.618881	3997.170088	24264.348295
12.036000	0.000190	-0.000681	0.000419	-0.000743	6885.914058	45850.481067	4001.702611	24263.054137
12.536500	-0.000892	-0.000316	0.004986	0.000055	6868.867154	45807.745902	4011.164659	24223.885549
13.036500	-0.002723	-0.000146	-0.003028	0.005859	6800.382592	45255.445469	3976.875054	23941.181671
13.537000	-0.001612	-0.000471	0.001777	0.000802	6855.616795	45718.822162	4001.235808	24187.289881
14.037000	-0.002959	-0.000551	0.001202	0.001093	6840.876178	45682.364283	3999.075979	24173.075638
14.537500	-0.002677	0.000290	0.002244	0.002988	6826.414275	45578.745691	3996.950854	24080.565224
15.035000	-0.003358	-0.000318	-0.002111	0.006451	6789.484372	45181.021606	3977.669348	23912.536220
15.566500	-0.000842	-0.000384	0.004344	0.000750	6863.044170	45732.575862	4007.800141	24189.856989
16.035500	0.000537	-0.000050	-0.001518	0.000813	6874.949877	45759.255307	3993.009244	24186.771348
16.536000	0.000611	0.000182	0.003220	0.000702	6876.625713	45793.018532	4005.098526	24192.186405
17.036000	-0.004611	-0.000785	0.001535	0.006153	6781.033304	45164.679326	3987.353041	23926.959461
17.536500	-0.002115	-0.000044	0.003571	0.000494	6853.860967	45791.286104	4006.499676	24202.386203
18.036500	-0.000704	-0.000201	0.003292	0.001140	6860.761944	45712.170368	4004.182134	24170.771883
18.537000	0.000585	-0.000524	0.000358	0.001522	6868.962116	45642.795896	3995.905685	24152.090281
19.037500	-0.004022	-0.001056	-0.001227	0.003238	6812.151685	45422.391596	3987.729678	24068.371202
19.534500	-0.002146	-0.000810	-0.000084	0.000872	6850.174899	45678.614713	3996.424474	24183.892815
20.035500	-0.003843	-0.000425	0.004064	0.001445	6829.787192	45660.137298	4005.352103	24155.868496
20.535500	-0.001060	-0.000224	0.005600	0.001747	6852.082361	45650.205330	4008.451769	24141.102998
21.038500	-0.001732	0.000317	0.002041	0.003878	6826.908854	45494.171982	3994.234882	24037.272132
21.536000	-0.002504	-0.000747	0.002069	0.001631	6840.134459	45610.261152	3999.896801	24146.778102
22.036000	-0.000427	0.000251	-0.000820	0.002489	6851.093649	45623.899971	3990.584943	24104.875157
22.536500	-0.002410	-0.000339	-0.000550	0.001922	6838.355754	45621.703056	3992.659581	24132.541419
23.036500	-0.002101	-0.000437	-0.001136	0.003170	6829.935912	45489.707820	3988.123821	24071.703501
23.537000	0.000317	0.000252	0.005203	0.002145	6860.901967	45657.797578	4006.453164	24121.644534
24.036500	-0.002302	-0.000040	0.001614	0.002427	6834.798692	45601.395195	3996.778423	24107.888631
24.538000	-0.001559	0.000314	0.002101	0.002195	6843.558662	45659.106022	3998.568982	24119.237267
25.038000	-0.001618	0.000549	0.002113	0.003437	6831.872328	45560.150227	3995.508081	24058.696637
25.535500	-0.000583	-0.000617	0.004422	0.001412	6859.399457	45644.433584	4006.330929	24157.452723
26.035500	-0.000559	0.000284	-0.002084	0.002023	6854.102179	45673.020563	3988.614294	24127.610785
26.536000	-0.003443	-0.000606	0.007694	0.001429	6833.510465	45643.847331	4014.532619	24156.607818
27.036500	-0.001401	0.000040	-0.000013	0.002672	6840.687982	45585.322521	3992.131325	24095.979562
27.536500	-0.001604	0.000385	0.000571	0.002435	6840.991399	45642.332489	3994.166664	24107.488801
28.037000	-0.000110	0.000237	0.003502	-0.000595	6881.858068	45926.688023	4009.065233	24255.815235
28.537500	-0.001536	-0.000241	0.005021	0.000736	6856.902897	45748.015133	4009.538181	24190.541565
29.041000	-0.000965	-0.000053	0.004475	0.001267	6857.257452	45714.234183	4006.829888	24164.533343
29.535000	-0.003110	-0.000818	0.001160	0.000104	6848.409238	45753.394700	4001.438673	24221.501661
30.035500	-0.000920	-0.000068	0.003235	0.000744	6862.381701	45764.263461	4005.029035	24190.119533
30.536000	-0.001303	0.000399	0.007136	0.001212	6854.710298	45764.120564	4013.671156	24167.232055
31.036000	-0.002993	-0.000945	0.001933	0.000742	6843.726651	45678.085517	4001.775632	24190.241598
31.541500	-0.001342	-0.000137	0.002366	0.000773	6858.315731	45754.600129	4002.780693	24188.724756
32.038500	-0.001906	0.000310	-0.004201	0.003368	6829.914419	45543.500419	3980.099141	24062.074303
32.555000	-0.001777	-0.000105	0.004730	0.002467	6839.158493	45591.156706	4004.459001	24105.972075
33.039000	-0.001795	0.000170	0.002071	0.001525	6847.463511	45710.858335	4000.167057	24151.956661
33.540000	0.000844	-0.000534	0.003963	0.001002	6876.015025	45692.888052	4006.209813	24177.495566
34.034500	-0.002861	-0.000127	0.001935	0.000604	6846.151025	45772.261199	4002.125760	24197.007485
34.535500	-0.002098	-0.000624	0.006257	0.000949	6849.920544	45689.370076	4012.117424	24180.125576
35.035000	-0.004487	-0.000593	0.002874	0.005049	6791.916948	45290.846327	3993.394678	23980.419264
35.535500	-0.001803	0.000250	0.003186	0.002752	6836.363359	45598.099236	3999.887333	24092.078344
36.038500	-0.002564	-0.000467	0.002885	0.002016	6836.133511	45599.835711	4000.971714	24127.951988
36.536500	-0.002049	-0.000492	0.000273	0.002665	6834.932934	45533.760127	3992.858607	24096.310569
37.038500	-0.001105	-0.000041	-0.000059	0.003202	6838.583379	45525.337782	3990.705681	24070.144271
37.537000	-0.000507	-0.000414	-0.000031	0.002414	6851.057136	45566.028578	3992.726749	24108.552693
38.037500	-0.002661	0.000138	0.002231	0.002459	6831.296275	45615.778874	3998.235173	24106.345585
38.537500	-0.003537	-0.000686	0.001528	0.001796	6829.384464	45599.933454	3998.134489	24138.687588
39.035000	-0.001327	-0.000008	0.002130	0.003107	6837.439920	45537.836322	3996.369854	24074.759333
39.535500	-0.001644	0.000234	0.008413	0.002826	6837.119407	45589.108547	4012.818695	24088.435850
40.038500	-0.002193	-0.000499	0.003835	0.001598	6843.216410	45637.747843	4004.394535	24148.361635
40.536000	-0.001603	-0.000244	0.003152	0.002070	6844.283583	45616.496378	4001.504257	24125.333380
41.036000	-0.001450	-0.000118	0.000792	0.003435	6833.396233	45494.977213	3992.234848	24058.795063
41.536500	-0.000692	0.000371	-0.001237	0.002555	6848.117530	45629.246305	3989.391753	24101.678847
42.037000	-0.000223	-0.000512	0.007758	0.002023	6857.130868	45594.707549	4013.193009	24127.600917
42.537000	-0.003634	0.000321	0.000091	0.002724	6820.218455	45607.737556	3992.261375	24093.439163
43.037500	-0.001719	0.000506	-0.000222	0.003236	6832.770771	45575.665066	3990.219271	24068.504158
43.534500	-0.001804	0.000085	0.002687	0.002528	6838.359806	45603.768277	3999.198748	24102.952339
44.036500	-0.002600	0.000226	0.004144	0.002820	6828.607467	45589.060774	4002.110061	24088.759548
44.535500	-0.000185	-0.000051	0.003831	0.002438	6853.730380	45599.309646	4002.281355	24107.362192
45.036000	-0.001131	-0.000762	0.007223	0.003972	6831.442376	45379.466312	4006.938231	24032.702888
45.536000	-0.001418	-0.000057	0.005357	0.001004	6855.543077	45739.652371	4009.708064	24177.390884
46.036500	-0.001945	-0.000817	0.007840	0.000454	6855.751186	45719.030793	4017.373235	24204.345081
46.536000	-0.002743	0.000092	0.001868	0.004081	6816.046158	45452.224690	3993.298883	24027.368628
47.036000	-0.003944	0.000580	-0.001770	0.005885	6789.315791	45323.719012	3979.890045	23939.937837
47.536500	-0.001588	0.000082	0.006719	0.001000	6854.050349	45753.870576	4013.155070	24177.617752
48.034500	0.000044	0.000393	0.005219	0.001625	6863.132759	45722.870928	4007.799023	24147.035108
48.564500	-0.003045	-0.000219	0.001492	0.004578	6808.916618	45373.265236	3991.136645	24003.233467
49.035000	-0.003386	-0.000380	0.001787	0.005011	6802.030117	45315.328803	3990.796294	23982.262576
49.535500	-0.001711	0.000016	-0.001833	0.003158	6833.538381	45535.153862	3986.433120	24072.262760
50.049000	0.000861	0.001194	0.006348	0.002137	6865.896470	45751.333449	4009.352083	24122.054804
50.536000	-0.001838	-0.000088	-0.000608	0.004123	6823.761140	45430.608513	3987.075348	24025.360924
51.037000	-0.006424	-0.000181	-0.000784	0.006352	6763.277685	45204.066584	3981.160834	23917.352915
51.537000	0.000416	0.000937	0.009037	-0.000533	6886.063419	45989.763275	4022.923437	24252.732718
52.040000	0.000500	0.000153	0.006398	-0.000914	6890.301627	45949.908471	4017.185175	24271.492353
52.537500	-0.004042	-0.001084	0.002454	0.005447	6792.324420	45204.224019	3991.367825	23961.111682
53.037500	0.001106	-0.002506	0.002391	0.007108	6823.392553	44905.409330	3987.108932	23880.837314
53.535000	-0.026455	-0.022435	0.011511	0.101523	5872.219672	35195.123812	3796.151077	19786.728897
54.035500	-0.023740	-0.024926	0.007091	-0.056605	7187.061290	49089.677195	4169.814765	27191.717237
54.535500	-0.025915	-0.022478	0.002293	-0.090515	7509.109533	53118.182966	4256.729928	29162.245863
55.035500	-0.026832	-0.020852	-0.005235	-0.081575	7406.550927	52280.466041	4206.849553	28627.709736
55.536000	-0.028375	-0.015874	-0.010599	-0.076332	7337.286898	52250.437627	4175.712512	28319.337907
56.036500	-0.011390	-0.016114	-0.010443	-0.129010	8102.538541	58576.467662	4338.644870	31593.846679
56.537000	-0.004768	-0.011080	-0.005992	-0.116958	8038.383000	57684.918148	4313.967813	30809.252670
57.037000	-0.006712	-0.005785	-0.002825	-0.068627	7480.942170	52521.678614	4175.911537	27872.810060
57.537000	-0.007874	-0.008349	-0.000429	-0.054151	7320.300223	50614.621695	4141.354310	27055.013385
58.035000	-0.004887	-0.009580	-0.003511	-0.098080	7820.126351	55538.211344	4262.176365	29623.234252
58.535000	-0.006653	-0.008353	-0.005320	-0.083846	7643.570386	53986.732712	4213.364448	28762.466411
59.035000	-0.007891	-0.008191	-0.003464	-0.054757	7326.247963	50698.516646	4134.521906	27088.725801
59.536000	-0.009244	-0.006496	0.002375	-0.034550	7113.764049	48706.195485	4094.876099	25990.270491
60.036000	-0.008668	-0.006812	-0.006175	-0.027746	7054.314564	47962.235990	4053.931254	25631.744120
60.536500	-0.010063	-0.006938	-0.003888	-0.022651	6993.273633	47424.441239	4046.599582	25366.935389
61.036500	-0.010862	-0.007201	-0.007853	-0.017746	6940.376550	46898.479855	4023.746961	25114.935739
61.537000	-0.010789	-0.007494	-0.005894	-0.021924	6979.732407	47293.344490	4039.507664	25329.410649
62.037500	-0.013551	-0.008353	-0.006380	-0.023983	6973.204513	47416.000144	4043.584814	25435.889841
62.540000	-0.015621	-0.008656	-0.004359	-0.022972	6944.684127	47281.680130	4046.208296	25383.544077
63.035000	-0.007961	-0.003931	-0.011180	-0.020959	6997.109113	47559.308339	4023.456272	25279.694980
63.535000	-0.009609	-0.007232	-0.004665	-0.042938	7191.607362	49519.484738	4098.540239	26440.050503
64.036000	-0.003552	0.000168	-0.011174	-0.041659	7238.657203	50180.461410	4077.527080	26370.923028
64.536000	-0.007495	-0.000130	-0.011607	-0.035932	7143.969906	49529.754044	4061.169145	26063.761161
65.036000	-0.007122	-0.000282	-0.007652	-0.037175	7159.648839	49646.978403	4074.958149	26130.113250
65.590500	-0.008660	-0.001234	-0.009552	-0.040675	7178.756717	49921.679156	4079.233499	26317.846122
66.039500	-0.008865	-0.000847	-0.012338	-0.040300	7173.099153	49922.873470	4070.797082	26297.628722
66.537000	-0.010202	-0.001486	-0.011112	-0.035846	7117.021054	49375.453069	4062.248879	26059.220612
67.037500	-0.012749	-0.001617	-0.011616	-0.036587	7099.679527	49440.687278	4062.874203	26098.706008
67.537500	-0.009465	-0.002396	-0.010371	-0.042663	7190.319382	50011.002197	4082.367196	26425.133734
68.035500	-0.007144	-0.001449	-0.009950	-0.042384	7210.356536	50083.489815	4082.747517	26410.044690
68.538500	-0.009702	-0.002614	-0.014465	-0.038334	7145.857161	49520.994618	4059.968071	26192.103922
69.036000	-0.010184	-0.001633	-0.017293	-0.038077	7138.702768	49598.634531	4051.872315	26178.311053
69.536000	-0.009138	-0.002861	-0.004663	-0.044824	7214.740547	50195.097813	4103.690427	26542.352734
70.036500	-0.007397	-0.002766	-0.004883	-0.044905	7232.714502	50214.237727	4103.308522	26546.749711
70.539500	-0.006978	-0.002804	-0.005943	-0.044644	7234.293399	50181.853058	4099.705697	26532.598133
71.037000	-0.010490	-0.003491	-0.011800	-0.040038	7154.742530	49609.780369	4071.535260	26283.580375
71.537000	-0.008081	-0.003065	-0.011831	-0.044495	7221.922115	50137.211789	4083.367971	26524.484632
72.037500	-0.010500	-0.003885	-0.003714	-0.043843	7191.745854	49977.551206	4103.601690	26489.083313
72.535000	-0.011642	-0.003816	-0.014563	-0.038380	7127.555332	49397.182168	4059.833511	26194.578202
73.035000	-0.012513	-0.003826	-0.009878	-0.037375	7109.492738	49288.784948	4069.562511	26140.767540
73.535500	-0.009270	-0.004122	-0.006722	-0.042533	7190.958826	49810.392766	4091.855392	26418.123625
74.035500	-0.008553	-0.004341	-0.009209	-0.042130	7194.031587	49743.265197	4084.057314	26396.309211
74.536000	-0.015155	-0.004744	-0.012640	-0.036411	7075.009394	49088.443275	4059.711724	26089.316823
75.039000	-0.014852	-0.005657	-0.011309	-0.036770	7081.321916	49029.617730	4064.168438	26108.440583
75.537000	-0.011415	-0.005447	-0.013621	-0.040763	7152.800876	49477.620265	4068.619815	26322.566614
76.037000	-0.011084	-0.004934	-0.006883	-0.039762	7146.303715	49425.487657	4083.944839	26268.735133
76.537500	-0.013680	-0.005002	-0.009806	-0.032984	7056.470206	48698.678438	4058.151743	25907.283212
77.034500	-0.008005	-0.004206	-0.007099	-0.037300	7152.276801	49240.186796	4076.766215	26136.745670
77.534500	-0.009746	-0.005195	-0.002611	-0.036885	7131.422877	49090.905713	4087.701314	26114.602357
78.035000	-0.010370	-0.005598	-0.007837	-0.036786	7124.450603	49037.567659	4073.425521	26109.314396
78.535500	-0.014649	-0.004792	-0.008084	-0.030401	7022.924683	48449.399536	4055.890181	25771.004250
79.036000	-0.011667	-0.005197	-0.009450	-0.030261	7049.731387	48392.273936	4051.942633	25763.603812
79.536000	-0.008637	-0.004735	-0.006196	-0.034499	7119.114095	48886.809581	4071.705504	25987.579387
80.036500	-0.009912	-0.004463	-0.007696	-0.033977	7101.848262	48860.266843	4066.337287	25959.840928
80.537000	-0.010129	-0.005501	-0.003790	-0.033648	7096.614030	48715.969652	4075.848772	25942.397805
81.037500	-0.011836	-0.004661	-0.010874	-0.028677	7033.175899	48282.753978	4044.103379	25680.462253
81.534500	-0.010442	-0.004766	-0.008060	-0.032742	7084.965839	48698.063419	4062.113114	25894.464715
82.035500	-0.009813	-0.004948	-0.005441	-0.032239	7086.164834	48625.904405	4067.706883	25867.850607
82.535500	-0.011973	-0.004167	-0.008694	-0.026862	7014.813594	48145.159649	4045.052908	25585.588046
83.035500	-0.011537	-0.004130	-0.005648	-0.030996	7057.938378	48581.262586	4063.871586	25802.321825
83.535500	-0.010561	-0.004918	-0.004403	-0.030701	7064.399077	48467.691263	4066.384091	25786.782139
84.036000	-0.009182	-0.005357	-0.009207	-0.030779	7078.261063	48429.825567	4053.934628	25790.886976
84.539000	-0.013775	-0.005721	-0.009635	-0.026405	6993.669988	47936.415461	4041.424005	25561.767074
85.036500	-0.009864	-0.004679	-0.004714	-0.029422	7058.871012	48358.793062	4062.181022	25719.542045
85.537000	-0.008740	-0.004396	-0.005197	-0.028776	7063.406016	48320.788627	4059.205106	25685.658653
86.037500	-0.010066	-0.004965	-0.003822	-0.029046	7053.395271	48289.609588	4063.541306	25699.819861
86.535000	-0.012940	-0.004703	-0.008162	-0.025624	6994.178204	47960.976782	4043.220795	25521.119451
87.035500	-0.010448	-0.004695	-0.005863	-0.028418	7043.834488	48252.287756	4056.514456	25666.925611
87.535000	-0.010223	-0.004074	-0.008401	-0.027481	7037.114494	48219.285633	4047.426566	25617.910697
88.035500	-0.010199	-0.004683	-0.011684	-0.027471	7037.243648	48154.789894	4038.878587	25617.374365
88.536000	-0.011452	-0.004337	-0.008942	-0.022027	6974.526930	47627.381802	4031.916271	25334.720842
89.039000	-0.010531	-0.005200	-0.009113	-0.026883	7028.573206	48040.052876	4044.018481	25586.698382
89.542000	-0.009668	-0.004506	-0.008683	-0.025800	7026.495481	47999.574429	4042.323717	25530.239807
90.036500	-0.010364	-0.004657	-0.005978	-0.025625	7018.310527	47965.840740	4048.903078	25521.134582
90.537500	-0.010394	-0.003778	-0.011327	-0.024435	7006.870543	47933.694513	4031.977879	25459.341632
91.035000	-0.009639	-0.004391	-0.006387	-0.024581	7015.316671	47885.283533	4045.121195	25466.909739
91.535500	-0.009538	-0.003652	-0.006024	-0.023807	7008.999109	47881.672062	4044.051084	25426.761128
92.035500	-0.009143	-0.003550	-0.008404	-0.022935	7004.539551	47802.077631	4035.638043	25381.641115
92.536000	-0.011689	-0.004125	-0.008828	-0.018471	6939.437987	47284.701740	4023.110361	25152.012676
93.036000	-0.012451	-0.004275	-0.008982	-0.018298	6930.835580	47251.849526	4022.277593	25143.184039
93.539000	-0.008505	-0.004013	-0.006136	-0.022268	7004.269534	47685.641748	4039.773342	25347.198885
94.036500	-0.011061	-0.003409	-0.007916	-0.021949	6977.438274	47714.936142	4034.355153	25330.727758
94.536500	-0.009634	-0.003581	-0.003700	-0.021442	6986.010443	47644.995668	4043.947629	25304.603544
95.037000	-0.009079	-0.003502	-0.007721	-0.021608	6992.725793	47670.124162	4033.977689	25313.110888
95.537500	-0.007925	-0.003142	-0.007394	-0.020673	6994.779158	47611.055671	4032.416658	25265.004324
96.037500	-0.009269	-0.003472	-0.007031	-0.021115	6986.357241	47622.593413	4034.487613	25287.736704
96.554500	-0.009949	-0.003176	-0.005799	-0.020460	6973.927804	47585.611098	4035.971715	25254.017826
97.035500	-0.012873	-0.003460	-0.011187	-0.015344	6899.923627	47034.180110	4009.216095	24992.580561
97.535500	-0.010256	-0.002197	-0.005268	-0.019196	6959.362686	47556.336882	4034.084983	25189.136800
98.036000	-0.009323	-0.002599	-0.006287	-0.019162	6967.688949	47511.584944	4031.377721	25187.386048
98.536000	-0.010656	-0.002874	-0.011207	-0.017539	6940.368990	47317.317599	4014.703862	25104.383005
99.037000	-0.012175	-0.002772	-0.011463	-0.014464	6898.269530	47014.689290	4006.311770	24947.917445
