sample name	sample
index	989
start time	 04-14-2021  04:07:26 PM


Wavelength (nm)	Absorbance
494.344910	-0.455468
494.563924	-0.455468
494.782919	-0.455468
495.001897	-0.078583
495.220856	-0.198722
495.439797	-0.199222
495.658719	0.060722
495.877624	0.446800
496.096510	0.068925
496.315378	-0.068589
496.534227	-0.094196
496.753059	-0.219316
496.971872	-0.148248
497.190667	-0.005866
497.409444	-0.000231
497.628203	-0.004650
497.846943	-0.008593
498.065665	-0.004366
498.284369	-0.004008
498.503055	-0.003306
498.721723	-0.003093
498.940372	-0.001556
499.159003	-0.002108
499.377616	-0.001727
499.596210	-0.001335
499.814787	0.000144
500.033345	-0.000492
500.251885	0.000476
500.470406	0.001093
500.688910	0.000759
500.907395	0.000624
501.125862	0.001462
501.344311	0.001481
501.562742	0.001758
501.781154	0.001591
501.999548	0.001396
502.217924	0.000644
502.436282	-0.000224
502.654621	-0.000157
502.872942	-0.000782
503.091245	-0.001553
503.309530	-0.002419
503.527797	-0.003155
503.746045	-0.002892
503.964275	-0.002096
504.182487	-0.001940
504.400681	-0.000550
504.618856	-0.000178
504.837013	0.000353
505.055152	0.000114
505.273273	0.000340
505.491376	0.000819
505.709460	0.000146
505.927526	-0.000821
506.145574	-0.001629
506.363604	-0.002288
506.581615	-0.002908
506.799608	-0.002912
507.017583	-0.002147
507.235540	-0.002217
507.453478	-0.002183
507.671399	-0.001675
507.889301	-0.000946
508.107185	0.000033
508.325050	-0.000568
508.542898	-0.000290
508.760727	-0.001541
508.978538	-0.001416
509.196330	-0.002094
509.414105	-0.002315
509.631861	-0.001953
509.849599	-0.001509
510.067319	-0.001549
510.285021	-0.001701
510.502704	-0.000994
510.720369	-0.000397
510.938016	-0.001361
511.155645	-0.000864
511.373255	-0.001135
511.590848	-0.000748
511.808422	-0.001103
512.025977	-0.001210
512.243515	-0.000786
512.461034	-0.001351
512.678536	-0.001047
512.896018	-0.001401
513.113483	-0.001109
513.330930	-0.000217
513.548358	-0.000765
513.765768	-0.000554
513.983160	-0.000513
514.200533	-0.000657
514.417889	-0.000854
514.635226	-0.000599
514.852545	0.000069
515.069845	0.000043
515.287128	-0.000546
515.504392	-0.000708
515.721638	-0.001072
515.938866	-0.000916
516.156075	-0.001300
516.373267	-0.000862
516.590440	-0.001316
516.807594	-0.001393
517.024731	-0.001637
517.241850	-0.001701
517.458950	-0.001135
517.676032	-0.001637
517.893095	-0.001919
518.110141	-0.001445
518.327168	-0.001989
518.544177	-0.002210
518.761168	-0.002172
518.978141	-0.002319
519.195095	-0.002050
519.412031	-0.002764
519.628949	-0.002602
519.845849	-0.002969
520.062731	-0.003322
520.279594	-0.002861
520.496439	-0.003048
520.713266	-0.002824
520.930074	-0.002637
521.146865	-0.002722
521.363637	-0.002368
521.580391	-0.002167
521.797127	-0.001387
522.013844	-0.001096
522.230543	-0.001420
522.447224	-0.001266
522.663887	-0.001709
522.880532	-0.002499
523.097158	-0.002447
523.313766	-0.002513
523.530356	-0.002420
523.746928	-0.002483
523.963481	-0.002359
524.180017	-0.002104
524.396534	-0.002004
524.613032	-0.001738
524.829513	-0.000829
525.045975	-0.001096
525.262420	-0.000686
525.478845	-0.000258
525.695253	-0.000421
525.911643	-0.000282
526.128014	-0.000633
526.344367	-0.001077
526.560702	-0.000814
526.777018	-0.000793
526.993316	-0.000397
527.209597	-0.001087
527.425858	-0.001748
527.642102	-0.001457
527.858328	-0.001683
528.074535	-0.001106
528.290724	-0.000499
528.506894	-0.000488
528.723047	-0.000322
528.939181	-0.000282
529.155297	0.000113
529.371395	0.000219
529.587475	0.000139
529.803536	0.000221
530.019579	0.000115
530.235604	0.000757
530.451611	0.000844
530.667600	0.000803
530.883570	0.000792
531.099522	0.000493
531.315456	0.001024
531.531372	0.001397
531.747269	0.001338
531.963148	0.001236
532.179009	0.000892
532.394852	0.000640
532.610676	0.000713
532.826482	0.000580
533.042271	0.000927
533.258040	0.000644
533.473792	0.000923
533.689525	0.001253
533.905240	0.001341
534.120937	0.001090
534.336616	0.001464
534.552277	0.001480
534.767919	0.001378
534.983543	0.001460
535.199149	0.001558
535.414736	0.000983
535.630306	0.001007
535.845857	0.001080
536.061390	0.000881
536.276904	0.000959
536.492401	0.000578
536.707879	0.000652
536.923339	0.000320
537.138781	0.000572
537.354204	0.000475
537.569610	-0.000024
537.784997	-0.000124
538.000366	0.000068
538.215716	-0.000070
538.431049	0.000486
538.646363	0.000477
538.861659	0.001027
539.076937	0.000857
539.292196	0.000298
539.507438	0.000712
539.722661	0.000610
539.937866	0.000434
540.153052	0.000575
540.368221	0.000429
540.583371	0.000598
540.798503	0.000561
541.013617	0.000621
541.228712	0.001154
541.443789	0.001047
541.658848	0.000699
541.873889	0.001196
542.088912	0.001238
542.303916	0.000958
542.518902	0.000957
542.733870	0.001155
542.948820	0.001097
543.163752	0.001212
543.378665	0.001387
543.593560	0.001777
543.808437	0.001502
544.023295	0.001591
544.238136	0.001966
544.452958	0.001798
544.667762	0.001406
544.882548	0.001371
545.097315	0.001540
545.312064	0.001272
545.526795	0.001671
545.741508	0.001818
545.956203	0.001493
546.170879	0.001539
546.385537	0.001530
546.600177	0.001440
546.814799	0.001292
547.029402	0.001370
547.243988	0.001565
547.458555	0.001109
547.673103	0.001206
547.887634	0.001293
548.102146	0.000988
548.316640	0.001359
548.531116	0.001617
548.745574	0.001913
548.960013	0.001560
549.174435	0.001529
549.388838	0.001689
549.603222	0.001464
549.817589	0.001693
550.031937	0.001826
550.246267	0.001808
550.460579	0.001653
550.674873	0.001531
550.889148	0.002057
551.103405	0.002400
551.317644	0.002556
551.531865	0.002496
551.746068	0.002178
551.960252	0.002285
552.174418	0.002039
552.388566	0.002138
552.602696	0.002230
552.816807	0.001834
553.030900	0.001541
553.244975	0.001229
553.459032	0.001462
553.673070	0.001585
553.887091	0.001412
554.101093	0.001634
554.315077	0.001568
554.529042	0.001634
554.742990	0.001845
554.956919	0.002139
555.170830	0.002536
555.384722	0.002526
555.598597	0.002546
555.812453	0.002454
556.026291	0.002501
556.240111	0.002510
556.453913	0.002395
556.667696	0.002287
556.881461	0.002153
557.095208	0.002346
557.308937	0.002097
557.522647	0.002049
557.736339	0.002558
557.950013	0.002685
558.163669	0.002480
558.377307	0.002472
558.590926	0.002629
558.804527	0.002624
559.018110	0.002181
559.231675	0.002518
559.445221	0.002623
559.658749	0.002632
559.872259	0.002333
560.085751	0.002760
560.299225	0.002630
560.512680	0.002595
560.726117	0.002698
560.939536	0.003056
561.152937	0.002749
561.366319	0.002938
561.579683	0.002945
561.793029	0.003292
562.006357	0.003373
562.219667	0.003781
562.432958	0.003590
562.646231	0.003478
562.859486	0.003306
563.072723	0.003521
563.285941	0.003284
563.499141	0.003197
563.712323	0.003080
563.925487	0.002913
564.138632	0.002553
564.351760	0.002675
564.564869	0.002940
564.777960	0.002924
564.991032	0.003290
565.204087	0.003451
565.417123	0.003180
565.630141	0.003205
565.843140	0.003440
566.056122	0.003614
566.269085	0.003530
566.482030	0.003512
566.694957	0.003674
566.907866	0.003498
567.120756	0.003479
567.333628	0.003823
567.546482	0.003729
567.759318	0.003659
567.972135	0.003889
568.184935	0.004272
568.397716	0.003961
568.610478	0.003893
568.823223	0.003774
569.035949	0.003658
569.248657	0.003280
569.461347	0.003266
569.674019	0.003039
569.886672	0.002798
570.099308	0.002326
570.311925	0.002420
570.524523	0.002577
570.737104	0.002625
570.949666	0.002697
571.162210	0.003065
571.374736	0.003232
571.587244	0.003440
571.799733	0.003380
572.012205	0.003700
572.224658	0.003501
572.437092	0.003395
572.649509	0.003675
572.861907	0.003877
573.074287	0.003771
573.286649	0.003925
573.498993	0.003967
573.711318	0.004027
573.923625	0.004128
574.135914	0.004467
574.348185	0.004410
574.560438	0.004227
574.772672	0.004093
574.984888	0.004167
575.197086	0.004140
575.409266	0.004076
575.621427	0.004447
575.833570	0.004334
576.045695	0.004463
576.257802	0.004565
576.469890	0.004374
576.681961	0.004573
576.894013	0.004459
577.106046	0.004321
577.318062	0.004420
577.530059	0.004084
577.742039	0.004180
577.954000	0.003888
578.165942	0.003850
578.377867	0.003834
578.589773	0.003636
578.801661	0.003876
579.013531	0.004039
579.225382	0.003849
579.437216	0.003943
579.649031	0.003932
579.860828	0.004066
580.072606	0.004140
580.284367	0.004184
580.496109	0.004074
580.707833	0.004010
580.919539	0.003948
581.131227	0.003841
581.342896	0.004069
581.554547	0.004197
581.766180	0.004190
581.977795	0.004129
582.189391	0.004113
582.400969	0.004561
582.612529	0.004695
582.824071	0.004558
583.035595	0.004698
583.247100	0.004780
583.458587	0.004679
583.670056	0.004774
583.881506	0.005152
584.092939	0.005478
584.304353	0.005035
584.515749	0.004936
584.727127	0.005191
584.938486	0.005546
585.149828	0.005056
585.361151	0.005136
585.572456	0.005290
585.783742	0.005051
585.995011	0.005137
586.206261	0.005307
586.417493	0.005440
586.628706	0.005297
586.839902	0.005279
587.051079	0.005568
587.262238	0.005254
587.473379	0.005126
587.684502	0.005144
587.895606	0.005123
588.106692	0.005329
588.317760	0.005231
588.528810	0.005343
588.739841	0.004980
588.950855	0.005205
589.161850	0.005584
589.372827	0.005750
589.583785	0.005722
589.794726	0.005739
590.005648	0.005653
590.216552	0.005895
590.427437	0.005779
590.638305	0.006134
590.849154	0.006054
591.059985	0.005922
591.270798	0.005738
591.481592	0.005797
591.692369	0.005985
591.903127	0.006122
592.113867	0.005689
592.324588	0.006126
592.535292	0.006070
592.745977	0.005856
592.956644	0.006023
593.167293	0.006130
593.377923	0.005931
593.588536	0.005658
593.799130	0.005572
594.009706	0.005842
594.220263	0.005623
594.430803	0.005504
594.641324	0.005692
594.851827	0.005795
595.062312	0.005878
595.272778	0.006111
595.483227	0.006097
595.693657	0.006025
595.904069	0.006147
596.114462	0.006118
596.324838	0.006074
596.535195	0.006103
596.745534	0.006331
596.955855	0.006370
597.166157	0.006393
597.376441	0.006426
597.586707	0.006889
597.796955	0.006749
598.007185	0.007069
598.217396	0.007318
598.427589	0.007218
598.637764	0.006904
598.847921	0.006881
599.058060	0.007056
599.268180	0.007178
599.478282	0.006813
599.688366	0.007101
599.898431	0.006841
600.108479	0.006746
600.318508	0.006699
600.528519	0.006542
600.738511	0.006619
600.948486	0.006629
601.158442	0.006636
601.368380	0.006773
601.578300	0.006585
601.788202	0.006565
601.998085	0.006457
602.207950	0.007025
602.417797	0.007238
602.627626	0.007204
602.837436	0.007050
603.047228	0.007151
603.257002	0.007158
603.466758	0.007106
603.676496	0.007182
603.886215	0.007324
604.095916	0.007261
604.305599	0.007286
604.515264	0.007264
604.724910	0.007493
604.934538	0.007651
605.144148	0.007687
605.353740	0.007977
605.563314	0.008043
605.772869	0.008237
605.982406	0.007934
606.191925	0.008291
606.401425	0.008503
606.610908	0.008372
606.820372	0.008165
607.029818	0.008276
607.239246	0.008391
607.448655	0.008392
607.658047	0.008280
607.867420	0.008594
608.076775	0.008007
608.286111	0.007880
608.495430	0.007928
608.704730	0.007875
608.914012	0.007698
609.123275	0.007478
609.332521	0.007509
609.541748	0.007732
609.750957	0.007505
609.960148	0.007804
610.169321	0.007827
610.378475	0.007689
610.587611	0.007765
610.796729	0.007906
611.005829	0.007986
611.214910	0.008175
611.423974	0.007859
611.633019	0.008150
611.842045	0.008137
612.051054	0.008133
612.260044	0.008307
612.469017	0.008474
612.677970	0.008542
612.886906	0.008590
613.095824	0.008044
613.304723	0.008094
613.513604	0.007814
613.722467	0.007734
613.931311	0.007462
614.140138	0.007323
614.348946	0.007337
614.557736	0.007240
614.766507	0.007323
614.975261	0.007738
615.183996	0.007878
615.392713	0.008040
615.601412	0.008196
615.810092	0.008498
616.018754	0.008599
616.227399	0.008623
616.436024	0.008792
616.644632	0.008683
616.853222	0.008716
617.061793	0.008862
617.270346	0.008756
617.478880	0.008629
617.687397	0.008697
617.895895	0.008960
618.104375	0.009141
618.312837	0.009054
618.521281	0.009120
618.729706	0.009367
618.938113	0.009505
619.146502	0.009933
619.354873	0.009905
619.563226	0.009794
619.771560	0.009578
619.979876	0.009549
620.188174	0.009770
620.396453	0.009588
620.604715	0.009288
620.812958	0.009114
621.021183	0.009221
621.229390	0.009470
621.437578	0.009596
621.645748	0.009788
621.853900	0.009760
622.062034	0.009594
622.270150	0.009793
622.478247	0.010060
622.686326	0.010332
622.894387	0.010049
623.102430	0.010213
623.310454	0.010256
623.518461	0.010258
623.726449	0.010254
623.934418	0.010365
624.142370	0.010350
624.350303	0.010247
624.558218	0.010051
624.766115	0.010093
624.973994	0.009905
625.181855	0.009966
625.389697	0.010096
625.597521	0.010289
625.805327	0.010189
626.013114	0.010198
626.220883	0.010148
626.428634	0.010385
626.636367	0.010413
626.844082	0.010502
627.051778	0.010374
627.259457	0.010184
627.467117	0.009948
627.674758	0.010001
627.882382	0.009864
628.089987	0.010023
628.297574	0.009890
628.505143	0.009897
628.712694	0.009951
628.920226	0.010373
629.127740	0.010472
629.335236	0.010624
629.542714	0.010726
629.750174	0.010963
629.957615	0.010862
630.165038	0.011004
630.372443	0.011108
630.579829	0.011240
630.787198	0.010981
630.994548	0.010986
631.201880	0.010852
631.409194	0.010841
631.616489	0.010761
631.823766	0.010720
632.031025	0.010679
632.238266	0.010600
632.445489	0.010291
632.652693	0.010081
632.859879	0.009951
633.067047	0.010061
633.274197	0.010305
633.481329	0.010342
633.688442	0.010472
633.895537	0.010431
634.102614	0.010356
634.309672	0.010503
634.516713	0.010792
634.723735	0.010851
634.930739	0.010945
635.137724	0.010804
635.344692	0.011018
635.551641	0.011194
635.758572	0.011115
635.965485	0.011235
636.172379	0.011265
636.379256	0.011443
636.586114	0.011581
636.792954	0.011484
636.999775	0.011483
637.206579	0.011541
637.413364	0.011369
637.620131	0.011394
637.826880	0.011482
638.033610	0.011570
638.240323	0.011247
638.447017	0.011296
638.653692	0.011316
638.860350	0.011224
639.066990	0.011026
639.273611	0.011028
639.480214	0.011097
639.686798	0.011000
639.893365	0.011109
640.099913	0.011320
640.306443	0.011221
640.512955	0.011371
640.719449	0.011480
640.925924	0.011717
641.132381	0.011620
641.338820	0.011727
641.545241	0.011718
641.751644	0.011670
641.958028	0.011677
642.164394	0.011845
642.370742	0.011791
642.577071	0.011918
642.783383	0.011903
642.989676	0.012061
643.195951	0.012021
643.402207	0.012105
643.608446	0.012275
643.814666	0.012293
644.020868	0.012057
644.227052	0.012139
644.433218	0.012026
644.639365	0.012109
644.845494	0.012394
645.051605	0.012576
645.257698	0.012776
645.463772	0.012650
645.669828	0.012763
645.875866	0.012864
646.081886	0.012791
646.287888	0.012816
646.493871	0.012529
646.699836	0.012196
646.905783	0.012127
647.111712	0.011848
647.317622	0.011977
647.523514	0.011800
647.729388	0.011911
647.935244	0.011907
648.141082	0.012026
648.346901	0.012048
648.552702	0.012118
648.758485	0.011943
648.964250	0.012159
649.169996	0.011928
649.375724	0.011997
649.581434	0.012022
649.787126	0.012069
649.992800	0.011971
650.198455	0.011895
650.404092	0.011919
650.609711	0.012093
650.815311	0.012060
651.020894	0.012184
651.226458	0.012206
651.432004	0.012288
651.637532	0.012362
651.843041	0.012531
652.048532	0.012963
652.254006	0.013218
652.459460	0.013160
652.664897	0.013189
652.870315	0.013522
653.075716	0.013658
653.281097	0.013707
653.486461	0.013601
653.691807	0.013654
653.897134	0.013708
654.102443	0.013666
654.307734	0.013670
654.513006	0.013800
654.718261	0.013727
654.923497	0.013670
655.128715	0.013597
655.333915	0.013746
655.539096	0.013726
655.744259	0.013427
655.949404	0.013549
656.154531	0.013651
656.359640	0.013552
656.564730	0.013376
656.769802	0.013570
656.974856	0.013752
657.179892	0.013811
657.384909	0.013927
657.589908	0.014243
657.794889	0.014123
657.999852	0.014079
658.204797	0.014217
658.409723	0.014239
658.614631	0.014176
658.819521	0.014220
659.024393	0.014322
659.229246	0.014149
659.434081	0.014188
659.638898	0.014178
659.843697	0.014093
660.048478	0.014155
660.253240	0.014210
660.457984	0.014208
660.662710	0.014145
660.867417	0.014007
661.072107	0.014311
661.276778	0.014110
661.481431	0.014251
661.686066	0.014393
661.890682	0.014325
662.095281	0.014345
662.299861	0.014509
662.504422	0.014583
662.708966	0.014720
662.913491	0.014524
663.117999	0.014621
663.322488	0.014470
663.526958	0.014672
663.731411	0.014675
663.935845	0.014844
664.140261	0.014815
664.344659	0.014698
664.549038	0.014827
664.753400	0.014919
664.957743	0.015062
665.162068	0.015255
665.366375	0.015071
665.570663	0.015186
665.774933	0.015234
665.979185	0.015259
666.183419	0.015365
666.387635	0.015268
666.591832	0.015504
666.796011	0.015350
667.000172	0.015277
667.204315	0.015496
667.408439	0.015468
667.612545	0.015451
667.816634	0.015328
668.020703	0.015403
668.224755	0.015528
668.428788	0.015443
668.632803	0.015732
668.836800	0.015978
669.040779	0.016063
669.244739	0.015954
669.448681	0.015907
669.652605	0.015849
669.856511	0.015882
670.060399	0.015906
670.264268	0.015878
670.468119	0.015704
670.671952	0.015764
670.875767	0.015788
671.079563	0.016071
671.283341	0.016085
671.487101	0.016389
671.690843	0.016550
671.894567	0.016606
672.098272	0.016567
672.301959	0.016757
672.505628	0.016577
672.709278	0.016527
672.912911	0.016318
673.116525	0.016394
673.320121	0.016255
673.523699	0.016259
673.727258	0.016303
673.930799	0.016390
674.134322	0.016250
674.337827	0.016229
674.541314	0.016245
674.744782	0.016484
674.948232	0.016400
675.151664	0.016561
675.355078	0.016503
675.558474	0.016542
675.761851	0.016455
675.965210	0.016402
676.168551	0.016463
676.371873	0.016553
676.575178	0.016659
676.778464	0.016762
676.981732	0.016687
677.184981	0.016667
677.388213	0.016639
677.591426	0.016821
677.794621	0.016972
677.997798	0.017119
678.200956	0.017235
678.404097	0.017161
678.607219	0.017346
678.810323	0.017545
679.013408	0.017589
679.216476	0.017402
679.419525	0.017559
679.622556	0.017482
679.825569	0.017538
680.028563	0.017643
680.231540	0.017474
680.434498	0.017349
680.637438	0.017343
680.840359	0.017470
681.043263	0.017728
681.246148	0.017675
681.449015	0.017814
681.651864	0.017758
681.854694	0.017491
682.057506	0.017696
682.260301	0.017779
682.463076	0.017729
682.665834	0.017797
682.868573	0.017741
683.071295	0.017599
683.273998	0.017725
683.476682	0.017835
683.679349	0.017980
683.881997	0.017951
684.084627	0.017945
684.287239	0.018128
684.489833	0.018142
684.692408	0.018370
684.894965	0.018524
685.097504	0.018593
685.300025	0.018587
685.502527	0.018633
685.705012	0.018841
685.907478	0.019018
686.109925	0.019039
686.312355	0.019031
686.514766	0.019005
686.717159	0.019063
686.919534	0.019200
687.121891	0.019176
687.324230	0.019315
687.526550	0.019284
687.728852	0.019179
687.931136	0.019039
688.133401	0.018991
688.335649	0.019000
688.537878	0.019061
688.740089	0.019016
688.942281	0.019185
689.144456	0.019123
689.346612	0.019127
689.548750	0.019120
689.750870	0.019207
689.952971	0.019334
690.155055	0.019368
690.357120	0.019327
690.559167	0.019207
690.761195	0.019180
690.963206	0.019167
691.165198	0.019216
691.367172	0.019384
691.569128	0.019360
691.771065	0.019493
691.972984	0.019433
692.174885	0.019543
692.376768	0.019768
692.578633	0.019810
692.780479	0.019751
692.982308	0.019851
693.184118	0.019859
693.385909	0.019965
693.587683	0.019958
693.789438	0.020001
693.991175	0.019933
694.192894	0.019931
694.394595	0.020007
694.596277	0.020184
694.797941	0.020049
694.999587	0.019954
695.201215	0.019980
695.402824	0.019872
695.604416	0.019904
695.805989	0.019830
696.007543	0.019663
696.209080	0.019521
696.410598	0.019485
696.612099	0.019523
696.813580	0.019658
697.015044	0.019716
697.216490	0.019744
697.417917	0.019806
697.619326	0.019917
697.820717	0.020013
698.022089	0.020192
698.223444	0.020132
698.424780	0.020111
698.626098	0.020107
698.827397	0.020036
699.028679	0.020006
699.229942	0.019853
699.431187	0.019790
699.632414	0.019842
699.833622	0.019661
700.034813	0.019756
700.235985	0.019845
700.437139	0.019971
700.638274	0.019964
700.839392	0.020083
701.040491	0.020160
701.241572	0.020135
701.442635	0.019981
701.643679	0.020067
701.844706	0.020031
702.045714	0.020114
702.246704	0.019911
702.447675	0.019883
702.648629	0.019922
702.849564	0.019933
703.050481	0.019995
703.251380	0.020109
703.452260	0.020264
703.653122	0.020414
703.853966	0.020444
704.054792	0.020630
704.255600	0.020733
704.456389	0.020532
704.657160	0.020676
704.857913	0.020719
705.058648	0.020701
705.259365	0.020587
705.460063	0.020368
705.660743	0.020427
705.861405	0.020336
706.062048	0.020256
706.262674	0.020474
706.463281	0.020432
706.663870	0.020385
706.864441	0.020365
707.064993	0.020309
707.265527	0.020422
707.466043	0.020260
707.666541	0.020247
707.867021	0.020340
708.067482	0.020250
708.267925	0.020301
708.468350	0.020523
708.668757	0.020698
708.869145	0.020725
709.069516	0.020775
709.269868	0.020860
709.470201	0.020943
709.670517	0.020920
709.870814	0.021091
710.071093	0.021096
710.271354	0.021020
710.471597	0.020850
710.671821	0.020976
710.872028	0.020941
711.072216	0.020906
711.272385	0.020886
711.472537	0.020968
711.672670	0.020887
711.872785	0.020955
712.072882	0.021062
712.272961	0.021212
712.473021	0.021106
712.673063	0.021086
712.873087	0.021129
713.073093	0.021140
713.273081	0.021065
713.473050	0.021100
713.673001	0.020912
713.872934	0.020792
714.072849	0.020815
714.272745	0.020857
714.472623	0.020843
714.672483	0.020684
714.872325	0.020652
715.072148	0.020723
715.271954	0.020522
715.471741	0.020513
715.671509	0.020462
715.871260	0.020371
716.070992	0.020315
716.270707	0.020279
716.470403	0.020191
716.670080	0.020017
716.869740	0.019762
717.069381	0.019770
717.269004	0.019627
717.468609	0.019555
717.668195	0.019580
717.867764	0.019524
718.067314	0.019627
718.266846	0.019766
718.466360	0.019847
718.665855	0.019994
718.865332	0.020148
719.064791	0.020138
719.264232	0.020084
719.463655	0.019927
719.663059	0.019927
719.862445	0.019836
720.061813	0.019723
720.261163	0.019682
720.460494	0.019656
720.659807	0.019467
720.859102	0.019578
721.058379	0.019655
721.257638	0.019734
721.456878	0.019725
721.656100	0.019790
721.855304	0.019832
722.054490	0.019817
722.253657	0.019913
722.452806	0.019879
722.651937	0.019944
722.851050	0.019907
723.050145	0.019919
723.249221	0.019915
723.448279	0.019782
723.647319	0.019929
723.846340	0.019973
724.045344	0.019714
724.244329	0.019635
724.443296	0.019561
724.642245	0.019517
724.841175	0.019462
725.040088	0.019285
725.238982	0.019247
725.437857	0.019045
725.636715	0.019054
725.835554	0.019098
726.034376	0.019207
726.233179	0.019047
726.431963	0.018823
726.630730	0.018458
726.829478	0.018553
727.028208	0.018717
727.226920	0.018607
727.425614	0.018525
727.624289	0.018619
727.822946	0.018484
728.021585	0.018619
728.220206	0.018772
728.418808	0.019021
728.617392	0.019074
728.815958	0.019029
729.014506	0.019020
729.213036	0.019069
729.411547	0.018921
729.610040	0.019027
729.808515	0.018852
730.006972	0.018694
730.205410	0.018810
730.403831	0.018709
730.602233	0.018511
730.800616	0.018602
730.998982	0.018386
731.197329	0.018485
731.395658	0.018248
731.593969	0.018276
731.792262	0.018604
731.990536	0.018619
732.188793	0.018712
732.387031	0.018799
732.585250	0.018710
732.783452	0.018707
732.981635	0.018625
733.179800	0.018680
733.377947	0.018727
733.576076	0.018430
733.774186	0.018175
733.972278	0.017966
734.170352	0.017800
734.368408	0.017615
734.566446	0.017638
734.764465	0.017487
734.962466	0.017645
735.160449	0.017659
735.358413	0.017649
735.556360	0.017617
735.754288	0.017644
735.952198	0.017452
736.150090	0.017489
736.347963	0.017387
736.545818	0.017375
736.743655	0.017105
736.941474	0.016920
737.139275	0.016797
737.337057	0.016682
737.534821	0.016542
737.732567	0.016674
737.930295	0.016720
738.128005	0.016808
738.325696	0.016840
738.523369	0.016985
738.721024	0.016861
738.918660	0.016955
739.116279	0.017083
739.313879	0.017147
739.511461	0.017137
739.709024	0.016982
739.906570	0.016925
740.104097	0.016844
740.301606	0.016725
740.499097	0.016861
740.696569	0.016663
740.894024	0.016655
741.091460	0.016645
741.288878	0.016644
741.486277	0.016726
741.683659	0.016672
741.881022	0.016608
742.078367	0.016544
742.275694	0.016386
742.473002	0.016554
742.670293	0.016539
742.867565	0.016481
743.064819	0.016441
743.262054	0.016583
743.459272	0.016664
743.656471	0.016804
743.853652	0.016710
744.050815	0.016831
744.247959	0.016676
744.445085	0.016702
744.642194	0.016638
744.839283	0.016601
745.036355	0.016428
745.233408	0.016504
745.430444	0.016444
745.627461	0.016638
745.824459	0.016551
746.021440	0.016648
746.218402	0.016337
746.415346	0.016387
746.612272	0.016176
746.809180	0.016252
747.006069	0.016000
747.202940	0.015903
747.399793	0.015801
747.596628	0.015789
747.793444	0.015623
747.990243	0.015728
748.187023	0.015480
748.383784	0.015534
748.580528	0.015322
748.777253	0.015079
748.973960	0.015028
749.170649	0.014982
749.367320	0.014794
749.563973	0.014771
749.760607	0.014854
749.957223	0.015129
750.153821	0.015409
750.350400	0.015357
750.546962	0.015709
750.743505	0.015527
750.940030	0.015391
751.136536	0.015471
751.333025	0.015439
751.529495	0.015437
751.725947	0.015371
751.922381	0.015280
752.118796	0.015495
752.315194	0.015351
752.511573	0.015402
752.707934	0.015674
752.904276	0.015687
753.100601	0.015829
753.296907	0.015662
753.493195	0.015801
753.689465	0.015728
753.885716	0.015632
754.081949	0.015547
754.278164	0.015625
754.474361	0.015367
754.670540	0.015501
754.866700	0.015384
755.062843	0.015417
755.258967	0.015119
755.455072	0.014965
755.651160	0.014924
755.847229	0.015024
756.043280	0.015137
756.239313	0.015196
756.435328	0.015017
756.631324	0.015126
756.827302	0.014960
757.023262	0.015049
757.219204	0.015081
757.415127	0.015150
757.611033	0.015029
757.806920	0.014885
758.002788	0.014718
758.198639	0.014810
758.394471	0.014697
758.590286	0.014815
758.786081	0.014806
758.981859	0.014740
759.177619	0.014658
759.373360	0.014732
759.569083	0.014726
759.764788	0.014720
759.960474	0.014631
760.156143	0.014714
760.351793	0.014725
760.547425	0.014673
760.743038	0.014669
760.938634	0.014592
761.134211	0.014481
761.329770	0.014545
761.525311	0.014665
761.720833	0.014656
761.916338	0.014594
762.111824	0.014667
762.307292	0.014854
762.502741	0.014854
762.698173	0.014766
762.893586	0.014772
763.088981	0.014526
763.284358	0.014446
763.479716	0.014365
763.675057	0.014370
763.870379	0.014363
764.065683	0.014146
764.260968	0.014258
764.456236	0.014229
764.651485	0.014394
764.846716	0.014508
765.041929	0.014529
765.237123	0.014531
765.432299	0.014498
765.627457	0.014296
765.822597	0.014269
766.017719	0.014315
766.212822	0.014482
766.407907	0.014289
766.602974	0.014478
766.798023	0.014348
766.993054	0.014318
767.188066	0.014244
767.383060	0.014282
767.578036	0.014299
767.772993	0.014003
767.967933	0.013989
768.162854	0.014003
768.357757	0.013738
768.552642	0.013871
768.747508	0.013812
768.942356	0.013798
769.137186	0.013796
769.331998	0.013775
769.526792	0.013944
769.721567	0.013911
769.916324	0.013973
770.111063	0.014049
770.305784	0.014082
770.500486	0.014241
770.695171	0.014268
770.889837	0.014511
771.084484	0.014533
771.279114	0.014511
771.473725	0.014767
771.668318	0.014941
771.862893	0.015016
772.057450	0.014951
772.251988	0.015046
772.446509	0.015069
772.641011	0.014992
772.835494	0.015152
773.029960	0.015064
773.224407	0.014812
773.418836	0.014631
773.613247	0.014627
773.807640	0.014775
774.002014	0.014716
774.196370	0.014839
774.390708	0.014735
774.585028	0.014578
774.779330	0.014676
774.973613	0.014628
775.167878	0.014619
775.362125	0.014568
775.556354	0.014508
775.750564	0.014263
775.944756	0.014205
776.138930	0.014228
776.333086	0.014373
776.527223	0.014455
776.721343	0.014497
776.915444	0.014503
777.109526	0.014560
777.303591	0.014705
777.497637	0.014970
777.691666	0.015063
777.885676	0.015080
778.079667	0.014989
778.273641	0.014923
778.467596	0.014917
778.661533	0.014906
778.855452	0.014823
779.049352	0.014715
779.243235	0.014698
779.437099	0.014650
779.630945	0.014674
779.824773	0.014574
780.018582	0.014618
780.212373	0.014558
780.406146	0.014549
780.599901	0.014512
780.793638	0.014511
780.987356	0.014705
781.181056	0.014816
781.374738	0.014978
781.568402	0.015171
781.762047	0.015240
781.955674	0.015529
782.149283	0.015714
782.342874	0.015946
782.536447	0.016124
782.730001	0.015987
782.923537	0.016034
783.117055	0.016033
783.310555	0.016062
783.504036	0.016117
783.697499	0.015899
783.890944	0.015801
784.084371	0.015781
784.277780	0.015527
784.471170	0.015642
784.664542	0.015664
784.857896	0.015559
785.051231	0.015440
785.244549	0.015317
785.437848	0.015616
785.631129	0.015707
785.824392	0.015722
786.017636	0.015841
786.210863	0.015876
786.404071	0.015685
786.597260	0.015735
786.790432	0.015946
786.983585	0.015927
787.176721	0.015879
787.369838	0.015982
787.562936	0.015894
787.756017	0.015949
787.949079	0.015928
788.142123	0.016000
788.335149	0.015974
788.528156	0.015822
788.721146	0.015712
788.914117	0.015671
789.107070	0.015578
789.300005	0.015475
789.492921	0.015452
789.685819	0.015268
789.878699	0.015336
790.071561	0.015514
790.264405	0.015591
790.457230	0.016020
790.650037	0.016021
790.842826	0.016029
791.035597	0.016284
791.228349	0.016397
791.421084	0.016657
791.613800	0.016708
791.806497	0.016574
791.999177	0.016684
792.191838	0.016518
792.384481	0.016646
792.577106	0.016639
792.769713	0.016743
792.962301	0.016713
793.154871	0.016655
793.347423	0.016665
793.539957	0.016779
793.732473	0.016675
793.924970	0.017022
794.117449	0.016928
794.309910	0.016948
794.502353	0.016797
794.694777	0.016901
794.887183	0.016939
795.079571	0.016865
795.271941	0.016742
795.464293	0.016703
795.656626	0.016361
795.848941	0.016308
796.041238	0.016194
796.233516	0.016389
796.425777	0.016436
796.618019	0.016451
796.810243	0.016510
797.002449	0.016582
797.194636	0.016710
797.386805	0.016800
797.578956	0.016972
797.771089	0.017155
797.963204	0.017060
798.155300	0.017086
798.347378	0.017224
798.539438	0.017292
798.731480	0.017318
798.923503	0.017542
799.115509	0.017609
799.307496	0.017659
799.499465	0.017880
799.691415	0.018167
799.883348	0.018129
800.075262	0.018277
800.267158	0.018342
800.459035	0.018714
800.650895	0.018719
800.842736	0.018830
801.034559	0.018853
801.226364	0.018777
801.418150	0.018615
801.609919	0.018566
801.801669	0.018444
801.993401	0.018392
802.185114	0.018247
802.376810	0.018148
802.568487	0.018025
802.760146	0.018072
802.951787	0.018143
803.143409	0.018320
803.335014	0.018549
803.526600	0.018498
803.718168	0.018600
803.909717	0.018549
804.101249	0.018661
804.292762	0.018910
804.484257	0.018952
804.675734	0.018945
804.867192	0.018950
805.058632	0.018869
805.250054	0.018857
805.441458	0.018897
805.632844	0.018853
805.824211	0.018972
806.015561	0.018878
806.206891	0.019052
806.398204	0.019184
806.589499	0.019354
806.780775	0.019352
806.972033	0.019788
807.163273	0.020029
807.354495	0.020343
807.545698	0.020273
807.736883	0.020319
807.928050	0.020132
808.119199	0.020300
808.310329	0.020330
808.501441	0.020426
808.692535	0.020272
808.883611	0.020235
809.074669	0.020198
809.265708	0.020443
809.456729	0.020644
809.647732	0.020639
809.838717	0.020660
810.029683	0.020642
810.220632	0.020824
810.411562	0.020677
810.602474	0.020668
810.793367	0.020559
810.984242	0.020304
811.175100	0.020245
811.365938	0.020481
811.556759	0.020250
811.747562	0.020035
811.938346	0.020019
812.129112	0.020250
812.319860	0.020417
812.510589	0.020492
812.701300	0.020706
812.891994	0.020912
813.082668	0.021077
813.273325	0.021410
813.463964	0.021599
813.654584	0.021749
813.845186	0.021797
814.035769	0.021781
814.226335	0.021827
814.416882	0.021880
814.607411	0.021840
814.797922	0.021716
814.988415	0.021451
815.178889	0.021566
815.369345	0.021626
815.559783	0.021401
815.750203	0.021339
815.940605	0.021420
816.130988	0.021219
816.321353	0.021069
816.511700	0.021063
816.702028	0.021128
816.892339	0.021238
817.082631	0.021228
817.272905	0.021341
817.463161	0.021361
817.653398	0.021302
817.843617	0.021639
818.033819	0.021921
818.224001	0.022066
818.414166	0.022212
818.604312	0.022202
818.794440	0.022262
818.984550	0.022514
819.174642	0.022610
819.364716	0.022915
819.554771	0.022887
819.744808	0.022871
819.934827	0.023003
820.124827	0.023236
820.314810	0.023402
820.504774	0.023499
820.694720	0.023663
820.884647	0.023879
821.074557	0.024074
821.264448	0.024159
821.454321	0.024170
821.644176	0.024275
821.834012	0.024318
822.023831	0.024379
822.213631	0.024425
822.403413	0.024340
822.593176	0.024349
822.782922	0.024188
822.972649	0.024258
823.162358	0.024169
823.352049	0.024205
823.541721	0.024266
823.731376	0.024201
823.921012	0.024333
824.110629	0.024376
824.300229	0.024579
824.489811	0.024765
824.679374	0.024982
824.868919	0.025377
825.058445	0.025459
825.247954	0.025479
825.437444	0.025841
825.626916	0.025770
825.816370	0.025858
826.005806	0.025847
826.195223	0.025935
826.384622	0.025692
826.574003	0.025693
826.763366	0.025451
826.952711	0.025592
827.142037	0.025401
827.331345	0.025544
827.520635	0.025660
827.709906	0.025599
827.899160	0.025546
828.088395	0.025585
828.277612	0.025759
828.466810	0.026144
828.655991	0.026034
828.845153	0.026101
829.034297	0.026244
829.223423	0.026278
829.412531	0.026380
829.601620	0.026291
829.790691	0.026493
829.979744	0.026539
830.168779	0.026545
830.357795	0.026687
830.546793	0.026564
830.735773	0.026341
830.924735	0.026380
831.113679	0.026383
831.302604	0.026621
831.491511	0.026686
831.680400	0.026547
831.869271	0.026391
832.058123	0.026502
832.246957	0.026899
832.435773	0.027115
832.624571	0.027128
832.813351	0.027163
833.002112	0.027184
833.190855	0.027315
833.379580	0.027335
833.568287	0.027507
833.756975	0.027517
833.945645	0.027520
834.134297	0.027500
834.322931	0.027711
834.511547	0.027903
834.700144	0.027932
834.888723	0.027838
835.077284	0.028007
835.265826	0.028172
835.454351	0.028306
835.642857	0.028175
835.831345	0.028208
836.019815	0.028200
836.208266	0.028348
836.396699	0.028312
836.585114	0.028502
836.773511	0.028714
836.961890	0.028760
837.150250	0.028827
837.338592	0.028996
837.526916	0.028968
837.715222	0.029014
837.903510	0.028828
838.091779	0.029011
838.280030	0.028992
838.468263	0.028810
838.656477	0.028779
838.844674	0.028769
839.032852	0.028807
839.221012	0.029112
839.409153	0.029049
839.597277	0.029458
839.785382	0.029573
839.973469	0.029683
840.161538	0.029950
840.349589	0.030331
840.537621	0.030578
840.725635	0.030847
840.913631	0.030937
841.101609	0.031184
841.289568	0.031164
841.477509	0.031351
841.665432	0.031713
841.853337	0.031723
842.041224	0.031608
842.229092	0.031408
842.416942	0.031327
842.604774	0.031214
842.792588	0.031338
842.980383	0.031298
843.168160	0.031298
843.355919	0.031088
843.543660	0.031280
843.731382	0.031344
843.919087	0.031884
844.106773	0.032114
844.294441	0.032564
844.482090	0.032737
844.669722	0.032892
844.857335	0.033002
845.044930	0.033318
845.232507	0.033518
845.420065	0.033599
845.607605	0.033650
845.795127	0.033511
845.982631	0.033683
846.170117	0.033788
846.357584	0.034005
846.545033	0.034231
846.732464	0.034214
846.919877	0.034126
847.107272	0.033979
847.294648	0.033825
847.482006	0.034224
847.669346	0.034269
847.856667	0.034264
848.043971	0.034067
848.231256	0.034000
848.418523	0.034054
848.605771	0.033886
848.793002	0.034094
848.980214	0.034130
849.167408	0.034034
849.354584	0.033837
849.541742	0.034120
849.728881	0.034392
849.916002	0.034526
850.103105	0.034667
850.290190	0.035144
850.477256	0.035427
850.664304	0.035529
850.851334	0.035879
851.038346	0.036138
851.225340	0.035691
851.412315	0.035653
851.599272	0.035828
851.786211	0.036229
851.973132	0.036508
852.160034	0.036646
852.346918	0.036974
852.533784	0.036768
852.720632	0.036813
852.907462	0.037376
853.094273	0.037941
853.281066	0.038111
853.467841	0.038161
853.654598	0.038086
853.841336	0.038236
854.028056	0.038090
854.214758	0.038340
854.401442	0.038481
854.588107	0.038455
854.774755	0.038153
854.961384	0.038268
855.147995	0.038105
855.334587	0.038158
855.521162	0.038294
855.707718	0.038518
855.894256	0.038540
856.080775	0.038681
856.267277	0.038779
856.453760	0.038936
856.640225	0.038986
856.826672	0.039073
857.013101	0.039083
857.199511	0.039081
857.385903	0.038889
857.572277	0.038877
857.758633	0.039084
857.944970	0.039015
858.131290	0.038940
858.317591	0.038915
858.503873	0.039037
858.690138	0.039149
858.876384	0.039106
859.062612	0.039314
859.248822	0.039754
859.435014	0.039771
859.621188	0.040069
859.807343	0.040300
859.993480	0.040451
860.179599	0.040580
860.365699	0.040765
860.551781	0.040947
860.737846	0.041279
860.923891	0.041216
861.109919	0.041230
861.295929	0.041460
861.481920	0.041652
861.667893	0.041916
861.853848	0.041923
862.039784	0.042046
862.225702	0.042122
862.411603	0.042120
862.597484	0.041990
862.783348	0.042097
862.969193	0.041978
863.155021	0.041903
863.340830	0.041787
863.526620	0.041923
863.712393	0.041967
863.898147	0.042095
864.083883	0.042225
864.269601	0.042344
864.455301	0.042355
864.640982	0.042358
864.826645	0.042476
865.012290	0.042416
865.197917	0.042673
865.383526	0.042572
865.569116	0.042513
865.754688	0.042410
865.940242	0.042645
866.125777	0.042599
866.311295	0.042803
866.496794	0.042925
866.682275	0.043373
866.867737	0.043334
867.053182	0.043813
867.238608	0.043790
867.424016	0.044188
867.609406	0.044269
867.794778	0.044485
867.980131	0.044686
868.165466	0.044939
868.350783	0.044911
868.536082	0.044978
868.721362	0.044795
868.906625	0.044967
869.091869	0.045132
869.277094	0.045094
869.462302	0.045193
869.647491	0.045352
869.832662	0.045269
870.017815	0.045320
870.202950	0.045494
870.388066	0.045523
870.573165	0.045731
870.758245	0.045547
870.943306	0.045592
871.128350	0.045689
871.313375	0.045733
871.498382	0.045686
871.683371	0.045923
871.868342	0.046006
872.053294	0.046310
872.238229	0.046377
872.423144	0.046451
872.608042	0.046792
872.792922	0.047125
872.977783	0.047055
873.162626	0.047506
873.347451	0.047310
873.532258	0.047417
873.717046	0.047325
873.901816	0.047325
874.086568	0.047326
874.271302	0.047331
874.456017	0.047094
874.640715	0.047363
874.825394	0.047210
875.010055	0.047268
875.194697	0.047355
875.379322	0.047357
875.563928	0.047391
875.748516	0.047579
875.933085	0.047603
876.117637	0.047773
876.302170	0.047487
876.486685	0.047570
876.671182	0.047529
876.855661	0.047142
877.040121	0.047161
877.224563	0.047015
877.408987	0.047119
877.593393	0.047274
877.777780	0.047067
877.962150	0.047029
878.146501	0.046834
878.330833	0.046556
878.515148	0.046753
878.699444	0.046807
878.883722	0.047105
879.067982	0.047012
879.252224	0.047102
879.436447	0.047062
879.620653	0.047188
879.804840	0.047528
879.989008	0.048035
880.173159	0.047970
880.357291	0.047986
880.541405	0.048073
880.725501	0.047943
880.909579	0.047848
881.093638	0.048202
881.277680	0.048372
881.461703	0.048246
881.645707	0.048137
881.829694	0.048412
882.013662	0.048733
882.197612	0.048822
882.381544	0.049028
882.565458	0.048825
882.749353	0.048923
882.933230	0.049139
883.117089	0.049332
883.300930	0.049508
883.484753	0.049329
883.668557	0.049004
883.852343	0.048845
884.036111	0.048917
884.219861	0.048922
884.403592	0.048731
884.587305	0.048560
884.771000	0.048639
884.954677	0.048691
885.138335	0.049102
885.321976	0.049214
885.505598	0.049639
885.689201	0.049706
885.872787	0.049946
886.056354	0.050012
886.239904	0.049991
886.423434	0.049889
886.606947	0.049741
886.790442	0.049801
886.973918	0.049573
887.157376	0.049357
887.340816	0.049137
887.524237	0.048978
887.707641	0.049032
887.891026	0.048871
888.074393	0.048681
888.257741	0.048743
888.441072	0.048506
888.624384	0.048657
888.807678	0.048572
888.990954	0.048713
889.174211	0.048969
889.357451	0.048879
889.540672	0.048964
889.723875	0.048996
889.907059	0.048778
890.090226	0.048662
890.273374	0.048932
890.456504	0.048888
890.639616	0.048704
890.822709	0.048510
891.005785	0.048565
891.188842	0.048530
891.371881	0.048733
891.554901	0.048957
891.737904	0.048899
891.920888	0.048987
892.103854	0.049225
892.286802	0.049399
892.469731	0.049680
892.652643	0.049593
892.835536	0.049773
893.018410	0.049870
893.201267	0.049992
893.384106	0.050319
893.566926	0.050181
893.749728	0.050149
893.932511	0.049922
894.115277	0.049678
894.298024	0.049844
894.480753	0.049876
894.663464	0.049422
894.846157	0.049332
895.028831	0.049161
895.211487	0.049091
895.394125	0.048690
895.576745	0.048871
895.759346	0.049079
895.941930	0.049072
896.124495	0.048879
896.307041	0.049048
896.489570	0.049183
896.672080	0.048940
896.854573	0.048979
897.037046	0.049141
897.219502	0.049057
897.401940	0.048627
897.584359	0.048526
897.766760	0.048205
897.949143	0.048191
898.131507	0.047917
898.313854	0.048078
898.496182	0.047697
898.678492	0.047617
898.860783	0.047697
899.043057	0.047476
899.225312	0.047418
899.407549	0.047743
899.589768	0.047792
899.771968	0.047995
899.954151	0.047691
900.136315	0.047589
900.318461	0.047564
900.500588	0.047509
900.682698	0.047449
900.864789	0.047205
901.046862	0.047088
901.228917	0.046683
901.410953	0.046305
901.592971	0.046243
901.774972	0.046523
901.956953	0.046460
902.138917	0.046300
902.320862	0.046755
902.502790	0.046862
902.684699	0.047327
902.866589	0.047341
903.048462	0.047445
903.230316	0.047618
903.412152	0.047072
903.593970	0.046894
903.775770	0.046962
903.957551	0.046915
904.139314	0.047124
904.321059	0.046586
904.502786	0.046926
904.684494	0.046679
904.866185	0.046733
905.047857	0.047020
905.229510	0.047234
905.411146	0.047192
905.592763	0.047118
905.774363	0.046737
905.955943	0.046715
906.137506	0.046327
906.319051	0.046312
906.500577	0.046137
906.682085	0.045797
906.863575	0.045439
907.045046	0.045072
907.226500	0.044819
907.407935	0.044523
907.589352	0.044416
907.770750	0.044429
907.952131	0.044494
908.133493	0.044467
908.314837	0.044664
908.496163	0.044824
908.677470	0.044892
908.858760	0.044720
909.040031	0.044467
909.221284	0.044351
909.402518	0.044324
909.583735	0.044320
909.764933	0.044240
909.946113	0.044098
910.127275	0.044169
910.308418	0.043904
910.489544	0.043956
910.670651	0.044384
910.851740	0.044420
911.032810	0.044363
911.213863	0.043940
911.394897	0.043903
911.575913	0.044016
911.756911	0.043938
911.937890	0.044184
912.118851	0.043907
912.299794	0.043810
912.480719	0.043555
912.661626	0.043385
912.842514	0.043194
913.023384	0.042759
913.204236	0.042538
913.385070	0.042030
913.565886	0.041866
913.746683	0.041885
913.927462	0.041853
914.108223	0.041615
914.288965	0.041409
914.469690	0.041320
914.650396	0.041304
914.831084	0.041182
915.011754	0.041273
915.192405	0.041012
915.373038	0.041061
915.553653	0.040574
915.734250	0.040413
915.914829	0.040464
916.095389	0.040266
916.275931	0.040131
916.456455	0.040033
916.636961	0.039643
916.817448	0.039639
916.997917	0.039382
917.178368	0.039182
917.358801	0.038697
917.539216	0.038551
917.719612	0.038576
917.899990	0.038448
918.080350	0.038126
918.260692	0.038452
918.441015	0.038091
918.621320	0.038185
918.801607	0.037930
918.981876	0.038269
919.162127	0.038209
919.342359	0.038190
919.522573	0.038141
919.702769	0.037989
919.882947	0.037691
920.063106	0.037542
920.243247	0.037155
920.423370	0.037361
920.603475	0.037145
920.783562	0.036854
920.963630	0.036898
921.143680	0.036732
921.323712	0.036480
921.503725	0.036194
921.683721	0.035791
921.863698	0.035593
922.043657	0.035239
922.223598	0.034960
922.403520	0.034604
922.583424	0.033921
922.763311	0.033812
922.943178	0.033520
923.123028	0.033484
923.302859	0.033679
923.482673	0.033102
923.662467	0.032989
923.842244	0.033251
924.022003	0.033463
924.201743	0.033524
924.381465	0.032967
924.561169	0.032950
924.740854	0.032419
924.920522	0.032086
925.100171	0.032306
925.279802	0.032413
925.459414	0.031884
925.639009	0.030800
925.818585	0.031030
925.998143	0.031469
926.177683	0.031334
926.357205	0.031492
926.536708	0.031554
926.716193	0.030941
926.895660	0.030364
927.075109	0.029531
927.254539	0.029750
927.433951	0.029163
927.613345	0.028211
927.792721	0.028038
927.972079	0.027599
928.151418	0.026962
928.330739	0.027424
928.510042	0.027361
928.689327	0.027531
928.868593	0.027491
929.047841	0.026684
929.227071	0.026642
929.406283	0.026522
929.585476	0.026193
929.764652	0.026223
929.943809	0.025630
930.122948	0.025760
930.302068	0.026052
930.481171	0.025775
930.660255	0.025801
930.839321	0.025219
931.018369	0.024746
931.197398	0.024438
931.376409	0.023666
931.555402	0.023397
931.734377	0.022712
931.913334	0.022179
932.092272	0.021713
932.271192	0.021550
932.450094	0.021611
932.628978	0.021515
932.807844	0.020917
932.986691	0.021036
933.165520	0.020861
933.344331	0.019992
933.523123	0.020135
933.701898	0.020170
933.880654	0.019687
934.059392	0.019352
934.238111	0.019202
934.416813	0.019148
934.595496	0.019436
934.774161	0.019165
934.952808	0.019201
935.131437	0.018987
935.310047	0.018835
935.488639	0.018886
935.667213	0.018642
935.845769	0.017929
936.024306	0.017903
936.202825	0.016923
936.381326	0.016454
936.559809	0.016846
936.738274	0.015754
936.916720	0.014446
937.095148	0.015138
937.273558	0.014851
937.451950	0.015650
937.630323	0.015139
937.808678	0.014337
937.987015	0.014234
938.165334	0.013463
938.343635	0.013570
938.521917	0.013821
938.700181	0.012439
938.878427	0.012381
939.056655	0.011144
939.234864	0.010632
939.413055	0.011118
939.591228	0.010352
939.769383	0.009916
939.947519	0.010772
940.125638	0.010777
940.303738	0.010431
940.481820	0.010145
940.659883	0.009930
940.837929	0.010114
941.015956	0.009918
941.193965	0.009358
941.371955	0.009409
941.549928	0.007769
941.727882	0.008072
941.905818	0.008050
942.083736	0.007944
942.261636	0.007567
942.439517	0.007579
942.617380	0.007160
942.795225	0.007197
942.973052	0.006550
943.150860	0.006975
943.328651	0.006176
943.506423	0.005328
943.684176	0.005362
943.861912	0.004887
944.039629	0.003057
944.217328	0.002626
944.395009	0.003317
944.572672	0.004181
944.750317	0.002327
944.927943	0.002669
945.105551	0.003366
945.283141	0.001271
945.460712	0.001690
945.638265	0.002662
945.815801	0.002572
945.993317	0.002580
946.170816	0.000563
946.348297	0.001578
946.525759	0.000207
946.703203	0.000317
946.880629	0.001226
947.058036	0.000623
947.235425	-0.000181
947.412797	-0.000783
947.590149	-0.002606
947.767484	-0.000662
947.944800	-0.001603
948.122099	-0.001680
948.299379	-0.001991
948.476640	-0.002681
948.653884	-0.002824
948.831109	-0.001335
949.008316	-0.001075
949.185505	-0.000320
949.362676	-0.002599
949.539828	-0.002206
949.716962	-0.003338
949.894078	-0.004586
950.071176	-0.003357
950.248256	-0.003546
950.425317	-0.004950
950.602360	-0.005885
950.779385	-0.007346
950.956391	-0.006345
951.133380	-0.007004
951.310350	-0.005784
951.487302	-0.005568
951.664235	-0.005534
951.841151	-0.005614
952.018048	-0.005125
952.194927	-0.003855
952.371788	-0.003772
952.548631	-0.004641
952.725455	-0.004017
952.902261	-0.005581
953.079049	-0.005138
953.255819	-0.006054
953.432570	-0.006492
953.609303	-0.007683
953.786018	-0.008589
953.962715	-0.007491
954.139394	-0.007134
954.316054	-0.007655
954.492696	-0.006415
954.669320	-0.006809
954.845926	-0.005466
955.022513	-0.003799
955.199083	-0.002758
955.375634	-0.003283
955.552166	-0.003138
955.728681	-0.003185
955.905177	-0.003068
956.081655	-0.002384
956.258115	-0.003592
956.434557	-0.005933
956.610980	-0.007737
956.787385	-0.009513
956.963772	-0.009079
957.140141	-0.010518
957.316492	-0.010268
957.492824	-0.010596
957.669138	-0.010838
957.845434	-0.010522
958.021712	-0.009189
958.197971	-0.007795
958.374212	-0.006441
958.550435	-0.005708
958.726640	-0.005600
958.902826	-0.006325
959.078995	-0.006075
959.255145	-0.006576
959.431277	-0.006435
959.607390	-0.008112
959.783486	-0.010182
959.959563	-0.009477
960.135622	-0.009902
960.311662	-0.008756
960.487685	-0.008160
960.663689	-0.008854
960.839675	-0.007530
961.015643	-0.007496
961.191593	-0.007147
961.367524	-0.005451
961.543437	-0.005916
961.719332	-0.006019
961.895209	-0.005462
962.071067	-0.005904
962.246907	-0.005725
962.422730	-0.006339
962.598533	-0.005542
962.774319	-0.003529
962.950086	-0.004540
963.125835	-0.005549
963.301566	-0.004021
963.477279	-0.003851
963.652973	-0.005928
963.828650	-0.005391
964.004308	-0.007594
964.179947	-0.006881
964.355569	-0.008912
964.531172	-0.006896
964.706757	-0.006349
964.882324	-0.008364
965.057873	-0.008503
965.233403	-0.006365
965.408916	-0.005957
965.584410	-0.004977
965.759885	-0.006579
965.935343	-0.002068
966.110782	-0.004752
966.286203	-0.005197
966.461606	-0.004845
966.636991	-0.005346
966.812357	-0.004965
966.987705	-0.004742
967.163035	-0.003836
967.338347	-0.003152
967.513641	-0.005054
967.688916	-0.003861
967.864173	-0.003859
968.039412	-0.003686
968.214632	-0.004230
968.389835	-0.004179
968.565019	-0.003697
968.740185	-0.003363
968.915333	-0.003739
969.090462	-0.005154
969.265573	-0.005788
969.440667	-0.005996
969.615741	-0.004606
969.790798	-0.004790
969.965836	-0.005154
970.140856	-0.006566
970.315858	-0.006487
970.490842	-0.005334
970.665808	-0.006046
970.840755	-0.004300
971.015684	-0.001274
971.190595	-0.000905
971.365487	-0.001590
971.540362	-0.002583
971.715218	-0.001981
971.890056	-0.002498
972.064875	-0.001614
972.239677	-0.000527
972.414460	-0.000473
972.589225	-0.000952
972.763972	-0.002449
972.938700	-0.000032
973.113411	0.000359
973.288103	0.001150
973.462777	0.000779
973.637432	0.000330
973.812070	-0.000307
973.986689	-0.001375
974.161290	-0.001177
974.335873	-0.001183
974.510437	-0.002354
974.684984	-0.000058
974.859512	-0.001086
975.034022	-0.000460
975.208513	-0.000100
975.382987	-0.001698
975.557442	-0.001622
975.731879	-0.002333
975.906298	-0.002269
976.080698	-0.002472
976.255080	-0.004423
976.429445	-0.003207
976.603790	-0.002772
976.778118	-0.002543
976.952427	-0.000471
977.126719	0.000537
977.300992	0.000979
977.475246	0.001996
977.649483	0.003227
977.823701	0.002552
977.997901	0.002197
978.172083	0.002764
978.346247	0.002968
978.520392	0.001139
978.694519	0.000692
978.868628	-0.000848
979.042719	-0.002539
979.216791	-0.002864
979.390845	-0.000580
979.564882	-0.001620
979.738899	-0.002868
979.912899	-0.004190
980.086880	-0.003005
980.260843	-0.003228
980.434788	-0.003841
980.608715	-0.002929
980.782623	-0.003837
980.956514	-0.004011
981.130386	-0.003789
981.304240	-0.003753
981.478075	-0.004073
981.651892	-0.004086
981.825692	-0.004546
981.999472	-0.003418
982.173235	-0.003208
982.346980	-0.002265
982.520706	-0.003926
982.694414	-0.002829
982.868104	-0.002875
983.041775	-0.005035
983.215428	-0.002655
983.389064	-0.003505
983.562680	-0.003023
983.736279	-0.004771
983.909860	-0.004559
984.083422	-0.003809
984.256966	-0.004233
984.430491	-0.004512
984.603999	-0.001314
984.777488	-0.004815
984.950959	-0.002846
985.124412	-0.002676
985.297847	0.000291
985.471263	-0.000225
985.644661	-0.001536
985.818041	-0.002032
985.991403	-0.001927
986.164747	-0.004219
986.338072	-0.002356
986.511379	-0.002603
986.684668	-0.004208
986.857938	-0.006217
987.031191	-0.006400
987.204425	-0.005373
987.377641	-0.005534
987.550839	-0.005991
987.724018	-0.004634
987.897179	-0.004403
988.070322	-0.004954
988.243447	-0.003372
988.416554	-0.002116
988.589642	-0.001692
988.762712	-0.001843
988.935764	-0.003006
989.108798	-0.000877
989.281813	-0.002229
989.454811	-0.003479
989.627790	-0.003264
989.800751	-0.003583
989.973693	-0.002476
990.146617	-0.003083
990.319524	-0.003060
990.492412	-0.001891
990.665281	-0.002995
990.838133	-0.001718
991.010966	-0.001650
991.183781	-0.001488
991.356578	-0.002942
991.529356	-0.003881
991.702117	-0.004650
991.874859	-0.004185
992.047583	-0.005070
992.220288	-0.005274
992.392976	-0.006828
992.565645	-0.006703
992.738296	-0.006950
992.910929	-0.006039
993.083543	-0.007680
993.256139	-0.005882
993.428718	-0.004816
993.601277	-0.003399
993.773819	-0.003078
993.946342	-0.001649
994.118848	-0.001066
994.291335	-0.001321
994.463803	-0.000671
994.636254	-0.000355
994.808686	0.000268
994.981100	-0.001725
995.153496	-0.002241
995.325874	-0.003977
995.498233	-0.005612
995.670574	-0.005444
995.842897	-0.004122
996.015202	-0.003260
996.187488	-0.002731
996.359757	-0.004167
996.532007	-0.002862
996.704239	-0.002897
996.876452	-0.001241
997.048648	-0.000720
997.220825	-0.001311
997.392984	-0.002944
997.565124	-0.004351
997.737247	-0.004757
997.909351	-0.005767
998.081437	-0.005585
998.253505	-0.005055
998.425554	-0.006637
998.597586	-0.005684
998.769599	-0.006299
998.941594	-0.006173
999.113571	-0.006337
999.285529	-0.005506
999.457469	-0.003752
999.629391	-0.004498
999.801295	-0.005114
999.973181	-0.003945
1000.145048	-0.004404
1000.316897	-0.003557
1000.488728	-0.003967
1000.660541	-0.003415
1000.832335	-0.003577
1001.004111	-0.003533
1001.175869	-0.004115
1001.347609	-0.003526
1001.519331	-0.003975
1001.691034	-0.002810
1001.862719	-0.002741
1002.034386	-0.002263
1002.206035	-0.001725
1002.377665	-0.002298
1002.549277	-0.004075
1002.720871	-0.002932
1002.892447	-0.003247
1003.064004	-0.001142
1003.235544	-0.003126
1003.407065	-0.004369
1003.578568	-0.004238
1003.750052	-0.005590
1003.921519	-0.004957
1004.092967	-0.004347
1004.264397	-0.004877
1004.435809	-0.004132
1004.607202	-0.006544
1004.778577	-0.004836
1004.949934	-0.002969
1005.121273	-0.002339
1005.292594	-0.001816
1005.463896	-0.002098
1005.635180	-0.000703
1005.806446	-0.002156
1005.977694	-0.002225
1006.148923	-0.001083
1006.320135	-0.002813
1006.491328	-0.004199
1006.662503	-0.005538
1006.833659	-0.005053
1007.004798	-0.005008
1007.175918	-0.005851
1007.347020	-0.004412
1007.518103	-0.004870
1007.689169	-0.005371
1007.860216	-0.002963
1008.031245	-0.002950
1008.202256	-0.001572
1008.373248	-0.001380
1008.544223	-0.002365
1008.715179	-0.002546
1008.886117	-0.002524
1009.057036	-0.003677
1009.227938	-0.003774
1009.398821	-0.004674
1009.569686	-0.003791
1009.740533	-0.004516
1009.911361	-0.004667
1010.082172	-0.003623
1010.252964	-0.003526
1010.423738	-0.002577
1010.594493	-0.001112
1010.765231	-0.000800
1010.935950	-0.001362
1011.106651	-0.001283
1011.277334	-0.001763
1011.447998	-0.003117
1011.618645	-0.003554
1011.789273	-0.002284
1011.959882	-0.003417
1012.130474	-0.004243
1012.301048	-0.004278
1012.471603	-0.005607
1012.642140	-0.004790
1012.812658	-0.004671
1012.983159	-0.003794
1013.153641	-0.002640
1013.324105	-0.004238
1013.494551	-0.003681
1013.664979	-0.004311
1013.835388	-0.004325
1014.005779	-0.002969
1014.176152	-0.004929
1014.346507	-0.004300
1014.516843	-0.004359
1014.687162	-0.005004
1014.857462	-0.005609
1015.027744	-0.006463
1015.198007	-0.006168
1015.368252	-0.005801
1015.538480	-0.005613
1015.708689	-0.005507
1015.878879	-0.007573
1016.049052	-0.007730
1016.219206	-0.006609
1016.389342	-0.005143
1016.559460	-0.005438
1016.729559	-0.003993
1016.899641	-0.005422
1017.069704	-0.005183
1017.239749	-0.004928
1017.409775	-0.003806
1017.579784	-0.003495
1017.749774	-0.004513
1017.919746	-0.006056
1018.089700	-0.004876
1018.259635	-0.006245
1018.429553	-0.004724
1018.599452	-0.004110
1018.769333	-0.004323
1018.939195	-0.004241
1019.109040	-0.002344
1019.278866	-0.002403
1019.448674	-0.002154
1019.618464	-0.004102
1019.788235	-0.003053
1019.957989	-0.003811
1020.127724	-0.004825
1020.297441	-0.004752
1020.467139	-0.004796
1020.636820	-0.007154
1020.806482	-0.006551
1020.976126	-0.005445
1021.145752	-0.001962
1021.315359	-0.002133
1021.484948	-0.001333
1021.654519	-0.001335
1021.824072	-0.001990
1021.993607	-0.001178
1022.163123	-0.001404
1022.332621	-0.002195
1022.502101	-0.003144
1022.671563	-0.004421
1022.841007	-0.003106
1023.010432	-0.004787
1023.179839	-0.006220
1023.349228	-0.005428
1023.518598	-0.005306
1023.687951	-0.004058
1023.857285	-0.005032
1024.026601	-0.003821
1024.195899	-0.003700
1024.365178	-0.004785
1024.534439	-0.002486
1024.703682	-0.000965
1024.872907	-0.001775
1025.042114	-0.001353
1025.211302	-0.001163
1025.380472	-0.000282
1025.549624	-0.000485
1025.718758	-0.002114
1025.887873	-0.002008
1026.056970	-0.002815
1026.226049	-0.003385
1026.395110	-0.002148
1026.564153	-0.002086
1026.733177	-0.003464
1026.902183	-0.004565
1027.071171	-0.005579
1027.240141	-0.005631
1027.409092	-0.004986
1027.578026	-0.004931
1027.746940	-0.003012
1027.915837	-0.003959
1028.084716	-0.004969
1028.253576	-0.004626
1028.422418	-0.002747
1028.591242	-0.003113
1028.760048	-0.001849
1028.928835	-0.002316
1029.097604	-0.002688
1029.266355	-0.003612
1029.435088	-0.002448
1029.603803	-0.003179
1029.772499	-0.002300
1029.941177	-0.002477
1030.109837	-0.000811
1030.278478	-0.001983
1030.447102	-0.003007
1030.615707	-0.002317
1030.784294	-0.002038
1030.952863	-0.001597
1031.121413	-0.000993
1031.289945	-0.002771
1031.458460	-0.002581
1031.626955	-0.002954
1031.795433	-0.001882
1031.963892	-0.001298
1032.132334	-0.002335
1032.300756	-0.003055
1032.469161	-0.005417
1032.637548	-0.004983
1032.805916	-0.003126
1032.974266	-0.002878
1033.142598	-0.004303
1033.310911	-0.003939
1033.479207	-0.002492
1033.647484	-0.002064
1033.815743	-0.000296
1033.983983	0.000641
1034.152206	0.000224
1034.320410	-0.001160
1034.488596	-0.001432
1034.656764	-0.000947
1034.824914	-0.001352
1034.993045	-0.003354
1035.161158	-0.001668
1035.329253	-0.004298
1035.497330	-0.002034
1035.665388	-0.000980
1035.833428	-0.001384
1036.001450	-0.000969
1036.169454	-0.001448
1036.337440	-0.001340
1036.505407	-0.000424
1036.673356	-0.002525
1036.841287	-0.001167
1037.009200	-0.003326
1037.177094	-0.004740
1037.344970	-0.004279
1037.512828	-0.004999
1037.680668	-0.004201
1037.848489	-0.004249
1038.016293	-0.004710
1038.184078	-0.004021
1038.351845	-0.004876
1038.519593	-0.004635
1038.687324	-0.003229
1038.855036	-0.001650
1039.022730	-0.002975
1039.190406	-0.004411
1039.358063	-0.006026
1039.525702	-0.005935
1039.693323	-0.006120
1039.860926	-0.006463
1040.028511	-0.005244
1040.196077	-0.006154
1040.363625	-0.008365
1040.531155	-0.006931
1040.698667	-0.006367
1040.866161	-0.006035
1041.033636	-0.004380
1041.201093	-0.003960
1041.368532	-0.003546
1041.535952	-0.004828
1041.703355	-0.004005
1041.870739	-0.001644
1042.038105	-0.002205
1042.205452	-0.001084
1042.372782	-0.001259
1042.540093	-0.003920
1042.707386	-0.002559
1042.874661	-0.001022
1043.041918	0.000420
1043.209156	0.001308
1043.376376	-0.000346
1043.543578	-0.000323
1043.710762	-0.000272
1043.877927	0.000104
1044.045074	0.001331
1044.212203	-0.001235
1044.379314	-0.001375
1044.546407	-0.003794
1044.713481	-0.005664
1044.880537	-0.006680
1045.047575	-0.006181
1045.214595	-0.004825
1045.381596	-0.003953
1045.548579	-0.005357
1045.715544	-0.005288
1045.882491	-0.006619
1046.049420	-0.004785
1046.216330	-0.004593
1046.383222	-0.005014
1046.550096	-0.005140
1046.716951	-0.006813
1046.883789	-0.007344
1047.050608	-0.006761
1047.217409	-0.005816
1047.384192	-0.006877
1047.550956	-0.007666
1047.717703	-0.008051
1047.884431	-0.005900
1048.051140	-0.005669
1048.217832	-0.006115
1048.384505	-0.006530
1048.551161	-0.005063
1048.717798	-0.005586
1048.884416	-0.004593
1049.051017	-0.002477
1049.217599	-0.002183
1049.384163	-0.001305
1049.550709	-0.001666
1049.717237	-0.000349
1049.883746	0.000865
1050.050237	0.000247
1050.216710	0.001272
1050.383165	0.001606
1050.549601	0.000198
1050.716019	0.001088
1050.882420	-0.001190
1051.048801	-0.001147
1051.215165	-0.001257
1051.381510	-0.001831
1051.547837	-0.000795
1051.714146	-0.000833
1051.880437	-0.001012
1052.046709	-0.002178
1052.212964	-0.002748
1052.379200	-0.000757
1052.545417	-0.000576
1052.711617	-0.001871
1052.877798	-0.001983
1053.043961	-0.003092
1053.210106	-0.003810
1053.376233	-0.004523
1053.542341	-0.005379
1053.708432	-0.005301
1053.874504	-0.005047
1054.040557	-0.006556
1054.206593	-0.004819
1054.372610	-0.004561
1054.538609	-0.002702
1054.704590	-0.000268
1054.870553	-0.001207
1055.036497	0.001891
1055.202424	0.001654
1055.368331	0.001421
1055.534221	0.002148
1055.700093	0.000552
1055.865946	0.001075
1056.031781	-0.000648
1056.197598	-0.002044
1056.363397	-0.001145
1056.529177	-0.003118
1056.694939	-0.002224
1056.860683	-0.006307
1057.026409	-0.006713
1057.192116	-0.006316
1057.357806	-0.006669
1057.523477	-0.006079
1057.689130	-0.008537
1057.854764	-0.008554
1058.020381	-0.009322
1058.185979	-0.010137
1058.351559	-0.006203
1058.517120	-0.006089
1058.682664	-0.006630
1058.848189	-0.007116
1059.013696	-0.008240
1059.179185	-0.007110
1059.344656	-0.005238
1059.510108	-0.004204
1059.675542	-0.002577
1059.840958	-0.002796
1060.006356	-0.000996
1060.171735	0.000824
1060.337096	-0.000151
1060.502439	-0.001058
1060.667764	-0.003065
1060.833071	-0.003518
1060.998359	-0.003040
1061.163629	-0.005233
1061.328881	-0.004828
1061.494115	-0.004950
1061.659330	-0.006749
1061.824527	-0.006093
1061.989706	-0.006440
1062.154867	-0.002930
1062.320010	-0.004042
1062.485134	-0.004428
1062.650240	-0.003317
1062.815328	-0.004502
1062.980398	-0.006211
1063.145449	-0.005568
1063.310482	-0.004010
1063.475497	-0.001174
1063.640494	-0.003799
1063.805473	-0.004107
1063.970433	-0.005128
1064.135375	-0.004865
1064.300299	-0.004060
1064.465204	-0.004067
1064.630092	-0.004298
1064.794961	-0.006332
1064.959812	-0.007181
1065.124645	-0.005223
1065.289459	-0.003985
1065.454256	-0.002514
1065.619034	-0.003587
1065.783793	-0.004712
1065.948535	-0.003769
1066.113258	-0.004059
1066.277964	-0.002678
1066.442651	-0.003048
1066.607319	-0.003704
1066.771970	-0.004278
1066.936602	-0.004662
1067.101216	-0.003400
1067.265812	-0.001592
1067.430389	-0.002288
1067.594949	-0.002395
1067.759490	-0.000869
1067.924013	-0.001511
1068.088518	0.000050
1068.253004	0.001527
1068.417472	0.001827
1068.581922	-0.000720
1068.746354	-0.000430
1068.910768	-0.000982
1069.075163	-0.000068
1069.239540	-0.002748
1069.403899	-0.001912
1069.568240	-0.002970
1069.732562	-0.003312
1069.896866	-0.005104
1070.061152	-0.003079
1070.225420	-0.003758
1070.389670	-0.003032
1070.553901	-0.003099
1070.718114	-0.002548
1070.882309	-0.002877
1071.046486	-0.004312
1071.210644	-0.005639
1071.374784	-0.003057
1071.538906	-0.003647
1071.703010	-0.004661
1071.867096	-0.003979
1072.031163	-0.003292
1072.195212	-0.001155
1072.359243	-0.000841
1072.523256	-0.000314
1072.687250	-0.001091
1072.851226	-0.000135
1073.015184	-0.001720
1073.179124	-0.003064
1073.343045	-0.005190
1073.506949	-0.006079
1073.670834	-0.006546
1073.834701	-0.007161
1073.998549	-0.007604
1074.162380	-0.005866
1074.326192	-0.009450
1074.489986	-0.006383
1074.653761	-0.005796
1074.817519	-0.005498
1074.981258	-0.005249
1075.144979	-0.008176
1075.308682	-0.007335
1075.472367	-0.006267
1075.636033	-0.005235
1075.799681	-0.003854
1075.963311	-0.004543
1076.126923	-0.004327
1076.290516	-0.004318
1076.454092	-0.005693
1076.617649	-0.004373
1076.781187	-0.005651
1076.944708	-0.004459
1077.108210	-0.005086
1077.271695	-0.003096
1077.435160	-0.001606
1077.598608	-0.000219
1077.762038	0.003341
1077.925449	0.003944
1078.088842	0.003707
1078.252217	0.004292
1078.415573	0.001733
1078.578912	0.001637
1078.742232	-0.000978
1078.905534	-0.004908
1079.068817	-0.005763
1079.232083	-0.007505
1079.395330	-0.007132
1079.558559	-0.005567
1079.721770	-0.007154
1079.884962	-0.007117
1080.048136	-0.007020
1080.211293	-0.007171
1080.374430	-0.006840
1080.537550	-0.005801
1080.700651	-0.008031
1080.863735	-0.009023
1081.026800	-0.011459
1081.189846	-0.010394
1081.352875	-0.008900
1081.515885	-0.010968
1081.678877	-0.008284
1081.841851	-0.005308
1082.004807	-0.006054
1082.167744	-0.004770
1082.330663	-0.004041
1082.493564	-0.004599
1082.656447	-0.002744
1082.819312	-0.004299
1082.982158	-0.004845
1083.144986	-0.007384
1083.307796	-0.009831
1083.470587	-0.009120
1083.633361	-0.007183
1083.796116	-0.006482
1083.958853	-0.005141
1084.121571	-0.006200
1084.284272	-0.006176
1084.446954	-0.004629
1084.609618	-0.001310
1084.772264	0.000386
1084.934892	-0.003145
1085.097501	-0.004640
1085.260092	-0.006506
1085.422665	-0.007290
1085.585220	-0.007360
1085.747756	-0.006146
1085.910274	-0.007294
1086.072774	-0.009793
1086.235256	-0.011841
1086.397720	-0.008917
1086.560165	-0.009520
1086.722592	-0.008991
1086.885001	-0.006922
1087.047392	-0.007538
1087.209764	-0.007498
1087.372119	-0.008591
1087.534455	-0.007586
1087.696772	-0.004881
1087.859072	-0.005483
1088.021353	-0.003899
1088.183616	-0.004865
1088.345861	-0.005701
1088.508088	-0.006845
1088.670296	-0.007265
1088.832486	-0.003818
1088.994658	-0.004758
1089.156812	-0.005941
1089.318948	-0.004093
1089.481065	-0.004508
1089.643164	0.001246
1089.805245	0.001221
1089.967308	0.003951
1090.129352	0.004786
1090.291378	0.004948
1090.453386	0.004524
1090.615376	0.004415
1090.777347	0.001710
1090.939301	0.000638
1091.101236	-0.003610
1091.263153	-0.001681
1091.425051	-0.003974
1091.586932	-0.006014
1091.748794	-0.007725
1091.910638	-0.009128
1092.072463	-0.010402
1092.234271	-0.008054
1092.396060	-0.009852
1092.557831	-0.010765
1092.719584	-0.013133
1092.881319	-0.013232
1093.043035	-0.010823
1093.204733	-0.010104
1093.366413	-0.009094
1093.528075	-0.009513
1093.689718	-0.010008
1093.851343	-0.007725
1094.012950	-0.005917
1094.174539	-0.005313
1094.336110	-0.003613
1094.497662	-0.007124
1094.659196	-0.004981
1094.820712	-0.005673
1094.982210	-0.001852
1095.143689	-0.000062
1095.305151	-0.000834
1095.466594	0.002059
1095.628018	0.001425
1095.789425	0.000444
1095.950813	0.003390
1096.112183	0.000161
1096.273535	0.003680
1096.434869	0.001438
1096.596184	-0.000861
1096.757482	0.001078
1096.918761	-0.001616
1097.080021	0.001815
1097.241264	0.002956
1097.402488	-0.001007
1097.563694	0.000490
1097.724882	-0.002016
1097.886052	-0.000958
1098.047203	0.001860
1098.208336	0.002800
1098.369451	0.004839
1098.530548	0.003076
1098.691627	0.001198
1098.852687	0.006620
1099.013729	0.006145
1099.174753	0.005682
1099.335758	0.004633
1099.496746	0.002288
1099.657715	0.001487
1099.818666	-0.002401
1099.979599	-0.005201
1100.140513	-0.003733
1100.301409	-0.005204
1100.462287	-0.008475
1100.623147	-0.009511
1100.783989	-0.006766
1100.944812	-0.006939
1101.105617	-0.004773
1101.266404	-0.007150
1101.427173	-0.004652
1101.587923	-0.005666
1101.748656	-0.007603
1101.909370	-0.002757
1102.070066	-0.001677
1102.230743	-0.003111
1102.391403	-0.005021
1102.552044	-0.009439
1102.712667	-0.005197
1102.873271	-0.004702
1103.033858	-0.003616
1103.194426	-0.001968
1103.354976	-0.003467
1103.515508	-0.001921
1103.676021	-0.003770
1103.836517	-0.005119
1103.996994	-0.005129
1104.157453	-0.003843
1104.317893	-0.005735
1104.478316	-0.006675
1104.638720	-0.003912
1104.799106	-0.006813
1104.959474	-0.007992
1105.119823	-0.007884
1105.280155	-0.006899
1105.440468	-0.004872
1105.600763	-0.005822
1105.761039	-0.008647
1105.921298	-0.009301
1106.081538	-0.012827
1106.241760	-0.008131
1106.401964	-0.009093
1106.562149	-0.007937
1106.722316	-0.007000
1106.882465	-0.008077
1107.042596	-0.008139
1107.202709	-0.010177
1107.362803	-0.011720
1107.522879	-0.013723
1107.682937	-0.017325
1107.842977	-0.016087
1108.002999	-0.017130
1108.163002	-0.014969
1108.322987	-0.010702
1108.482954	-0.011586
1108.642902	-0.007914
1108.802833	-0.006108
1108.962745	-0.002425
1109.122639	-0.001437
1109.282515	-0.000361
1109.442372	-0.000756
1109.602211	-0.005841
1109.762032	-0.012892
1109.921835	-0.013460
1110.081620	-0.010173
1110.241386	-0.003559
1110.401134	-0.002887
1110.560864	0.000067
1110.720576	-0.003564
1110.880269	-0.004339
1111.039945	-0.000717
1111.199602	0.003107
1111.359240	0.005106
1111.518861	0.002283
1111.678463	-0.003815
1111.838047	-0.004324
1111.997613	-0.007985
1112.157161	-0.006266
1112.316690	-0.006339
1112.476202	-0.003963
1112.635695	-0.007597
1112.795169	-0.009824
1112.954626	-0.008823
1113.114064	-0.009397
1113.273484	-0.010253
1113.432886	-0.009590
1113.592270	-0.004939
1113.751635	-0.003942
1113.910983	-0.010312
1114.070312	-0.006286
1114.229622	-0.006605
1114.388915	-0.008701
1114.548189	-0.010462
1114.707445	-0.009832
1114.866683	-0.009995
1115.025903	-0.013790
1115.185104	-0.014629
1115.344287	-0.016733
1115.503452	-0.016234
1115.662599	-0.017552
1115.821727	-0.013984
1115.980838	-0.008612
1116.139930	-0.005439
1116.299004	-0.004445
1116.458059	-0.011319
1116.617097	-0.012477
1116.776116	-0.001992
1116.935117	-0.006450
1117.094099	-0.002509
1117.253064	-0.003364
1117.412010	-0.003647
1117.570938	-0.008429
1117.729848	-0.008665
1117.888740	-0.000715
1118.047613	-0.001166
1118.206468	-0.006536
1118.365305	-0.005682
1118.524124	-0.005193
1118.682924	-0.004709
1118.841707	-0.005167
1119.000471	-0.004522
1119.159216	-0.005308
1119.317944	-0.009178
1119.476653	-0.008399
1119.635344	-0.006416
1119.794017	-0.004304
1119.952672	-0.009627
1120.111308	-0.015320
1120.269927	-0.012930
1120.428527	-0.006626
1120.587108	-0.007046
1120.745672	-0.000467
1120.904217	0.003815
1121.062744	0.002316
1121.221253	0.003965
1121.379744	0.012032
1121.538216	0.014972
1121.696671	0.011705
1121.855107	0.008438
1122.013524	0.012223
1122.171924	0.008707
1122.330305	0.002914
1122.488668	0.001867
1122.647013	0.002873
1122.805340	-0.002795
1122.963648	-0.000795
1123.121938	-0.001800
1123.280210	-0.000325
1123.438464	-0.008342
1123.596700	-0.009525
1123.754917	-0.012510
1123.913116	-0.011156
1124.071297	-0.015429
1124.229459	-0.012927
1124.387604	-0.013656
1124.545730	-0.011569
1124.703838	-0.011216
1124.861928	-0.001819
1125.019999	-0.001079
1125.178052	0.007289
1125.336088	0.009758
1125.494104	0.011789
1125.652103	0.012701
1125.810083	0.018261
1125.968045	0.016663
1126.125989	0.013969
1126.283915	0.008034
1126.441823	0.007938
1126.599712	0.001115
1126.757583	-0.006316
1126.915436	-0.008335
1127.073270	-0.009757
1127.231087	-0.016962
1127.388885	-0.014089
1127.546665	-0.015364
1127.704426	-0.008164
1127.862170	-0.004990
1128.019895	0.003892
1128.177602	0.007257
1128.335291	0.008661
1128.492961	0.009651
1128.650614	0.015861
1128.808248	0.006693
1128.965864	-0.001648
1129.123461	-0.010721
1129.281041	-0.014200
1129.438602	-0.018721
1129.596145	-0.022787
1129.753670	-0.022074
1129.911176	-0.025709
1130.068665	-0.027273
1130.226135	-0.020340
1130.383587	-0.013539
1130.541020	-0.009109
1130.698436	-0.013884
1130.855833	-0.010047
1131.013212	-0.003825
1131.170573	0.000611
1131.327915	-0.000004
1131.485239	-0.002355
1131.642545	-0.005425
1131.799833	-0.008389
1131.957103	-0.008510
1132.114354	-0.005950
1132.271588	-0.012687
1132.428803	-0.011209
1132.585999	-0.013028
1132.743178	-0.007202
1132.900338	-0.003680
1133.057480	0.006685
1133.214604	0.013371
1133.371710	0.015741
1133.528797	0.019636
1133.685866	0.030336
1133.842917	0.035209
1133.999950	0.025808
1134.156964	0.022166
1134.313960	0.006819
1134.470938	0.000876
1134.627898	-0.002955
1134.784840	-0.003070
1134.941763	-0.010767
1135.098668	-0.014293
1135.255555	-0.020812
1135.412424	-0.011419
1135.569274	-0.010541
1135.726107	0.000684
1135.882921	0.001912
1136.039716	0.007915
1136.196494	0.007804
1136.353253	0.015140
1136.509995	0.010686
1136.666717	0.006680
1136.823422	0.002397
1136.980109	-0.001845
1137.136777	0.001774
1137.293427	-0.005453
1137.450059	-0.011774
1137.606672	-0.011664
1137.763267	-0.011032
1137.919844	-0.006816
1138.076403	-0.001875
1138.232944	0.002261
1138.389466	0.008779
1138.545971	0.008062
1138.702457	0.013209
1138.858924	0.013472
1139.015374	0.008727
1139.171805	0.006820
1139.328218	-0.000893
1139.484613	-0.002583
1139.640990	-0.009838
1139.797348	-0.012591
1139.953688	-0.013853
1140.110010	-0.017975
1140.266314	-0.014788
1140.422600	-0.019550
1140.578867	-0.017093
1140.735116	-0.012058
1140.891347	-0.015334
1141.047559	-0.016335
1141.203754	-0.015322
1141.359930	-0.022526
1141.516088	-0.022597
1141.672228	-0.029840
1141.828349	-0.019200
1141.984452	-0.018329
1142.140537	-0.016227
1142.296604	-0.018882
1142.452653	-0.014792
1142.608683	-0.008001
1142.764695	0.000077
1142.920689	-0.003143
1143.076665	0.002856
1143.232622	0.001004
1143.388562	-0.001514
1143.544483	-0.004069
1143.700385	0.002499
1143.856270	0.005718
1144.012136	-0.004845
1144.167985	-0.004580
1144.323814	0.000952
1144.479626	-0.000308
1144.635420	-0.001874
1144.791195	-0.002036
1144.946952	-0.003025
1145.102691	-0.006241
1145.258411	-0.007023
1145.414113	-0.004157
1145.569798	-0.002451
1145.725463	-0.000094
1145.881111	0.007091
1146.036741	0.012393
1146.192352	0.013140
1146.347945	0.012573
1146.503519	0.013468
1146.659076	0.007902
1146.814614	0.001868
1146.970134	-0.006850
1147.125636	-0.012604
1147.281120	-0.023450
1147.436585	-0.024505
1147.592032	-0.028604
1147.747461	-0.028351
1147.902872	-0.025032
1148.058265	-0.024864
1148.213639	-0.018999
1148.368995	-0.013014
1148.524333	-0.005663
1148.679653	-0.000299
1148.834954	-0.010336
1148.990237	-0.003471
1149.145502	-0.013191
1149.300749	-0.011137
1149.455977	-0.008994
1149.611188	-0.010187
1149.766380	-0.006486
1149.921553	-0.009215
1150.076709	-0.005648
1150.231846	-0.001502
1150.386966	-0.000846
1150.542066	0.014233
1150.697149	0.013820
1150.852214	0.021431
1151.007260	0.012059
1151.162288	0.010243
1151.317298	0.003380
1151.472289	0.003054
1151.627263	0.000589
1151.782218	0.000119
1151.937155	-0.003882
1152.092073	-0.013046
1152.246974	-0.024823
1152.401856	-0.022079
1152.556720	-0.018935
1152.711566	-0.014737
1152.866393	-0.015272
1153.021203	-0.014093
1153.175994	-0.014482
1153.330767	-0.011147
1153.485521	-0.004196
1153.640258	0.007081
1153.794976	0.009585
1153.949676	0.005261
1154.104358	-0.004397
1154.259021	-0.011246
1154.413667	-0.014833
1154.568294	-0.018190
1154.722903	-0.023786
1154.877493	-0.023382
1155.032066	-0.033284
1155.186620	-0.031706
1155.341156	-0.026628
1155.495674	-0.014215
1155.650173	-0.011210
1155.804654	-0.001706
1155.959118	-0.005658
1156.113562	-0.002146
1156.267989	0.008705
1156.422397	0.016982
1156.576788	0.011539
1156.731160	0.004279
1156.885513	0.004927
1157.039849	0.005269
1157.194166	-0.002284
1157.348465	-0.002034
1157.502746	-0.003483
1157.657009	-0.017646
1157.811253	-0.031422
1157.965479	-0.028353
1158.119687	-0.030653
1158.273877	-0.025955
1158.428048	-0.026128
1158.582201	-0.026784
1158.736337	-0.023826
1158.890453	-0.023240
1159.044552	-0.030297
1159.198632	-0.015468
1159.352694	-0.016442
1159.506738	-0.010324
1159.660764	-0.015699
1159.814771	-0.013399
1159.968761	-0.008778
1160.122732	-0.008613
1160.276685	-0.002911
1160.430619	0.002500
1160.584535	-0.011469
1160.738434	0.005573
1160.892313	0.001771
1161.046175	-0.006414
1161.200019	-0.008720
1161.353844	-0.007569
1161.507651	-0.012356
1161.661440	-0.020056
1161.815210	-0.017734
1161.968962	-0.002102
1162.122697	-0.009881
1162.276412	-0.013764
1162.430110	-0.014473
1162.583789	-0.004836
1162.737451	-0.003182
1162.891094	0.001535
1163.044718	-0.003668
1163.198325	-0.007077
1163.351913	-0.006220
1163.505483	-0.026129
1163.659035	-0.031397
1163.812569	-0.027485
1163.966084	-0.038084
1164.119581	-0.041778
1164.273060	-0.046941
1164.426521	-0.046628
1164.579964	-0.036597
1164.733388	-0.046773
1164.886794	-0.037560
1165.040182	-0.030719
1165.193551	-0.020263
1165.346903	-0.022386
1165.500236	-0.026935
1165.653551	-0.011990
1165.806848	-0.005359
1165.960126	-0.017254
1166.113386	-0.008951
1166.266628	-0.005936
1166.419852	-0.012312
1166.573058	-0.025192
1166.726245	-0.009101
1166.879414	0.001704
1167.032565	-0.001777
1167.185698	-0.004020
1167.338812	0.007024
1167.491909	0.001399
1167.644987	0.000903
1167.798046	0.018280
1167.951088	0.023102
1168.104111	0.018222
1168.257117	0.009400
1168.410103	-0.005485
1168.563072	-0.000795
1168.716023	0.010371
1168.868955	0.007855
1169.021869	0.004445
1169.174765	-0.001890
1169.327642	-0.002254
1169.480501	-0.012402
1169.633343	-0.017281
1169.786165	-0.002328
1169.938970	-0.019869
1170.091757	-0.034694
1170.244525	-0.034204
1170.397275	-0.021264
1170.550007	-0.024339
1170.702720	-0.024334
1170.855415	-0.027313
1171.008092	-0.019096
1171.160751	-0.023021
1171.313392	-0.008073
1171.466014	-0.034556
1171.618619	-0.003680
1171.771205	-0.003680
1171.923772	-0.003680
