sample name	sample
index	1487
start time	 05-18-2021  12:53:46 PM


Wavelength (nm)	Absorbance
494.344910	0.065832
494.563924	0.065832
494.782919	0.065832
495.001897	-0.186356
495.220856	0.037892
495.439797	0.042684
495.658719	0.021666
495.877624	-0.077171
496.096510	-0.012173
496.315378	0.049398
496.534227	-0.039273
496.753059	-0.127781
496.971872	-0.150318
497.190667	0.007874
497.409444	0.010255
497.628203	0.013720
497.846943	0.015407
498.065665	0.015043
498.284369	0.015151
498.503055	0.016315
498.721723	0.016595
498.940372	0.016046
499.159003	0.016170
499.377616	0.016261
499.596210	0.015624
499.814787	0.015875
500.033345	0.015050
500.251885	0.014961
500.470406	0.014464
500.688910	0.014018
500.907395	0.013606
501.125862	0.012722
501.344311	0.013333
501.562742	0.013565
501.781154	0.013069
501.999548	0.013441
502.217924	0.013031
502.436282	0.013613
502.654621	0.012937
502.872942	0.013282
503.091245	0.013437
503.309530	0.012519
503.527797	0.012268
503.746045	0.013063
503.964275	0.013351
504.182487	0.012997
504.400681	0.012704
504.618856	0.013092
504.837013	0.012483
505.055152	0.012318
505.273273	0.013264
505.491376	0.014212
505.709460	0.014168
505.927526	0.013711
506.145574	0.013314
506.363604	0.013190
506.581615	0.013753
506.799608	0.014696
507.017583	0.015335
507.235540	0.014815
507.453478	0.013978
507.671399	0.013891
507.889301	0.013591
508.107185	0.013708
508.325050	0.013436
508.542898	0.013572
508.760727	0.013412
508.978538	0.013108
509.196330	0.013791
509.414105	0.013927
509.631861	0.013341
509.849599	0.013341
510.067319	0.013252
510.285021	0.013422
510.502704	0.013521
510.720369	0.013413
510.938016	0.014046
511.155645	0.013652
511.373255	0.014037
511.590848	0.013165
511.808422	0.013604
512.025977	0.014590
512.243515	0.014445
512.461034	0.013759
512.678536	0.013165
512.896018	0.012372
513.113483	0.011981
513.330930	0.011405
513.548358	0.012575
513.765768	0.012722
513.983160	0.012000
514.200533	0.012027
514.417889	0.012754
514.635226	0.013399
514.852545	0.014045
515.069845	0.013966
515.287128	0.014181
515.504392	0.013858
515.721638	0.013276
515.938866	0.013310
516.156075	0.013488
516.373267	0.013069
516.590440	0.012584
516.807594	0.012445
517.024731	0.012839
517.241850	0.012549
517.458950	0.012750
517.676032	0.012882
517.893095	0.013266
518.110141	0.013362
518.327168	0.013277
518.544177	0.014163
518.761168	0.013763
518.978141	0.013061
519.195095	0.012942
519.412031	0.012861
519.628949	0.012762
519.845849	0.011772
520.062731	0.011090
520.279594	0.010946
520.496439	0.010000
520.713266	0.009506
520.930074	0.009449
521.146865	0.009768
521.363637	0.009125
521.580391	0.009470
521.797127	0.010295
522.013844	0.010405
522.230543	0.010550
522.447224	0.011178
522.663887	0.011746
522.880532	0.012404
523.097158	0.012166
523.313766	0.012622
523.530356	0.012488
523.746928	0.012242
523.963481	0.012705
524.180017	0.012186
524.396534	0.011683
524.613032	0.011089
524.829513	0.010851
525.045975	0.010671
525.262420	0.010686
525.478845	0.010558
525.695253	0.011001
525.911643	0.010323
526.128014	0.010676
526.344367	0.011033
526.560702	0.011088
526.777018	0.010581
526.993316	0.010527
527.209597	0.010346
527.425858	0.009871
527.642102	0.009087
527.858328	0.008943
528.074535	0.008878
528.290724	0.008153
528.506894	0.008586
528.723047	0.008720
528.939181	0.008572
529.155297	0.009049
529.371395	0.009473
529.587475	0.009444
529.803536	0.010064
530.019579	0.009652
530.235604	0.010458
530.451611	0.010089
530.667600	0.010401
530.883570	0.010129
531.099522	0.010028
531.315456	0.009927
531.531372	0.010348
531.747269	0.009858
531.963148	0.010314
532.179009	0.009822
532.394852	0.010149
532.610676	0.009537
532.826482	0.010181
533.042271	0.009744
533.258040	0.010244
533.473792	0.010149
533.689525	0.010575
533.905240	0.010570
534.120937	0.010543
534.336616	0.010768
534.552277	0.011011
534.767919	0.010458
534.983543	0.010682
535.199149	0.009837
535.414736	0.010178
535.630306	0.009745
535.845857	0.009289
536.061390	0.009043
536.276904	0.008630
536.492401	0.008356
536.707879	0.008684
536.923339	0.008336
537.138781	0.008620
537.354204	0.008129
537.569610	0.008233
537.784997	0.008673
538.000366	0.009021
538.215716	0.008779
538.431049	0.009431
538.646363	0.009114
538.861659	0.010129
539.076937	0.010247
539.292196	0.010375
539.507438	0.010529
539.722661	0.010174
539.937866	0.010201
540.153052	0.010154
540.368221	0.009814
540.583371	0.010022
540.798503	0.009139
541.013617	0.009352
541.228712	0.009145
541.443789	0.009353
541.658848	0.009396
541.873889	0.009503
542.088912	0.009721
542.303916	0.009730
542.518902	0.010012
542.733870	0.010127
542.948820	0.009804
543.163752	0.010116
543.378665	0.009830
543.593560	0.010066
543.808437	0.009830
544.023295	0.010085
544.238136	0.010358
544.452958	0.010365
544.667762	0.010388
544.882548	0.010613
545.097315	0.010307
545.312064	0.010638
545.526795	0.010681
545.741508	0.010614
545.956203	0.010326
546.170879	0.009992
546.385537	0.009876
546.600177	0.009834
546.814799	0.009583
547.029402	0.009507
547.243988	0.009448
547.458555	0.009444
547.673103	0.009656
547.887634	0.009784
548.102146	0.009963
548.316640	0.009809
548.531116	0.009673
548.745574	0.009800
548.960013	0.010054
549.174435	0.009942
549.388838	0.009917
549.603222	0.009932
549.817589	0.009650
550.031937	0.009682
550.246267	0.009808
550.460579	0.009860
550.674873	0.009793
550.889148	0.009931
551.103405	0.009841
551.317644	0.009889
551.531865	0.010215
551.746068	0.010444
551.960252	0.010483
552.174418	0.010803
552.388566	0.010718
552.602696	0.010687
552.816807	0.010603
553.030900	0.010766
553.244975	0.010593
553.459032	0.010459
553.673070	0.010469
553.887091	0.010263
554.101093	0.010103
554.315077	0.010393
554.529042	0.010299
554.742990	0.010265
554.956919	0.010428
555.170830	0.010559
555.384722	0.010344
555.598597	0.010293
555.812453	0.010530
556.026291	0.010653
556.240111	0.010505
556.453913	0.010712
556.667696	0.010733
556.881461	0.010728
557.095208	0.010565
557.308937	0.010642
557.522647	0.010551
557.736339	0.010450
557.950013	0.010513
558.163669	0.010419
558.377307	0.010419
558.590926	0.010191
558.804527	0.009960
559.018110	0.010280
559.231675	0.010094
559.445221	0.010149
559.658749	0.010129
559.872259	0.009723
560.085751	0.009658
560.299225	0.009495
560.512680	0.009601
560.726117	0.009593
560.939536	0.009609
561.152937	0.009621
561.366319	0.009913
561.579683	0.010006
561.793029	0.009827
562.006357	0.010036
562.219667	0.009974
562.432958	0.010006
562.646231	0.009767
562.859486	0.009605
563.072723	0.009865
563.285941	0.009843
563.499141	0.009800
563.712323	0.010257
563.925487	0.010305
564.138632	0.010591
564.351760	0.010725
564.564869	0.010776
564.777960	0.010750
564.991032	0.010730
565.204087	0.010288
565.417123	0.010044
565.630141	0.009928
565.843140	0.009905
566.056122	0.009817
566.269085	0.009683
566.482030	0.009783
566.694957	0.010081
566.907866	0.009950
567.120756	0.010282
567.333628	0.010293
567.546482	0.010059
567.759318	0.010240
567.972135	0.010407
568.184935	0.010634
568.397716	0.010734
568.610478	0.010639
568.823223	0.010736
569.035949	0.010825
569.248657	0.011076
569.461347	0.011644
569.674019	0.011569
569.886672	0.011425
570.099308	0.011413
570.311925	0.011474
570.524523	0.011396
570.737104	0.011499
570.949666	0.011550
571.162210	0.011689
571.374736	0.011239
571.587244	0.011398
571.799733	0.011554
572.012205	0.011494
572.224658	0.011696
572.437092	0.011543
572.649509	0.011418
572.861907	0.011313
573.074287	0.011528
573.286649	0.011926
573.498993	0.011853
573.711318	0.012065
573.923625	0.012226
574.135914	0.012027
574.348185	0.012210
574.560438	0.012130
574.772672	0.012272
574.984888	0.011870
575.197086	0.011884
575.409266	0.011795
575.621427	0.011676
575.833570	0.011482
576.045695	0.011403
576.257802	0.011302
576.469890	0.011621
576.681961	0.011810
576.894013	0.011916
577.106046	0.011748
577.318062	0.011901
577.530059	0.011914
577.742039	0.011865
577.954000	0.011978
578.165942	0.012222
578.377867	0.012179
578.589773	0.012164
578.801661	0.012120
579.013531	0.011949
579.225382	0.011931
579.437216	0.011961
579.649031	0.012150
579.860828	0.012299
580.072606	0.012476
580.284367	0.012789
580.496109	0.012665
580.707833	0.012968
580.919539	0.012927
581.131227	0.012878
581.342896	0.012977
581.554547	0.012995
581.766180	0.012883
581.977795	0.012773
582.189391	0.012491
582.400969	0.012356
582.612529	0.012082
582.824071	0.012495
583.035595	0.012270
583.247100	0.011916
583.458587	0.012105
583.670056	0.012248
583.881506	0.011959
584.092939	0.011875
584.304353	0.012015
584.515749	0.011991
584.727127	0.011698
584.938486	0.011596
585.149828	0.011524
585.361151	0.011192
585.572456	0.011027
585.783742	0.011297
585.995011	0.011401
586.206261	0.011157
586.417493	0.011207
586.628706	0.011000
586.839902	0.011297
587.051079	0.011667
587.262238	0.011689
587.473379	0.011597
587.684502	0.011324
587.895606	0.011077
588.106692	0.011178
588.317760	0.011280
588.528810	0.011695
588.739841	0.011998
588.950855	0.011817
589.161850	0.012217
589.372827	0.012273
589.583785	0.012531
589.794726	0.012778
590.005648	0.013020
590.216552	0.012989
590.427437	0.013069
590.638305	0.012868
590.849154	0.012895
591.059985	0.012400
591.270798	0.012814
591.481592	0.012858
591.692369	0.012721
591.903127	0.012779
592.113867	0.012773
592.324588	0.012643
592.535292	0.012507
592.745977	0.012740
592.956644	0.013131
593.167293	0.013156
593.377923	0.013334
593.588536	0.013609
593.799130	0.013279
594.009706	0.013379
594.220263	0.013370
594.430803	0.013594
594.641324	0.013598
594.851827	0.013458
595.062312	0.013458
595.272778	0.013285
595.483227	0.012865
595.693657	0.012887
595.904069	0.012774
596.114462	0.012826
596.324838	0.012579
596.535195	0.012501
596.745534	0.012586
596.955855	0.012524
597.166157	0.012320
597.376441	0.012418
597.586707	0.012490
597.796955	0.012742
598.007185	0.012923
598.217396	0.013456
598.427589	0.013529
598.637764	0.013657
598.847921	0.013606
599.058060	0.013650
599.268180	0.013891
599.478282	0.014025
599.688366	0.013673
599.898431	0.013581
600.108479	0.013334
600.318508	0.013262
600.528519	0.013203
600.738511	0.013046
600.948486	0.013172
601.158442	0.013107
601.368380	0.012898
601.578300	0.013013
601.788202	0.012876
601.998085	0.012461
602.207950	0.012414
602.417797	0.012152
602.627626	0.012165
602.837436	0.012202
603.047228	0.012093
603.257002	0.012190
603.466758	0.012326
603.676496	0.012341
603.886215	0.012583
604.095916	0.012539
604.305599	0.012469
604.515264	0.012481
604.724910	0.012549
604.934538	0.012906
605.144148	0.013096
605.353740	0.013248
605.563314	0.013230
605.772869	0.013090
605.982406	0.013336
606.191925	0.013568
606.401425	0.013716
606.610908	0.013744
606.820372	0.013676
607.029818	0.013763
607.239246	0.013476
607.448655	0.013641
607.658047	0.013887
607.867420	0.013696
608.076775	0.013579
608.286111	0.013540
608.495430	0.013566
608.704730	0.013394
608.914012	0.013237
609.123275	0.013426
609.332521	0.013528
609.541748	0.013487
609.750957	0.013546
609.960148	0.013641
610.169321	0.013546
610.378475	0.013332
610.587611	0.013229
610.796729	0.013124
611.005829	0.013111
611.214910	0.012881
611.423974	0.013089
611.633019	0.013186
611.842045	0.013363
612.051054	0.013452
612.260044	0.013698
612.469017	0.013884
612.677970	0.013889
612.886906	0.014022
613.095824	0.014102
613.304723	0.014005
613.513604	0.014092
613.722467	0.014248
613.931311	0.014414
614.140138	0.014477
614.348946	0.014539
614.557736	0.014616
614.766507	0.014645
614.975261	0.014740
615.183996	0.014670
615.392713	0.014935
615.601412	0.014695
615.810092	0.014486
616.018754	0.014303
616.227399	0.014205
616.436024	0.014255
616.644632	0.014224
616.853222	0.014039
617.061793	0.014060
617.270346	0.013597
617.478880	0.013800
617.687397	0.013845
617.895895	0.013965
618.104375	0.013896
618.312837	0.014038
618.521281	0.014072
618.729706	0.014140
618.938113	0.014378
619.146502	0.014590
619.354873	0.014504
619.563226	0.014496
619.771560	0.014482
619.979876	0.014718
620.188174	0.014411
620.396453	0.014458
620.604715	0.014337
620.812958	0.013979
621.021183	0.013770
621.229390	0.013455
621.437578	0.013397
621.645748	0.013338
621.853900	0.013267
622.062034	0.013564
622.270150	0.013276
622.478247	0.013312
622.686326	0.013556
622.894387	0.013617
623.102430	0.014053
623.310454	0.013872
623.518461	0.013863
623.726449	0.013897
623.934418	0.013832
624.142370	0.013915
624.350303	0.014271
624.558218	0.014464
624.766115	0.014586
624.973994	0.014574
625.181855	0.014841
625.389697	0.014919
625.597521	0.014837
625.805327	0.014861
626.013114	0.014957
626.220883	0.015000
626.428634	0.014801
626.636367	0.014746
626.844082	0.014983
627.051778	0.014857
627.259457	0.014884
627.467117	0.015091
627.674758	0.014907
627.882382	0.014773
628.089987	0.014811
628.297574	0.014775
628.505143	0.014969
628.712694	0.014583
628.920226	0.014841
629.127740	0.014792
629.335236	0.014593
629.542714	0.014914
629.750174	0.014997
629.957615	0.014937
630.165038	0.015157
630.372443	0.015198
630.579829	0.015126
630.787198	0.015048
630.994548	0.015072
631.201880	0.015348
631.409194	0.015393
631.616489	0.015578
631.823766	0.015631
632.031025	0.015549
632.238266	0.015319
632.445489	0.015605
632.652693	0.015915
632.859879	0.016068
633.067047	0.015907
633.274197	0.015864
633.481329	0.015916
633.688442	0.015853
633.895537	0.016045
634.102614	0.016351
634.309672	0.016386
634.516713	0.016294
634.723735	0.016339
634.930739	0.016580
635.137724	0.016598
635.344692	0.016540
635.551641	0.016612
635.758572	0.016480
635.965485	0.016522
636.172379	0.016561
636.379256	0.016518
636.586114	0.016505
636.792954	0.016302
636.999775	0.016348
637.206579	0.016444
637.413364	0.016409
637.620131	0.016574
637.826880	0.016493
638.033610	0.016438
638.240323	0.016496
638.447017	0.016591
638.653692	0.016765
638.860350	0.016789
639.066990	0.016785
639.273611	0.016663
639.480214	0.016534
639.686798	0.016507
639.893365	0.016405
640.099913	0.016145
640.306443	0.015849
640.512955	0.015556
640.719449	0.015545
640.925924	0.015460
641.132381	0.015742
641.338820	0.015785
641.545241	0.015710
641.751644	0.015769
641.958028	0.016012
642.164394	0.016107
642.370742	0.016218
642.577071	0.015951
642.783383	0.016068
642.989676	0.015685
643.195951	0.015625
643.402207	0.015435
643.608446	0.015245
643.814666	0.015358
644.020868	0.015421
644.227052	0.015255
644.433218	0.015292
644.639365	0.015209
644.845494	0.015429
645.051605	0.015446
645.257698	0.015683
645.463772	0.015816
645.669828	0.015629
645.875866	0.015815
646.081886	0.015929
646.287888	0.016032
646.493871	0.016151
646.699836	0.016030
646.905783	0.015970
647.111712	0.016002
647.317622	0.016123
647.523514	0.016142
647.729388	0.015874
647.935244	0.016028
648.141082	0.016234
648.346901	0.016170
648.552702	0.016310
648.758485	0.016609
648.964250	0.016557
649.169996	0.016580
649.375724	0.016702
649.581434	0.017081
649.787126	0.017235
649.992800	0.017206
650.198455	0.017290
650.404092	0.017324
650.609711	0.017265
650.815311	0.017458
651.020894	0.017509
651.226458	0.017377
651.432004	0.017309
651.637532	0.017359
651.843041	0.017220
652.048532	0.017082
652.254006	0.017133
652.459460	0.017343
652.664897	0.017380
652.870315	0.017538
653.075716	0.017789
653.281097	0.017854
653.486461	0.017868
653.691807	0.017937
653.897134	0.018142
654.102443	0.018123
654.307734	0.017987
654.513006	0.018041
654.718261	0.018018
654.923497	0.018187
655.128715	0.018092
655.333915	0.017990
655.539096	0.018077
655.744259	0.018153
655.949404	0.018406
656.154531	0.018415
656.359640	0.018318
656.564730	0.018315
656.769802	0.018192
656.974856	0.018439
657.179892	0.018629
657.384909	0.018746
657.589908	0.018575
657.794889	0.018434
657.999852	0.018432
658.204797	0.018557
658.409723	0.018509
658.614631	0.018576
658.819521	0.018530
659.024393	0.018361
659.229246	0.018360
659.434081	0.018441
659.638898	0.018576
659.843697	0.018854
660.048478	0.018940
660.253240	0.019100
660.457984	0.019116
660.662710	0.018974
660.867417	0.019162
661.072107	0.019248
661.276778	0.019496
661.481431	0.019482
661.686066	0.019376
661.890682	0.019149
662.095281	0.019137
662.299861	0.018988
662.504422	0.019073
662.708966	0.019074
662.913491	0.019207
663.117999	0.019126
663.322488	0.019138
663.526958	0.019075
663.731411	0.019154
663.935845	0.019025
664.140261	0.019114
664.344659	0.019071
664.549038	0.018830
664.753400	0.018553
664.957743	0.018494
665.162068	0.018458
665.366375	0.018289
665.570663	0.018346
665.774933	0.018317
665.979185	0.018296
666.183419	0.018225
666.387635	0.018415
666.591832	0.018418
666.796011	0.018487
667.000172	0.018585
667.204315	0.018579
667.408439	0.018550
667.612545	0.018737
667.816634	0.018832
668.020703	0.018845
668.224755	0.018882
668.428788	0.019026
668.632803	0.019062
668.836800	0.019170
669.040779	0.019325
669.244739	0.019438
669.448681	0.019293
669.652605	0.019249
669.856511	0.019405
670.060399	0.019442
670.264268	0.019459
670.468119	0.019287
670.671952	0.019125
670.875767	0.019080
671.079563	0.019097
671.283341	0.019246
671.487101	0.019334
671.690843	0.019431
671.894567	0.019439
672.098272	0.019654
672.301959	0.019964
672.505628	0.019920
672.709278	0.020083
672.912911	0.020112
673.116525	0.020217
673.320121	0.020053
673.523699	0.019861
673.727258	0.019739
673.930799	0.019568
674.134322	0.019304
674.337827	0.019366
674.541314	0.019265
674.744782	0.019229
674.948232	0.019166
675.151664	0.019217
675.355078	0.019354
675.558474	0.019620
675.761851	0.019532
675.965210	0.019623
676.168551	0.019765
676.371873	0.019871
676.575178	0.019989
676.778464	0.020022
676.981732	0.020285
677.184981	0.020336
677.388213	0.020305
677.591426	0.020394
677.794621	0.020664
677.997798	0.020700
678.200956	0.020782
678.404097	0.020785
678.607219	0.020821
678.810323	0.020913
679.013408	0.020960
679.216476	0.020897
679.419525	0.021029
679.622556	0.020969
679.825569	0.020893
680.028563	0.020960
680.231540	0.021000
680.434498	0.021027
680.637438	0.020835
680.840359	0.020998
681.043263	0.021139
681.246148	0.021150
681.449015	0.021188
681.651864	0.021186
681.854694	0.021044
682.057506	0.021054
682.260301	0.021095
682.463076	0.021014
682.665834	0.020918
682.868573	0.020728
683.071295	0.020732
683.273998	0.020694
683.476682	0.020778
683.679349	0.020780
683.881997	0.020639
684.084627	0.020617
684.287239	0.020723
684.489833	0.020773
684.692408	0.020978
684.894965	0.020919
685.097504	0.020881
685.300025	0.020838
685.502527	0.020814
685.705012	0.020780
685.907478	0.020788
686.109925	0.020879
686.312355	0.020902
686.514766	0.020817
686.717159	0.020986
686.919534	0.021096
687.121891	0.021265
687.324230	0.021371
687.526550	0.021691
687.728852	0.021635
687.931136	0.021666
688.133401	0.021463
688.335649	0.021577
688.537878	0.021402
688.740089	0.021324
688.942281	0.021049
689.144456	0.021059
689.346612	0.020935
689.548750	0.021091
689.750870	0.020965
689.952971	0.021008
690.155055	0.020999
690.357120	0.021013
690.559167	0.020977
690.761195	0.021160
690.963206	0.021300
691.165198	0.021422
691.367172	0.021438
691.569128	0.021702
691.771065	0.021988
691.972984	0.022201
692.174885	0.022465
692.376768	0.022797
692.578633	0.022986
692.780479	0.022929
692.982308	0.023137
693.184118	0.023165
693.385909	0.023057
693.587683	0.023001
693.789438	0.022956
693.991175	0.022903
694.192894	0.022573
694.394595	0.022531
694.596277	0.022632
694.797941	0.022619
694.999587	0.022641
695.201215	0.022637
695.402824	0.022568
695.604416	0.022475
695.805989	0.022493
696.007543	0.022558
696.209080	0.022444
696.410598	0.022091
696.612099	0.021701
696.813580	0.021651
697.015044	0.021626
697.216490	0.021440
697.417917	0.021338
697.619326	0.021185
697.820717	0.021294
698.022089	0.021299
698.223444	0.021434
698.424780	0.021414
698.626098	0.021402
698.827397	0.021436
699.028679	0.021708
699.229942	0.021752
699.431187	0.021804
699.632414	0.021769
699.833622	0.021760
700.034813	0.021953
700.235985	0.022030
700.437139	0.022120
700.638274	0.022155
700.839392	0.022116
701.040491	0.022299
701.241572	0.022288
701.442635	0.022243
701.643679	0.022289
701.844706	0.022224
702.045714	0.022372
702.246704	0.022427
702.447675	0.022443
702.648629	0.022475
702.849564	0.022303
703.050481	0.022442
703.251380	0.022563
703.452260	0.022578
703.653122	0.022672
703.853966	0.022742
704.054792	0.022694
704.255600	0.022424
704.456389	0.022452
704.657160	0.022396
704.857913	0.022386
705.058648	0.022183
705.259365	0.022187
705.460063	0.022168
705.660743	0.022068
705.861405	0.021969
706.062048	0.022264
706.262674	0.022141
706.463281	0.022294
706.663870	0.022224
706.864441	0.022403
707.064993	0.022474
707.265527	0.022431
707.466043	0.022495
707.666541	0.022538
707.867021	0.022487
708.067482	0.022625
708.267925	0.022643
708.468350	0.022780
708.668757	0.022974
708.869145	0.022996
709.069516	0.022939
709.269868	0.022897
709.470201	0.022894
709.670517	0.022965
709.870814	0.022892
710.071093	0.022855
710.271354	0.022675
710.471597	0.022445
710.671821	0.022365
710.872028	0.022255
711.072216	0.022114
711.272385	0.022061
711.472537	0.021830
711.672670	0.021675
711.872785	0.021435
712.072882	0.021357
712.272961	0.021265
712.473021	0.021039
712.673063	0.021014
712.873087	0.021099
713.073093	0.020981
713.273081	0.020963
713.473050	0.020991
713.673001	0.021087
713.872934	0.021203
714.072849	0.021297
714.272745	0.021488
714.472623	0.021641
714.672483	0.021519
714.872325	0.021578
715.072148	0.021709
715.271954	0.021841
715.471741	0.021907
715.671509	0.021770
715.871260	0.021718
716.070992	0.021694
716.270707	0.021584
716.470403	0.021665
716.670080	0.021602
716.869740	0.021511
717.069381	0.021458
717.269004	0.021412
717.468609	0.021410
717.668195	0.021182
717.867764	0.021135
718.067314	0.020943
718.266846	0.020800
718.466360	0.020772
718.665855	0.020720
718.865332	0.020626
719.064791	0.020623
719.264232	0.020600
719.463655	0.020611
719.663059	0.020570
719.862445	0.020645
720.061813	0.020559
720.261163	0.020552
720.460494	0.020615
720.659807	0.020445
720.859102	0.020243
721.058379	0.020106
721.257638	0.020170
721.456878	0.020045
721.656100	0.020215
721.855304	0.020324
722.054490	0.020091
722.253657	0.020017
722.452806	0.019987
722.651937	0.019942
722.851050	0.020094
723.050145	0.020108
723.249221	0.020159
723.448279	0.019846
723.647319	0.019785
723.846340	0.019992
724.045344	0.020090
724.244329	0.020011
724.443296	0.019921
724.642245	0.019891
724.841175	0.019909
725.040088	0.019911
725.238982	0.020118
725.437857	0.020236
725.636715	0.020172
725.835554	0.020059
726.034376	0.020271
726.233179	0.020530
726.431963	0.020504
726.630730	0.020510
726.829478	0.020416
727.028208	0.020346
727.226920	0.020411
727.425614	0.020446
727.624289	0.020273
727.822946	0.020218
728.021585	0.020182
728.220206	0.020163
728.418808	0.019991
728.617392	0.020176
728.815958	0.020274
729.014506	0.020189
729.213036	0.020294
729.411547	0.020347
729.610040	0.020343
729.808515	0.020273
730.006972	0.020159
730.205410	0.020228
730.403831	0.020103
730.602233	0.019869
730.800616	0.019593
730.998982	0.019387
731.197329	0.019341
731.395658	0.019137
731.593969	0.019023
731.792262	0.018897
731.990536	0.018710
732.188793	0.018487
732.387031	0.018483
732.585250	0.018465
732.783452	0.018281
732.981635	0.018147
733.179800	0.018089
733.377947	0.018132
733.576076	0.018258
733.774186	0.018229
733.972278	0.018205
734.170352	0.018069
734.368408	0.018052
734.566446	0.018164
734.764465	0.018368
734.962466	0.018476
735.160449	0.018429
735.358413	0.018105
735.556360	0.018143
735.754288	0.018054
735.952198	0.018128
736.150090	0.018137
736.347963	0.018077
736.545818	0.017906
736.743655	0.017635
736.941474	0.017577
737.139275	0.017789
737.337057	0.017723
737.534821	0.017902
737.732567	0.017936
737.930295	0.018027
738.128005	0.018094
738.325696	0.018001
738.523369	0.018242
738.721024	0.018229
738.918660	0.018291
739.116279	0.018343
739.313879	0.018262
739.511461	0.018227
739.709024	0.017982
739.906570	0.017920
740.104097	0.017882
740.301606	0.017731
740.499097	0.017671
740.696569	0.017597
740.894024	0.017656
741.091460	0.017629
741.288878	0.017642
741.486277	0.017894
741.683659	0.017931
741.881022	0.018074
742.078367	0.018150
742.275694	0.018383
742.473002	0.018423
742.670293	0.018361
742.867565	0.018481
743.064819	0.018508
743.262054	0.018503
743.459272	0.018557
743.656471	0.018547
743.853652	0.018620
744.050815	0.018347
744.247959	0.018339
744.445085	0.018460
744.642194	0.018409
744.839283	0.018246
745.036355	0.018132
745.233408	0.017881
745.430444	0.017844
745.627461	0.017855
745.824459	0.017980
746.021440	0.017811
746.218402	0.017602
746.415346	0.017601
746.612272	0.017622
746.809180	0.017528
747.006069	0.017588
747.202940	0.017552
747.399793	0.017273
747.596628	0.016967
747.793444	0.016853
747.990243	0.016852
748.187023	0.016906
748.383784	0.016972
748.580528	0.016978
748.777253	0.016966
748.973960	0.016966
749.170649	0.017080
749.367320	0.017334
749.563973	0.017602
749.760607	0.017687
749.957223	0.017574
750.153821	0.017481
750.350400	0.017653
750.546962	0.017618
750.743505	0.017656
750.940030	0.017692
751.136536	0.017699
751.333025	0.017695
751.529495	0.017746
751.725947	0.017838
751.922381	0.017823
752.118796	0.017763
752.315194	0.018074
752.511573	0.018145
752.707934	0.018154
752.904276	0.018134
753.100601	0.017935
753.296907	0.017879
753.493195	0.017790
753.689465	0.018084
753.885716	0.018005
754.081949	0.017832
754.278164	0.017685
754.474361	0.017600
754.670540	0.017541
754.866700	0.017611
755.062843	0.017543
755.258967	0.017381
755.455072	0.017002
755.651160	0.017033
755.847229	0.016961
756.043280	0.016988
756.239313	0.017176
756.435328	0.017172
756.631324	0.017289
756.827302	0.017399
757.023262	0.017495
757.219204	0.017703
757.415127	0.017851
757.611033	0.017700
757.806920	0.017667
758.002788	0.017524
758.198639	0.017675
758.394471	0.017610
758.590286	0.017598
758.786081	0.017658
758.981859	0.017598
759.177619	0.017468
759.373360	0.017760
759.569083	0.017887
759.764788	0.017957
759.960474	0.017766
760.156143	0.017572
760.351793	0.017510
760.547425	0.017477
760.743038	0.017327
760.938634	0.017199
761.134211	0.017061
761.329770	0.016836
761.525311	0.016746
761.720833	0.016823
761.916338	0.017151
762.111824	0.017081
762.307292	0.016881
762.502741	0.016877
762.698173	0.016826
762.893586	0.016823
763.088981	0.017000
763.284358	0.017082
763.479716	0.016768
763.675057	0.016708
763.870379	0.016669
764.065683	0.016652
764.260968	0.016666
764.456236	0.016638
764.651485	0.016726
764.846716	0.016540
765.041929	0.016412
765.237123	0.016790
765.432299	0.016581
765.627457	0.016521
765.822597	0.016637
766.017719	0.016568
766.212822	0.016718
766.407907	0.016647
766.602974	0.016594
766.798023	0.016597
766.993054	0.016291
767.188066	0.016305
767.383060	0.016307
767.578036	0.016207
767.772993	0.016396
767.967933	0.016299
768.162854	0.016281
768.357757	0.016311
768.552642	0.016274
768.747508	0.016396
768.942356	0.016371
769.137186	0.016484
769.331998	0.016446
769.526792	0.016228
769.721567	0.016299
769.916324	0.016086
770.111063	0.015901
770.305784	0.015924
770.500486	0.015781
770.695171	0.015779
770.889837	0.015759
771.084484	0.016083
771.279114	0.016128
771.473725	0.016045
771.668318	0.016100
771.862893	0.016329
772.057450	0.016394
772.251988	0.016733
772.446509	0.016967
772.641011	0.017064
772.835494	0.016947
773.029960	0.017194
773.224407	0.017139
773.418836	0.017302
773.613247	0.017274
773.807640	0.017280
774.002014	0.017103
774.196370	0.016929
774.390708	0.017048
774.585028	0.017056
774.779330	0.016947
774.973613	0.016944
775.167878	0.016922
775.362125	0.016768
775.556354	0.016624
775.750564	0.016653
775.944756	0.016517
776.138930	0.016160
776.333086	0.015941
776.527223	0.015989
776.721343	0.016157
776.915444	0.016213
777.109526	0.016589
777.303591	0.016872
777.497637	0.016873
777.691666	0.017077
777.885676	0.017195
778.079667	0.017569
778.273641	0.017524
778.467596	0.017464
778.661533	0.017563
778.855452	0.017609
779.049352	0.017445
779.243235	0.017679
779.437099	0.017813
779.630945	0.017695
779.824773	0.017625
780.018582	0.017589
780.212373	0.017610
780.406146	0.017563
780.599901	0.017547
780.793638	0.017732
780.987356	0.017583
781.181056	0.017309
781.374738	0.017317
781.568402	0.017270
781.762047	0.017128
781.955674	0.017004
782.149283	0.016836
782.342874	0.016650
782.536447	0.016552
782.730001	0.016521
782.923537	0.016586
783.117055	0.016590
783.310555	0.016497
783.504036	0.016687
783.697499	0.016730
783.890944	0.016898
784.084371	0.016896
784.277780	0.016882
784.471170	0.016929
784.664542	0.017075
784.857896	0.017233
785.051231	0.017290
785.244549	0.017441
785.437848	0.017684
785.631129	0.017764
785.824392	0.017845
786.017636	0.017818
786.210863	0.018040
786.404071	0.017937
786.597260	0.018014
786.790432	0.018136
786.983585	0.018123
787.176721	0.018005
787.369838	0.017903
787.562936	0.018177
787.756017	0.018378
787.949079	0.018284
788.142123	0.018246
788.335149	0.018307
788.528156	0.018367
788.721146	0.018391
788.914117	0.018458
789.107070	0.018357
789.300005	0.018094
789.492921	0.018008
789.685819	0.017878
789.878699	0.017993
790.071561	0.017988
790.264405	0.017787
790.457230	0.017842
790.650037	0.017835
790.842826	0.017822
791.035597	0.017907
791.228349	0.017907
791.421084	0.018074
791.613800	0.018077
791.806497	0.017888
791.999177	0.018123
792.191838	0.017920
792.384481	0.017808
792.577106	0.018055
792.769713	0.018119
792.962301	0.018236
793.154871	0.018167
793.347423	0.018157
793.539957	0.018403
793.732473	0.018488
793.924970	0.018678
794.117449	0.018862
794.309910	0.018862
794.502353	0.018924
794.694777	0.018697
794.887183	0.018665
795.079571	0.018661
795.271941	0.018692
795.464293	0.018577
795.656626	0.018535
795.848941	0.018572
796.041238	0.018549
796.233516	0.018599
796.425777	0.018875
796.618019	0.019043
796.810243	0.019136
797.002449	0.019174
797.194636	0.019290
797.386805	0.019372
797.578956	0.019355
797.771089	0.019534
797.963204	0.019337
798.155300	0.019403
798.347378	0.019441
798.539438	0.019575
798.731480	0.019394
798.923503	0.019423
799.115509	0.019449
799.307496	0.019430
799.499465	0.019302
799.691415	0.019720
799.883348	0.019574
800.075262	0.019588
800.267158	0.019762
800.459035	0.019858
800.650895	0.019854
800.842736	0.019874
801.034559	0.019993
801.226364	0.019947
801.418150	0.019715
801.609919	0.019788
801.801669	0.019745
801.993401	0.019593
802.185114	0.019784
802.376810	0.019747
802.568487	0.019889
802.760146	0.020009
802.951787	0.019952
803.143409	0.019827
803.335014	0.020026
803.526600	0.020137
803.718168	0.020183
803.909717	0.020148
804.101249	0.020261
804.292762	0.020167
804.484257	0.020239
804.675734	0.020658
804.867192	0.020878
805.058632	0.020977
805.250054	0.021144
805.441458	0.021245
805.632844	0.021158
805.824211	0.021173
806.015561	0.021195
806.206891	0.021149
806.398204	0.021173
806.589499	0.021316
806.780775	0.021151
806.972033	0.021034
807.163273	0.021104
807.354495	0.021470
807.545698	0.021636
807.736883	0.021639
807.928050	0.021580
808.119199	0.021440
808.310329	0.021523
808.501441	0.021671
808.692535	0.021591
808.883611	0.021550
809.074669	0.021390
809.265708	0.021281
809.456729	0.021474
809.647732	0.021695
809.838717	0.021858
810.029683	0.021942
810.220632	0.021938
810.411562	0.022259
810.602474	0.022421
810.793367	0.022464
810.984242	0.022492
811.175100	0.022476
811.365938	0.022536
811.556759	0.022437
811.747562	0.022511
811.938346	0.022607
812.129112	0.022452
812.319860	0.022387
812.510589	0.022533
812.701300	0.022621
812.891994	0.022732
813.082668	0.022663
813.273325	0.022783
813.463964	0.022682
813.654584	0.022530
813.845186	0.022525
814.035769	0.022615
814.226335	0.022750
814.416882	0.022665
814.607411	0.022666
814.797922	0.022516
814.988415	0.022518
815.178889	0.022484
815.369345	0.022786
815.559783	0.022792
815.750203	0.022565
815.940605	0.022224
816.130988	0.022283
816.321353	0.022300
816.511700	0.022503
816.702028	0.022382
816.892339	0.022209
817.082631	0.021879
817.272905	0.021967
817.463161	0.022180
817.653398	0.022019
817.843617	0.021880
818.033819	0.021753
818.224001	0.021618
818.414166	0.021638
818.604312	0.021743
818.794440	0.021894
818.984550	0.021812
819.174642	0.021808
819.364716	0.022039
819.554771	0.022163
819.744808	0.022328
819.934827	0.022307
820.124827	0.022113
820.314810	0.022203
820.504774	0.022126
820.694720	0.022276
820.884647	0.022275
821.074557	0.022425
821.264448	0.022530
821.454321	0.022592
821.644176	0.023039
821.834012	0.023339
822.023831	0.023257
822.213631	0.023333
822.403413	0.023283
822.593176	0.023524
822.782922	0.023647
822.972649	0.023767
823.162358	0.023691
823.352049	0.023736
823.541721	0.023938
823.731376	0.024336
823.921012	0.024584
824.110629	0.024588
824.300229	0.024472
824.489811	0.024481
824.679374	0.024451
824.868919	0.024572
825.058445	0.024519
825.247954	0.024722
825.437444	0.024613
825.626916	0.024601
825.816370	0.024735
826.005806	0.024776
826.195223	0.024882
826.384622	0.025184
826.574003	0.025032
826.763366	0.024890
826.952711	0.024622
827.142037	0.024862
827.331345	0.025040
827.520635	0.025248
827.709906	0.025382
827.899160	0.025342
828.088395	0.025177
828.277612	0.025266
828.466810	0.025468
828.655991	0.025570
828.845153	0.025406
829.034297	0.025255
829.223423	0.025385
829.412531	0.025233
829.601620	0.025295
829.790691	0.025409
829.979744	0.025711
830.168779	0.025725
830.357795	0.025952
830.546793	0.026057
830.735773	0.026337
830.924735	0.026145
831.113679	0.026414
831.302604	0.026588
831.491511	0.026676
831.680400	0.026723
831.869271	0.026637
832.058123	0.026588
832.246957	0.026657
832.435773	0.026686
832.624571	0.026865
832.813351	0.026996
833.002112	0.026964
833.190855	0.026866
833.379580	0.026937
833.568287	0.027051
833.756975	0.027094
833.945645	0.027155
834.134297	0.027162
834.322931	0.027121
834.511547	0.027189
834.700144	0.027438
834.888723	0.027716
835.077284	0.027696
835.265826	0.027956
835.454351	0.028111
835.642857	0.028229
835.831345	0.028391
836.019815	0.028630
836.208266	0.028655
836.396699	0.028647
836.585114	0.028778
836.773511	0.028838
836.961890	0.028781
837.150250	0.028792
837.338592	0.028883
837.526916	0.028814
837.715222	0.028901
837.903510	0.028904
838.091779	0.028877
838.280030	0.028760
838.468263	0.029115
838.656477	0.029332
838.844674	0.029594
839.032852	0.029660
839.221012	0.029971
839.409153	0.030067
839.597277	0.030430
839.785382	0.030487
839.973469	0.030678
840.161538	0.030685
840.349589	0.030703
840.537621	0.030696
840.725635	0.030933
840.913631	0.030801
841.101609	0.030893
841.289568	0.030696
841.477509	0.031021
841.665432	0.031056
841.853337	0.031235
842.041224	0.031222
842.229092	0.031422
842.416942	0.031331
842.604774	0.031549
842.792588	0.031329
842.980383	0.031445
843.168160	0.031427
843.355919	0.031696
843.543660	0.031520
843.731382	0.031669
843.919087	0.031871
844.106773	0.032147
844.294441	0.032201
844.482090	0.032330
844.669722	0.032373
844.857335	0.032468
845.044930	0.032382
845.232507	0.032646
845.420065	0.032765
845.607605	0.032655
845.795127	0.032505
845.982631	0.032644
846.170117	0.032862
846.357584	0.033048
846.545033	0.033106
846.732464	0.033226
846.919877	0.033196
847.107272	0.033344
847.294648	0.033402
847.482006	0.033372
847.669346	0.033261
847.856667	0.033218
848.043971	0.033239
848.231256	0.033349
848.418523	0.033451
848.605771	0.033583
848.793002	0.033714
848.980214	0.033820
849.167408	0.034040
849.354584	0.034278
849.541742	0.034637
849.728881	0.034876
849.916002	0.034678
850.103105	0.034854
850.290190	0.034973
850.477256	0.034897
850.664304	0.034934
850.851334	0.035104
851.038346	0.035292
851.225340	0.035066
851.412315	0.035049
851.599272	0.035360
851.786211	0.035315
851.973132	0.035476
852.160034	0.035710
852.346918	0.035778
852.533784	0.035637
852.720632	0.035581
852.907462	0.036006
853.094273	0.036000
853.281066	0.036073
853.467841	0.036138
853.654598	0.035934
853.841336	0.035820
854.028056	0.035856
854.214758	0.036171
854.401442	0.036383
854.588107	0.036359
854.774755	0.036670
854.961384	0.036880
855.147995	0.037271
855.334587	0.037576
855.521162	0.037873
855.707718	0.038105
855.894256	0.038113
856.080775	0.037857
856.267277	0.037754
856.453760	0.037560
856.640225	0.037170
856.826672	0.036738
857.013101	0.036622
857.199511	0.036439
857.385903	0.036256
857.572277	0.036245
857.758633	0.036363
857.944970	0.036506
858.131290	0.036437
858.317591	0.036764
858.503873	0.036959
858.690138	0.036918
858.876384	0.036816
859.062612	0.036905
859.248822	0.037239
859.435014	0.037248
859.621188	0.037220
859.807343	0.037442
859.993480	0.037607
860.179599	0.037930
860.365699	0.038170
860.551781	0.038463
860.737846	0.038548
860.923891	0.038660
861.109919	0.038777
861.295929	0.039040
861.481920	0.039271
861.667893	0.039245
861.853848	0.039071
862.039784	0.038856
862.225702	0.038982
862.411603	0.039278
862.597484	0.038899
862.783348	0.039013
862.969193	0.038935
863.155021	0.039018
863.340830	0.039094
863.526620	0.039038
863.712393	0.039391
863.898147	0.039327
864.083883	0.039189
864.269601	0.039375
864.455301	0.039353
864.640982	0.039438
864.826645	0.039365
865.012290	0.039418
865.197917	0.039632
865.383526	0.039692
865.569116	0.039694
865.754688	0.039747
865.940242	0.039927
866.125777	0.040216
866.311295	0.040281
866.496794	0.040300
866.682275	0.040431
866.867737	0.040500
867.053182	0.040450
867.238608	0.040422
867.424016	0.040594
867.609406	0.040658
867.794778	0.040520
867.980131	0.040542
868.165466	0.040604
868.350783	0.040580
868.536082	0.040459
868.721362	0.040463
868.906625	0.040805
869.091869	0.040937
869.277094	0.040845
869.462302	0.041060
869.647491	0.041307
869.832662	0.041625
870.017815	0.041827
870.202950	0.042191
870.388066	0.042362
870.573165	0.042570
870.758245	0.042806
870.943306	0.043004
871.128350	0.043231
871.313375	0.043473
871.498382	0.043517
871.683371	0.043474
871.868342	0.043742
872.053294	0.043981
872.238229	0.044156
872.423144	0.044048
872.608042	0.044226
872.792922	0.044424
872.977783	0.044341
873.162626	0.044056
873.347451	0.044278
873.532258	0.044206
873.717046	0.044194
873.901816	0.044023
874.086568	0.043999
874.271302	0.043855
874.456017	0.043439
874.640715	0.043449
874.825394	0.044044
875.010055	0.044065
875.194697	0.043899
875.379322	0.043770
875.563928	0.043710
875.748516	0.043568
875.933085	0.043558
876.117637	0.043511
876.302170	0.043407
876.486685	0.042877
876.671182	0.042796
876.855661	0.042971
877.040121	0.042879
877.224563	0.042752
877.408987	0.043072
877.593393	0.043203
877.777780	0.043515
877.962150	0.043641
878.146501	0.043821
878.330833	0.043565
878.515148	0.043480
878.699444	0.043765
878.883722	0.044341
879.067982	0.044349
879.252224	0.044556
879.436447	0.044454
879.620653	0.044679
879.804840	0.044886
879.989008	0.045154
880.173159	0.045470
880.357291	0.045626
880.541405	0.045514
880.725501	0.045712
880.909579	0.045702
881.093638	0.046110
881.277680	0.046169
881.461703	0.045937
881.645707	0.046239
881.829694	0.045963
882.013662	0.046126
882.197612	0.045899
882.381544	0.045725
882.565458	0.045557
882.749353	0.045157
882.933230	0.044746
883.117089	0.044912
883.300930	0.044819
883.484753	0.044725
883.668557	0.044370
883.852343	0.044597
884.036111	0.044443
884.219861	0.044400
884.403592	0.044547
884.587305	0.044866
884.771000	0.044910
884.954677	0.044758
885.138335	0.044870
885.321976	0.045187
885.505598	0.044987
885.689201	0.045000
885.872787	0.045044
886.056354	0.045347
886.239904	0.045655
886.423434	0.045522
886.606947	0.045435
886.790442	0.045686
886.973918	0.045487
887.157376	0.045739
887.340816	0.045940
887.524237	0.046089
887.707641	0.045883
887.891026	0.045716
888.074393	0.046063
888.257741	0.046469
888.441072	0.046348
888.624384	0.046621
888.807678	0.046618
888.990954	0.046715
889.174211	0.046869
889.357451	0.047143
889.540672	0.046862
889.723875	0.046908
889.907059	0.046758
890.090226	0.046765
890.273374	0.046536
890.456504	0.046617
890.639616	0.046612
890.822709	0.046736
891.005785	0.046438
891.188842	0.046620
891.371881	0.046565
891.554901	0.046643
891.737904	0.046463
891.920888	0.046431
892.103854	0.046363
892.286802	0.046426
892.469731	0.046207
892.652643	0.046857
892.835536	0.046591
893.018410	0.046649
893.201267	0.046551
893.384106	0.046729
893.566926	0.046697
893.749728	0.046565
893.932511	0.046321
894.115277	0.046214
894.298024	0.045599
894.480753	0.046105
894.663464	0.045875
894.846157	0.045934
895.028831	0.045779
895.211487	0.046130
895.394125	0.046140
895.576745	0.046131
895.759346	0.045833
895.941930	0.045653
896.124495	0.045456
896.307041	0.045477
896.489570	0.045480
896.672080	0.045581
896.854573	0.045715
897.037046	0.045445
897.219502	0.045471
897.401940	0.045622
897.584359	0.045716
897.766760	0.045519
897.949143	0.045527
898.131507	0.045623
898.313854	0.045708
898.496182	0.045164
898.678492	0.045372
898.860783	0.045145
899.043057	0.045130
899.225312	0.045149
899.407549	0.045127
899.589768	0.044903
899.771968	0.044438
899.954151	0.044294
900.136315	0.044406
900.318461	0.044515
900.500588	0.044561
900.682698	0.044607
900.864789	0.044316
901.046862	0.044219
901.228917	0.043869
901.410953	0.044110
901.592971	0.044232
901.774972	0.044199
901.956953	0.044388
902.138917	0.044397
902.320862	0.044416
902.502790	0.044705
902.684699	0.044732
902.866589	0.044843
903.048462	0.044855
903.230316	0.044700
903.412152	0.044646
903.593970	0.044387
903.775770	0.044495
903.957551	0.044383
904.139314	0.044357
904.321059	0.044215
904.502786	0.044546
904.684494	0.044357
904.866185	0.044649
905.047857	0.044565
905.229510	0.044717
905.411146	0.044746
905.592763	0.044511
905.774363	0.044360
905.955943	0.044754
906.137506	0.044477
906.319051	0.044443
906.500577	0.044206
906.682085	0.044320
906.863575	0.043944
907.045046	0.043873
907.226500	0.044326
907.407935	0.044357
907.589352	0.043982
907.770750	0.044186
907.952131	0.044544
908.133493	0.044229
908.314837	0.044002
908.496163	0.043805
908.677470	0.043582
908.858760	0.043136
909.040031	0.042673
909.221284	0.042423
909.402518	0.041921
909.583735	0.041825
909.764933	0.041775
909.946113	0.041406
910.127275	0.041548
910.308418	0.041631
910.489544	0.041662
910.670651	0.041798
910.851740	0.041933
911.032810	0.041921
911.213863	0.041592
911.394897	0.041392
911.575913	0.041684
911.756911	0.041615
911.937890	0.041338
912.118851	0.041078
912.299794	0.040805
912.480719	0.040692
912.661626	0.040680
912.842514	0.040747
913.023384	0.040873
913.204236	0.040521
913.385070	0.040116
913.565886	0.040151
913.746683	0.040468
913.927462	0.040824
914.108223	0.040314
914.288965	0.040298
914.469690	0.039898
914.650396	0.039611
914.831084	0.039995
915.011754	0.039993
915.192405	0.039781
915.373038	0.039656
915.553653	0.039302
915.734250	0.039482
915.914829	0.039587
916.095389	0.039381
916.275931	0.039430
916.456455	0.039107
916.636961	0.038848
916.817448	0.038731
916.997917	0.038298
917.178368	0.037994
917.358801	0.038026
917.539216	0.037738
917.719612	0.037736
917.899990	0.037463
918.080350	0.036968
918.260692	0.037021
918.441015	0.036657
918.621320	0.036796
918.801607	0.036465
918.981876	0.035840
919.162127	0.035988
919.342359	0.035727
919.522573	0.035827
919.702769	0.035837
919.882947	0.035738
920.063106	0.035743
920.243247	0.035003
920.423370	0.034866
920.603475	0.034990
920.783562	0.034534
920.963630	0.034556
921.143680	0.034289
921.323712	0.034169
921.503725	0.034205
921.683721	0.033958
921.863698	0.033624
922.043657	0.033833
922.223598	0.033271
922.403520	0.033352
922.583424	0.032574
922.763311	0.032171
922.943178	0.031833
923.123028	0.031249
923.302859	0.031094
923.482673	0.031323
923.662467	0.030941
923.842244	0.030904
924.022003	0.030645
924.201743	0.030957
924.381465	0.030781
924.561169	0.030859
924.740854	0.030975
924.920522	0.031212
925.100171	0.030869
925.279802	0.030685
925.459414	0.030545
925.639009	0.030161
925.818585	0.030015
925.998143	0.029902
926.177683	0.029776
926.357205	0.029189
926.536708	0.028851
926.716193	0.028975
926.895660	0.029066
927.075109	0.029480
927.254539	0.028797
927.433951	0.028635
927.613345	0.028276
927.792721	0.027911
927.972079	0.027841
928.151418	0.027217
928.330739	0.026534
928.510042	0.025952
928.689327	0.025318
928.868593	0.025651
929.047841	0.025518
929.227071	0.025498
929.406283	0.025053
929.585476	0.025006
929.764652	0.025092
929.943809	0.025456
930.122948	0.025205
930.302068	0.025412
930.481171	0.025420
930.660255	0.025047
930.839321	0.024835
931.018369	0.024614
931.197398	0.024559
931.376409	0.024002
931.555402	0.023444
931.734377	0.023264
931.913334	0.023028
932.092272	0.022538
932.271192	0.022061
932.450094	0.021342
932.628978	0.021546
932.807844	0.021386
932.986691	0.021257
933.165520	0.021006
933.344331	0.020865
933.523123	0.020710
933.701898	0.020126
933.880654	0.020527
934.059392	0.020454
934.238111	0.019969
934.416813	0.018676
934.595496	0.018999
934.774161	0.019150
934.952808	0.018938
935.131437	0.018290
935.310047	0.018889
935.488639	0.017662
935.667213	0.017813
935.845769	0.017531
936.024306	0.018298
936.202825	0.017610
936.381326	0.016792
936.559809	0.016893
936.738274	0.016114
936.916720	0.015244
937.095148	0.015528
937.273558	0.014804
937.451950	0.014782
937.630323	0.014703
937.808678	0.014811
937.987015	0.015596
938.165334	0.015135
938.343635	0.015206
938.521917	0.015413
938.700181	0.014784
938.878427	0.015382
939.056655	0.014931
939.234864	0.015104
939.413055	0.013939
939.591228	0.013537
939.769383	0.013381
939.947519	0.013060
940.125638	0.012836
940.303738	0.013459
940.481820	0.013051
940.659883	0.013667
940.837929	0.012377
941.015956	0.012402
941.193965	0.011850
941.371955	0.011834
941.549928	0.012423
941.727882	0.011606
941.905818	0.010864
942.083736	0.011022
942.261636	0.010284
942.439517	0.009511
942.617380	0.009408
942.795225	0.009570
942.973052	0.009426
943.150860	0.008585
943.328651	0.008094
943.506423	0.008011
943.684176	0.007332
943.861912	0.007305
944.039629	0.007998
944.217328	0.009109
944.395009	0.008277
944.572672	0.008182
944.750317	0.009202
944.927943	0.009855
945.105551	0.009729
945.283141	0.010282
945.460712	0.009596
945.638265	0.009216
945.815801	0.008382
945.993317	0.008136
946.170816	0.007786
946.348297	0.007113
946.525759	0.006770
946.703203	0.006166
946.880629	0.004670
947.058036	0.004605
947.235425	0.005033
947.412797	0.003924
947.590149	0.005354
947.767484	0.004397
947.944800	0.003937
948.122099	0.003038
948.299379	0.003224
948.476640	0.004668
948.653884	0.004646
948.831109	0.004758
949.008316	0.005285
949.185505	0.003039
949.362676	0.003308
949.539828	0.002503
949.716962	0.002914
949.894078	0.003207
950.071176	0.001860
950.248256	0.002218
950.425317	0.001852
950.602360	0.002154
950.779385	0.003692
950.956391	0.003357
951.133380	0.003508
951.310350	0.004208
951.487302	0.003266
951.664235	0.002395
951.841151	0.001635
952.018048	0.000424
952.194927	0.000699
952.371788	-0.000653
952.548631	-0.000155
952.725455	0.000574
952.902261	-0.000242
953.079049	0.000380
953.255819	0.001965
953.432570	0.002233
953.609303	0.002796
953.786018	0.001220
953.962715	0.001148
954.139394	0.001086
954.316054	0.001127
954.492696	0.001419
954.669320	0.001189
954.845926	0.002901
955.022513	0.002853
955.199083	0.003341
955.375634	0.004488
955.552166	0.006395
955.728681	0.007160
955.905177	0.005684
956.081655	0.004362
956.258115	0.004752
956.434557	0.002540
956.610980	0.002792
956.787385	0.002105
956.963772	0.001417
957.140141	0.001059
957.316492	0.000441
957.492824	0.003164
957.669138	0.005277
957.845434	0.005805
958.021712	0.006505
958.197971	0.008961
958.374212	0.009583
958.550435	0.010965
958.726640	0.010714
958.902826	0.010372
959.078995	0.009959
959.255145	0.008639
959.431277	0.007640
959.607390	0.006072
959.783486	0.004970
959.959563	0.004728
960.135622	0.004292
960.311662	0.005182
960.487685	0.004797
960.663689	0.004269
960.839675	0.004422
961.015643	0.005642
961.191593	0.007670
961.367524	0.007787
961.543437	0.008693
961.719332	0.010465
961.895209	0.009044
962.071067	0.010369
962.246907	0.011852
962.422730	0.013516
962.598533	0.014539
962.774319	0.014231
962.950086	0.013492
963.125835	0.014139
963.301566	0.012979
963.477279	0.013311
963.652973	0.012919
963.828650	0.010666
964.004308	0.010963
964.179947	0.010484
964.355569	0.012275
964.531172	0.013348
964.706757	0.012334
964.882324	0.011716
965.057873	0.011324
965.233403	0.011678
965.408916	0.012581
965.584410	0.011364
965.759885	0.011843
965.935343	0.010469
966.110782	0.009451
966.286203	0.010591
966.461606	0.011512
966.636991	0.012161
966.812357	0.014327
966.987705	0.014028
967.163035	0.016835
967.338347	0.016795
967.513641	0.016606
967.688916	0.014958
967.864173	0.013958
968.039412	0.014733
968.214632	0.016127
968.389835	0.013621
968.565019	0.014670
968.740185	0.012530
968.915333	0.012773
969.090462	0.011318
969.265573	0.013694
969.440667	0.015068
969.615741	0.014643
969.790798	0.013737
969.965836	0.015226
970.140856	0.014036
970.315858	0.013855
970.490842	0.012954
970.665808	0.013111
970.840755	0.010197
971.015684	0.007723
971.190595	0.006463
971.365487	0.007484
971.540362	0.008042
971.715218	0.008556
971.890056	0.008568
972.064875	0.007906
972.239677	0.010194
972.414460	0.011895
972.589225	0.012989
972.763972	0.012706
972.938700	0.012758
973.113411	0.012072
973.288103	0.012982
973.462777	0.014901
973.637432	0.014221
973.812070	0.012072
973.986689	0.010511
974.161290	0.011249
974.335873	0.012280
974.510437	0.010980
974.684984	0.011204
974.859512	0.011082
975.034022	0.009197
975.208513	0.011061
975.382987	0.012825
975.557442	0.014675
975.731879	0.014233
975.906298	0.014418
976.080698	0.014737
976.255080	0.013823
976.429445	0.013046
976.603790	0.014194
976.778118	0.015837
976.952427	0.015981
977.126719	0.015088
977.300992	0.014589
977.475246	0.014115
977.649483	0.014209
977.823701	0.012362
977.997901	0.011398
978.172083	0.012071
978.346247	0.009673
978.520392	0.009504
978.694519	0.008191
978.868628	0.009796
979.042719	0.009808
979.216791	0.009479
979.390845	0.011782
979.564882	0.013649
979.738899	0.011994
979.912899	0.011662
980.086880	0.011492
980.260843	0.014773
980.434788	0.013126
980.608715	0.015262
980.782623	0.015128
980.956514	0.015600
981.130386	0.015074
981.304240	0.013467
981.478075	0.013452
981.651892	0.013269
981.825692	0.011952
981.999472	0.010614
982.173235	0.008373
982.346980	0.007940
982.520706	0.006336
982.694414	0.005144
982.868104	0.008229
983.041775	0.008772
983.215428	0.008024
983.389064	0.006482
983.562680	0.007352
983.736279	0.008658
983.909860	0.008932
984.083422	0.009174
984.256966	0.010751
984.430491	0.011076
984.603999	0.011371
984.777488	0.011905
984.950959	0.013618
985.124412	0.016082
985.297847	0.016046
985.471263	0.016578
985.644661	0.018219
985.818041	0.017949
985.991403	0.017960
986.164747	0.017856
986.338072	0.018032
986.511379	0.016454
986.684668	0.014824
986.857938	0.014371
987.031191	0.014564
987.204425	0.013163
987.377641	0.012484
987.550839	0.011350
987.724018	0.012954
987.897179	0.014381
988.070322	0.016405
988.243447	0.016136
988.416554	0.017645
988.589642	0.017548
988.762712	0.019649
988.935764	0.019136
989.108798	0.020076
989.281813	0.018490
989.454811	0.016111
989.627790	0.016067
989.800751	0.016517
989.973693	0.014705
990.146617	0.015858
990.319524	0.013451
990.492412	0.014658
990.665281	0.014414
990.838133	0.013484
991.010966	0.015788
991.183781	0.015617
991.356578	0.014615
991.529356	0.013242
991.702117	0.011535
991.874859	0.012595
992.047583	0.012731
992.220288	0.011584
992.392976	0.013791
992.565645	0.013396
992.738296	0.013399
992.910929	0.013871
993.083543	0.014798
993.256139	0.016541
993.428718	0.015352
993.601277	0.013659
993.773819	0.014160
993.946342	0.012722
994.118848	0.011698
994.291335	0.011815
994.463803	0.013184
994.636254	0.013548
994.808686	0.013542
994.981100	0.014107
995.153496	0.015813
995.325874	0.016461
995.498233	0.017270
995.670574	0.016527
995.842897	0.018041
996.015202	0.016315
996.187488	0.016630
996.359757	0.014184
996.532007	0.014624
996.704239	0.014848
996.876452	0.015297
997.048648	0.014537
997.220825	0.013832
997.392984	0.012611
997.565124	0.013417
997.737247	0.012919
997.909351	0.012516
998.081437	0.013040
998.253505	0.012354
998.425554	0.012351
998.597586	0.012177
998.769599	0.013724
998.941594	0.011864
999.113571	0.011287
999.285529	0.011566
999.457469	0.011748
999.629391	0.010769
999.801295	0.010150
999.973181	0.008325
1000.145048	0.008504
1000.316897	0.007969
1000.488728	0.008189
1000.660541	0.010242
1000.832335	0.010365
1001.004111	0.011036
1001.175869	0.011358
1001.347609	0.010718
1001.519331	0.012138
1001.691034	0.011958
1001.862719	0.011684
1002.034386	0.011779
1002.206035	0.010290
1002.377665	0.009375
1002.549277	0.009646
1002.720871	0.009195
1002.892447	0.011068
1003.064004	0.011242
1003.235544	0.010828
1003.407065	0.010731
1003.578568	0.010716
1003.750052	0.010424
1003.921519	0.011790
1004.092967	0.011990
1004.264397	0.012010
1004.435809	0.010047
1004.607202	0.008419
1004.778577	0.009351
1004.949934	0.009976
1005.121273	0.011271
1005.292594	0.010928
1005.463896	0.010627
1005.635180	0.010611
1005.806446	0.010544
1005.977694	0.011611
1006.148923	0.011020
1006.320135	0.010038
1006.491328	0.010543
1006.662503	0.009954
1006.833659	0.010588
1007.004798	0.011138
1007.175918	0.011009
1007.347020	0.012020
1007.518103	0.011377
1007.689169	0.013417
1007.860216	0.015384
1008.031245	0.015666
1008.202256	0.016373
1008.373248	0.017233
1008.544223	0.015961
1008.715179	0.015025
1008.886117	0.012566
1009.057036	0.012267
1009.227938	0.011436
1009.398821	0.010817
1009.569686	0.011230
1009.740533	0.011065
1009.911361	0.010001
1010.082172	0.009403
1010.252964	0.009973
1010.423738	0.011651
1010.594493	0.012709
1010.765231	0.012767
1010.935950	0.012143
1011.106651	0.011617
1011.277334	0.012514
1011.447998	0.012379
1011.618645	0.012338
1011.789273	0.012213
1011.959882	0.011150
1012.130474	0.011134
1012.301048	0.011211
1012.471603	0.011664
1012.642140	0.011025
1012.812658	0.009320
1012.983159	0.009365
1013.153641	0.010214
1013.324105	0.010000
1013.494551	0.011914
1013.664979	0.011071
1013.835388	0.010042
1014.005779	0.010875
1014.176152	0.010808
1014.346507	0.010305
1014.516843	0.011383
1014.687162	0.011492
1014.857462	0.011778
1015.027744	0.011332
1015.198007	0.012136
1015.368252	0.013101
1015.538480	0.012649
1015.708689	0.012249
1015.878879	0.013518
1016.049052	0.013398
1016.219206	0.012882
1016.389342	0.012928
1016.559460	0.012107
1016.729559	0.013106
1016.899641	0.013437
1017.069704	0.012124
1017.239749	0.011459
1017.409775	0.011169
1017.579784	0.009725
1017.749774	0.010254
1017.919746	0.009652
1018.089700	0.009424
1018.259635	0.006705
1018.429553	0.005679
1018.599452	0.006215
1018.769333	0.007186
1018.939195	0.006776
1019.109040	0.009805
1019.278866	0.009712
1019.448674	0.010984
1019.618464	0.011676
1019.788235	0.012711
1019.957989	0.014959
1020.127724	0.014405
1020.297441	0.014312
1020.467139	0.015354
1020.636820	0.012133
1020.806482	0.012270
1020.976126	0.011056
1021.145752	0.010540
1021.315359	0.011552
1021.484948	0.009494
1021.654519	0.008578
1021.824072	0.008205
1021.993607	0.008832
1022.163123	0.010334
1022.332621	0.009650
1022.502101	0.010803
1022.671563	0.011166
1022.841007	0.010913
1023.010432	0.011634
1023.179839	0.013569
1023.349228	0.014248
1023.518598	0.013790
1023.687951	0.012961
1023.857285	0.012795
1024.026601	0.012252
1024.195899	0.011410
1024.365178	0.010950
1024.534439	0.009488
1024.703682	0.008338
1024.872907	0.007321
1025.042114	0.006446
1025.211302	0.007339
1025.380472	0.008785
1025.549624	0.008706
1025.718758	0.008753
1025.887873	0.009249
1026.056970	0.010113
1026.226049	0.010595
1026.395110	0.012148
1026.564153	0.010841
1026.733177	0.009523
1026.902183	0.007789
1027.071171	0.009021
1027.240141	0.009245
1027.409092	0.009155
1027.578026	0.009494
1027.746940	0.009634
1027.915837	0.009018
1028.084716	0.009664
1028.253576	0.010315
1028.422418	0.010187
1028.591242	0.010066
1028.760048	0.011800
1028.928835	0.011262
1029.097604	0.009959
1029.266355	0.008510
1029.435088	0.008467
1029.603803	0.009186
1029.772499	0.008348
1029.941177	0.007749
1030.109837	0.006923
1030.278478	0.004676
1030.447102	0.006298
1030.615707	0.007719
1030.784294	0.010243
1030.952863	0.011196
1031.121413	0.010736
1031.289945	0.012278
1031.458460	0.013853
1031.626955	0.014350
1031.795433	0.014571
1031.963892	0.013526
1032.132334	0.013053
1032.300756	0.010059
1032.469161	0.010417
1032.637548	0.010258
1032.805916	0.009068
1032.974266	0.009244
1033.142598	0.009325
1033.310911	0.009498
1033.479207	0.009382
1033.647484	0.010015
1033.815743	0.010737
1033.983983	0.011236
1034.152206	0.012092
1034.320410	0.012494
1034.488596	0.012628
1034.656764	0.012437
1034.824914	0.012188
1034.993045	0.012793
1035.161158	0.011763
1035.329253	0.012647
1035.497330	0.010607
1035.665388	0.010135
1035.833428	0.010573
1036.001450	0.011100
1036.169454	0.009489
1036.337440	0.010484
1036.505407	0.010683
1036.673356	0.011109
1036.841287	0.011540
1037.009200	0.010789
1037.177094	0.010404
1037.344970	0.008466
1037.512828	0.007189
1037.680668	0.007019
1037.848489	0.006242
1038.016293	0.006191
1038.184078	0.006203
1038.351845	0.004370
1038.519593	0.004964
1038.687324	0.006237
1038.855036	0.007471
1039.022730	0.008046
1039.190406	0.010374
1039.358063	0.011610
1039.525702	0.009607
1039.693323	0.009892
1039.860926	0.012277
1040.028511	0.013612
1040.196077	0.011299
1040.363625	0.011982
1040.531155	0.011944
1040.698667	0.012242
1040.866161	0.012009
1041.033636	0.011713
1041.201093	0.010897
1041.368532	0.009759
1041.535952	0.008220
1041.703355	0.009079
1041.870739	0.008573
1042.038105	0.009975
1042.205452	0.008987
1042.372782	0.009126
1042.540093	0.009832
1042.707386	0.011073
1042.874661	0.009506
1043.041918	0.008779
1043.209156	0.008975
1043.376376	0.008908
1043.543578	0.006929
1043.710762	0.006721
1043.877927	0.006588
1044.045074	0.008017
1044.212203	0.006676
1044.379314	0.008423
1044.546407	0.009807
1044.713481	0.009592
1044.880537	0.009169
1045.047575	0.009258
1045.214595	0.008258
1045.381596	0.009108
1045.548579	0.009045
1045.715544	0.009549
1045.882491	0.009907
1046.049420	0.011005
1046.216330	0.010776
1046.383222	0.011581
1046.550096	0.011576
1046.716951	0.011994
1046.883789	0.012249
1047.050608	0.010969
1047.217409	0.012253
1047.384192	0.010895
1047.550956	0.009055
1047.717703	0.009726
1047.884431	0.010052
1048.051140	0.010017
1048.217832	0.011088
1048.384505	0.009017
1048.551161	0.010245
1048.717798	0.009795
1048.884416	0.011051
1049.051017	0.009839
1049.217599	0.009843
1049.384163	0.009857
1049.550709	0.008645
1049.717237	0.009201
1049.883746	0.007935
1050.050237	0.007141
1050.216710	0.006809
1050.383165	0.006979
1050.549601	0.007644
1050.716019	0.008808
1050.882420	0.008016
1051.048801	0.008821
1051.215165	0.007549
1051.381510	0.010964
1051.547837	0.011489
1051.714146	0.011268
1051.880437	0.010696
1052.046709	0.012225
1052.212964	0.009867
1052.379200	0.009682
1052.545417	0.010326
1052.711617	0.008841
1052.877798	0.006991
1053.043961	0.007785
1053.210106	0.008156
1053.376233	0.009039
1053.542341	0.008545
1053.708432	0.010036
1053.874504	0.010845
1054.040557	0.010589
1054.206593	0.012199
1054.372610	0.012152
1054.538609	0.012154
1054.704590	0.010514
1054.870553	0.009324
1055.036497	0.008550
1055.202424	0.009027
1055.368331	0.006766
1055.534221	0.007700
1055.700093	0.008070
1055.865946	0.011113
1056.031781	0.008921
1056.197598	0.008868
1056.363397	0.008045
1056.529177	0.008665
1056.694939	0.008488
1056.860683	0.009391
1057.026409	0.007955
1057.192116	0.009332
1057.357806	0.007406
1057.523477	0.006404
1057.689130	0.006431
1057.854764	0.007962
1058.020381	0.006877
1058.185979	0.005591
1058.351559	0.005342
1058.517120	0.005193
1058.682664	0.002792
1058.848189	0.002279
1059.013696	0.001208
1059.179185	0.002144
1059.344656	0.001715
1059.510108	0.002870
1059.675542	0.003077
1059.840958	0.004358
1060.006356	0.004916
1060.171735	0.007840
1060.337096	0.008227
1060.502439	0.011894
1060.667764	0.011186
1060.833071	0.011099
1060.998359	0.010177
1061.163629	0.008837
1061.328881	0.007870
1061.494115	0.007872
1061.659330	0.005565
1061.824527	0.004170
1061.989706	0.004001
1062.154867	0.006444
1062.320010	0.007409
1062.485134	0.007960
1062.650240	0.010270
1062.815328	0.009566
1062.980398	0.011144
1063.145449	0.011140
1063.310482	0.009919
1063.475497	0.007814
1063.640494	0.006859
1063.805473	0.005330
1063.970433	0.005119
1064.135375	0.004216
1064.300299	0.006180
1064.465204	0.006869
1064.630092	0.007823
1064.794961	0.008269
1064.959812	0.010330
1065.124645	0.008701
1065.289459	0.007111
1065.454256	0.008249
1065.619034	0.008522
1065.783793	0.007117
1065.948535	0.005623
1066.113258	0.002347
1066.277964	0.002830
1066.442651	0.001828
1066.607319	0.002619
1066.771970	0.004685
1066.936602	0.004877
1067.101216	0.005739
1067.265812	0.005579
1067.430389	0.005309
1067.594949	0.006379
1067.759490	0.005581
1067.924013	0.004934
1068.088518	0.005367
1068.253004	0.005155
1068.417472	0.005835
1068.581922	0.005597
1068.746354	0.003707
1068.910768	0.002033
1069.075163	0.004159
1069.239540	0.002860
1069.403899	0.002964
1069.568240	0.002230
1069.732562	-0.000133
1069.896866	-0.000768
1070.061152	-0.000406
1070.225420	0.000276
1070.389670	0.001542
1070.553901	0.002202
1070.718114	0.005177
1070.882309	0.006024
1071.046486	0.008430
1071.210644	0.009887
1071.374784	0.008556
1071.538906	0.008920
1071.703010	0.011005
1071.867096	0.009867
1072.031163	0.008260
1072.195212	0.007780
1072.359243	0.007423
1072.523256	0.005572
1072.687250	0.007183
1072.851226	0.008936
1073.015184	0.006940
1073.179124	0.006414
1073.343045	0.008123
1073.506949	0.008418
1073.670834	0.008562
1073.834701	0.008978
1073.998549	0.007018
1074.162380	0.005164
1074.326192	0.001873
1074.489986	0.002739
1074.653761	0.004546
1074.817519	0.002114
1074.981258	0.001455
1075.144979	0.000721
1075.308682	-0.000032
1075.472367	0.002134
1075.636033	0.003139
1075.799681	0.003848
1075.963311	0.003243
1076.126923	-0.000183
1076.290516	0.003048
1076.454092	0.004128
1076.617649	0.004116
1076.781187	0.006633
1076.944708	0.006588
1077.108210	0.007340
1077.271695	0.011101
1077.435160	0.011555
1077.598608	0.014876
1077.762038	0.013905
1077.925449	0.011467
1078.088842	0.012031
1078.252217	0.010021
1078.415573	0.009219
1078.578912	0.009653
1078.742232	0.007566
1078.905534	0.007668
1079.068817	0.005532
1079.232083	0.004413
1079.395330	0.006877
1079.558559	0.004507
1079.721770	0.002901
1079.884962	0.001848
1080.048136	-0.001945
1080.211293	-0.004388
1080.374430	-0.005196
1080.537550	-0.002259
1080.700651	-0.001140
1080.863735	-0.004763
1081.026800	-0.001154
1081.189846	-0.001226
1081.352875	0.000713
1081.515885	0.005024
1081.678877	0.006420
1081.841851	0.006787
1082.004807	0.002527
1082.167744	0.002199
1082.330663	0.001949
1082.493564	0.000653
1082.656447	0.001121
1082.819312	0.000307
1082.982158	-0.000476
1083.144986	0.000581
1083.307796	0.001334
1083.470587	0.002175
1083.633361	0.001964
1083.796116	0.002914
1083.958853	0.003145
1084.121571	0.005280
1084.284272	0.003267
1084.446954	0.003004
1084.609618	0.001518
1084.772264	0.000233
1084.934892	0.001077
1085.097501	-0.001483
1085.260092	0.000902
1085.422665	-0.002239
1085.585220	-0.005032
1085.747756	-0.003341
1085.910274	-0.002665
1086.072774	-0.002219
1086.235256	-0.001876
1086.397720	-0.001494
1086.560165	0.002473
1086.722592	0.002953
1086.885001	0.003186
1087.047392	0.004889
1087.209764	0.003366
1087.372119	0.001020
1087.534455	0.000112
1087.696772	-0.001582
1087.859072	-0.001053
1088.021353	-0.002079
1088.183616	-0.006691
1088.345861	-0.003669
1088.508088	-0.003140
1088.670296	-0.001776
1088.832486	-0.001586
1088.994658	-0.001426
1089.156812	-0.000294
1089.318948	-0.001873
1089.481065	-0.001439
1089.643164	0.003093
1089.805245	0.001786
1089.967308	0.000523
1090.129352	0.000495
1090.291378	0.003323
1090.453386	0.003817
1090.615376	0.002382
1090.777347	0.004689
1090.939301	0.004072
1091.101236	0.003018
1091.263153	0.006198
1091.425051	0.008655
1091.586932	0.008916
1091.748794	0.008177
1091.910638	0.007634
1092.072463	0.009624
1092.234271	0.007291
1092.396060	0.005136
1092.557831	0.004282
1092.719584	0.004901
1092.881319	0.000993
1093.043035	0.000447
1093.204733	-0.001111
1093.366413	0.000270
1093.528075	-0.002338
1093.689718	-0.001812
1093.851343	0.001214
1094.012950	0.000761
1094.174539	-0.001981
1094.336110	-0.000987
1094.497662	-0.001949
1094.659196	-0.003058
1094.820712	-0.005587
1094.982210	-0.004745
1095.143689	-0.003837
1095.305151	-0.007835
1095.466594	-0.006242
1095.628018	-0.010294
1095.789425	-0.009466
1095.950813	-0.009175
1096.112183	-0.004320
1096.273535	0.000118
1096.434869	-0.000615
1096.596184	-0.001501
1096.757482	-0.000428
1096.918761	-0.003119
1097.080021	-0.001174
1097.241264	0.001985
1097.402488	0.004929
1097.563694	-0.002021
1097.724882	-0.002297
1097.886052	-0.002741
1098.047203	-0.002196
1098.208336	-0.000156
1098.369451	0.001474
1098.530548	0.003964
1098.691627	0.002305
1098.852687	-0.000651
1099.013729	0.002834
1099.174753	-0.001332
1099.335758	0.002546
1099.496746	0.002895
1099.657715	0.001082
1099.818666	0.001679
1099.979599	0.002347
1100.140513	0.003826
1100.301409	0.005082
1100.462287	0.003499
1100.623147	0.005302
1100.783989	0.004399
1100.944812	0.005879
1101.105617	0.004427
1101.266404	0.005286
1101.427173	0.006743
1101.587923	0.001236
1101.748656	0.002870
1101.909370	0.002717
1102.070066	0.001692
1102.230743	0.002590
1102.391403	-0.000437
1102.552044	0.001662
1102.712667	0.000541
1102.873271	-0.000797
1103.033858	0.003251
1103.194426	0.005607
1103.354976	0.009051
1103.515508	0.005935
1103.676021	0.005498
1103.836517	0.005894
1103.996994	0.006169
1104.157453	0.006324
1104.317893	0.007358
1104.478316	0.002145
1104.638720	-0.005773
1104.799106	-0.010047
1104.959474	-0.006795
1105.119823	-0.008638
1105.280155	-0.010977
1105.440468	-0.014043
1105.600763	-0.012192
1105.761039	-0.015487
1105.921298	-0.012394
1106.081538	-0.010283
1106.241760	-0.006905
1106.401964	-0.007052
1106.562149	-0.007425
1106.722316	-0.006466
1106.882465	0.001292
1107.042596	-0.000389
1107.202709	0.002826
1107.362803	0.003701
1107.522879	0.005203
1107.682937	0.001462
1107.842977	0.003834
1108.002999	0.006802
1108.163002	0.007308
1108.322987	0.004539
1108.482954	0.002227
1108.642902	0.000151
1108.802833	0.001258
1108.962745	0.005880
1109.122639	0.007456
1109.282515	0.006626
1109.442372	0.004926
1109.602211	0.005956
1109.762032	-0.000216
1109.921835	0.001915
1110.081620	0.002555
1110.241386	0.002741
1110.401134	0.001112
1110.560864	0.002936
1110.720576	0.003350
1110.880269	0.005712
1111.039945	0.004769
1111.199602	0.008074
1111.359240	0.010061
1111.518861	0.008601
1111.678463	0.004202
1111.838047	0.000609
1111.997613	0.001618
1112.157161	0.000487
1112.316690	-0.001284
1112.476202	-0.003021
1112.635695	-0.001571
1112.795169	-0.003707
1112.954626	-0.005744
1113.114064	-0.008826
1113.273484	-0.006151
1113.432886	-0.009181
1113.592270	-0.011923
1113.751635	-0.012014
1113.910983	-0.012598
1114.070312	-0.014856
1114.229622	-0.015133
1114.388915	-0.010633
1114.548189	-0.005776
1114.707445	-0.007604
1114.866683	-0.007094
1115.025903	-0.003327
1115.185104	-0.008248
1115.344287	-0.006696
1115.503452	-0.004449
1115.662599	0.000410
1115.821727	-0.001167
1115.980838	0.001196
1116.139930	-0.003099
1116.299004	-0.005508
1116.458059	-0.012477
1116.617097	-0.008087
1116.776116	-0.005617
1116.935117	-0.007337
1117.094099	-0.011958
1117.253064	-0.012236
1117.412010	-0.013032
1117.570938	-0.007290
1117.729848	-0.005893
1117.888740	-0.000958
1118.047613	-0.001764
1118.206468	-0.003917
1118.365305	-0.000062
1118.524124	-0.000359
1118.682924	-0.002427
1118.841707	-0.004493
1119.000471	-0.005047
1119.159216	-0.004624
1119.317944	-0.002357
1119.476653	-0.004091
1119.635344	-0.002297
1119.794017	-0.007148
1119.952672	-0.003124
1120.111308	-0.002116
1120.269927	-0.000297
1120.428527	-0.002638
1120.587108	-0.008822
1120.745672	-0.007846
1120.904217	-0.009345
1121.062744	-0.007653
1121.221253	-0.006107
1121.379744	-0.008557
1121.538216	-0.007913
1121.696671	-0.003925
1121.855107	-0.002406
1122.013524	0.008650
1122.171924	0.004420
1122.330305	0.008194
1122.488668	0.006744
1122.647013	0.008626
1122.805340	0.005360
1122.963648	0.002535
1123.121938	0.001047
1123.280210	-0.001070
1123.438464	-0.003687
1123.596700	-0.002714
1123.754917	-0.004680
1123.913116	-0.008963
1124.071297	-0.006738
1124.229459	0.003455
1124.387604	0.009912
1124.545730	0.005968
1124.703838	0.006742
1124.861928	0.005000
1125.019999	0.005986
1125.178052	0.010235
1125.336088	0.014086
1125.494104	0.016572
1125.652103	0.007456
1125.810083	0.004787
1125.968045	0.004986
1126.125989	0.004303
1126.283915	0.007087
1126.441823	0.005261
1126.599712	0.004593
1126.757583	0.004319
1126.915436	-0.002788
1127.073270	-0.004520
1127.231087	-0.006868
1127.388885	-0.007797
1127.546665	-0.005825
1127.704426	-0.005248
1127.862170	-0.003471
1128.019895	-0.007120
1128.177602	-0.006572
1128.335291	-0.003012
1128.492961	0.000420
1128.650614	0.000340
1128.808248	0.004285
1128.965864	0.006325
1129.123461	0.002719
1129.281041	-0.004264
1129.438602	-0.000978
1129.596145	-0.006557
1129.753670	-0.006122
1129.911176	-0.008750
1130.068665	-0.010537
1130.226135	-0.011673
1130.383587	-0.008493
1130.541020	-0.007345
1130.698436	-0.003037
1130.855833	0.001527
1131.013212	0.008076
1131.170573	0.003592
1131.327915	0.009797
1131.485239	0.018357
1131.642545	0.014542
1131.799833	0.007619
1131.957103	0.006560
1132.114354	0.010662
1132.271588	0.006516
1132.428803	0.006912
1132.585999	0.010716
1132.743178	0.007282
1132.900338	0.004428
1133.057480	0.012918
1133.214604	0.017369
1133.371710	0.021921
1133.528797	0.019584
1133.685866	0.015123
1133.842917	0.009798
1133.999950	0.004701
1134.156964	0.003430
1134.313960	0.000170
1134.470938	-0.010280
1134.627898	-0.011635
1134.784840	-0.016668
1134.941763	-0.020157
1135.098668	-0.012825
1135.255555	-0.014160
1135.412424	-0.014178
1135.569274	-0.012935
1135.726107	-0.011579
1135.882921	-0.005852
1136.039716	-0.004911
1136.196494	-0.005839
1136.353253	0.008359
1136.509995	0.001767
1136.666717	0.010489
1136.823422	0.008008
1136.980109	0.003104
1137.136777	0.005549
1137.293427	-0.000277
1137.450059	-0.004803
1137.606672	-0.008229
1137.763267	-0.024470
1137.919844	-0.030251
1138.076403	-0.029140
1138.232944	-0.024799
1138.389466	-0.020443
1138.545971	-0.020741
1138.702457	-0.018426
1138.858924	-0.017649
1139.015374	-0.015811
1139.171805	-0.004514
1139.328218	0.003200
1139.484613	-0.002801
1139.640990	0.002055
1139.797348	0.002044
1139.953688	-0.001105
1140.110010	-0.003512
1140.266314	0.001662
1140.422600	0.006995
1140.578867	0.002342
1140.735116	0.003395
1140.891347	0.004403
1141.047559	0.000000
1141.203754	-0.003209
1141.359930	0.006758
1141.516088	0.014168
1141.672228	0.008289
1141.828349	0.007182
1141.984452	0.007586
1142.140537	0.006774
1142.296604	0.005259
1142.452653	0.009814
1142.608683	0.016613
1142.764695	0.011295
1142.920689	0.011472
1143.076665	0.016460
1143.232622	0.015033
1143.388562	0.008175
1143.544483	0.014772
1143.700385	0.018338
1143.856270	0.013107
1144.012136	0.006127
1144.167985	-0.002518
1144.323814	-0.001962
1144.479626	-0.003956
1144.635420	-0.002599
1144.791195	0.008323
1144.946952	0.004439
1145.102691	-0.001500
1145.258411	-0.005494
1145.414113	-0.000744
1145.569798	0.002969
1145.725463	0.004361
1145.881111	0.001417
1146.036741	0.009297
1146.192352	0.000565
1146.347945	0.000261
1146.503519	-0.001380
1146.659076	0.006994
1146.814614	-0.000738
1146.970134	-0.010234
1147.125636	-0.013054
1147.281120	-0.016909
1147.436585	-0.038118
1147.592032	-0.033225
1147.747461	-0.034319
1147.902872	-0.029194
1148.058265	-0.043077
1148.213639	-0.048223
1148.368995	-0.041875
1148.524333	-0.044070
1148.679653	-0.042325
1148.834954	-0.027470
1148.990237	-0.027029
1149.145502	-0.033148
1149.300749	-0.037525
1149.455977	-0.026073
1149.611188	-0.015289
1149.766380	-0.012135
1149.921553	-0.013723
1150.076709	-0.007046
1150.231846	-0.009381
1150.386966	-0.016319
1150.542066	-0.006822
1150.697149	-0.000325
1150.852214	-0.007080
1151.007260	-0.010142
1151.162288	-0.012297
1151.317298	-0.006704
1151.472289	-0.021939
1151.627263	-0.028972
1151.782218	-0.019990
1151.937155	-0.026248
1152.092073	-0.028741
1152.246974	-0.026342
1152.401856	-0.022748
1152.556720	-0.017825
1152.711566	-0.014258
1152.866393	-0.002922
1153.021203	0.002781
1153.175994	-0.000229
1153.330767	-0.000177
1153.485521	-0.004614
1153.640258	-0.002969
1153.794976	-0.007658
1153.949676	-0.017563
1154.104358	-0.019078
1154.259021	-0.009098
1154.413667	-0.010202
1154.568294	-0.015494
1154.722903	-0.015878
1154.877493	-0.008261
1155.032066	0.000439
1155.186620	0.007454
1155.341156	0.017024
1155.495674	0.006672
1155.650173	-0.007663
1155.804654	-0.012120
1155.959118	-0.003315
1156.113562	-0.003911
1156.267989	0.010795
1156.422397	0.005549
1156.576788	0.005648
1156.731160	0.015402
1156.885513	0.008771
1157.039849	0.014145
1157.194166	0.030560
1157.348465	0.031497
1157.502746	0.036583
1157.657009	0.018015
1157.811253	0.016669
1157.965479	0.009604
1158.119687	-0.005960
1158.273877	0.004039
1158.428048	0.005757
1158.582201	-0.011177
1158.736337	-0.024774
1158.890453	-0.017461
1159.044552	-0.013501
1159.198632	-0.027866
1159.352694	-0.022038
1159.506738	-0.019626
1159.660764	-0.024133
1159.814771	-0.020521
1159.968761	-0.015658
1160.122732	-0.000775
1160.276685	-0.022899
1160.430619	-0.024255
1160.584535	-0.013862
1160.738434	-0.022389
1160.892313	-0.030925
1161.046175	-0.030598
1161.200019	-0.037411
1161.353844	-0.031721
1161.507651	-0.025781
1161.661440	-0.006991
1161.815210	-0.008141
1161.968962	-0.003449
1162.122697	0.006284
1162.276412	0.019832
1162.430110	0.042313
1162.583789	0.052483
1162.737451	0.052616
1162.891094	0.046080
1163.044718	0.026923
1163.198325	0.043736
1163.351913	0.042681
1163.505483	0.024649
1163.659035	0.026312
1163.812569	0.011411
1163.966084	0.008255
1164.119581	-0.000537
1164.273060	-0.013484
1164.426521	0.002746
1164.579964	-0.012040
1164.733388	-0.011655
1164.886794	0.000351
1165.040182	-0.010047
1165.193551	-0.011196
1165.346903	-0.023991
1165.500236	-0.023125
1165.653551	-0.016097
1165.806848	-0.017241
1165.960126	-0.005905
1166.113386	-0.009849
1166.266628	0.003207
1166.419852	0.014462
1166.573058	0.013864
1166.726245	0.004527
1166.879414	0.015343
1167.032565	0.010012
1167.185698	0.014028
1167.338812	-0.008074
1167.491909	-0.007974
1167.644987	-0.007998
1167.798046	-0.012289
1167.951088	-0.015420
1168.104111	-0.004667
1168.257117	-0.018756
1168.410103	-0.022834
1168.563072	-0.039763
1168.716023	-0.035253
1168.868955	-0.024747
1169.021869	-0.020187
1169.174765	-0.018391
1169.327642	-0.017496
1169.480501	-0.008278
1169.633343	0.010235
1169.786165	0.023281
1169.938970	0.041462
1170.091757	0.054513
1170.244525	0.055553
1170.397275	0.021316
1170.550007	0.018213
1170.702720	0.026772
1170.855415	0.008167
1171.008092	0.001688
1171.160751	0.001145
1171.313392	-0.000508
1171.466014	-0.124593
1171.618619	0.024301
1171.771205	0.024301
1171.923772	0.024301
