sample name	sample
index	1021
start time	 04-19-2021  12:04:26 PM
880	0.055739
Peak Time (s)	101.037
Peak Height 	0.05574
calc peak height	100,103
Baseline Time (s)	9.536
Baseline Value 	-0.006157
subtract baseline	10,4
Abs	0.028586
Peak Time (s)	102.037
Peak Height 	0.02859
calc peak height	100,103
Baseline Time (s)	11.037
Baseline Value 	0.004098
subtract baseline	10,3
PK_550	0.025268
Peak Time (s)	102.54
Peak Height 	0.02527
calc peak height	100,103
Baseline Time (s)	8.536
Baseline Value 	2.3136E-4
subtract baseline	10,2
PK_880	0.026813
Peak Time (s)	102.037
Peak Height 	0.02681
calc peak height	100,103
Baseline Time (s)	8.536
Baseline Value 	0.001811
subtract baseline	10,1


Time (s)	A880-A510	A880-A775	A880-A975	A880	I510	I775	I975	I880	
0.035500	-0.000102	-0.000028	-0.001062	0.002714	6576.926939	45997.670100	3971.306674	24303.685423
0.536500	-0.001579	0.000038	-0.002335	0.004478	6548.720246	45829.194445	3962.852459	24216.441195
1.036500	-0.001458	0.000411	-0.001007	0.004427	6550.203389	45871.172920	3966.682264	24218.921128
1.539000	-0.003664	-0.000674	-0.003135	0.006106	6516.657818	45598.035131	3956.134854	24136.205688
2.037500	0.000051	0.000213	-0.002432	0.001405	6589.724469	46152.090716	3971.136052	24368.655788
2.537500	0.001341	-0.000197	-0.003315	0.000673	6607.488636	46184.224052	3970.712592	24405.052174
3.040500	0.000219	0.000038	0.000492	-0.001679	6618.333692	46443.330205	3988.030816	24522.486373
3.538000	-0.001936	-0.000337	-0.005818	0.003028	6558.204989	45935.740676	3957.226087	24288.099208
4.035500	0.000699	0.000578	-0.003860	0.000866	6600.141549	46242.364302	3968.655392	24395.462172
4.535500	0.000641	-0.000104	-0.001541	0.000397	6603.757705	46221.093537	3976.451302	24418.817158
5.036000	-0.000336	-0.000309	0.001038	0.000203	6596.878368	46220.039740	3984.257798	24428.500866
5.536500	-0.001255	-0.000337	-0.000998	-0.000104	6591.499913	46247.791074	3979.384029	24443.776381
6.036500	-0.000092	0.000005	-0.001846	0.000555	6595.925625	46216.251223	3975.153315	24410.963137
6.537000	0.001740	0.000026	-0.001498	0.000341	6613.938909	46239.685614	3976.730802	24421.626119
7.037500	0.001210	0.000787	-0.003798	0.000167	6610.791393	46333.291707	3970.778573	24430.291538
7.537500	0.000370	0.000057	-0.000861	0.000079	6604.168091	46269.028147	3979.255856	24434.677984
8.040500	0.000974	0.000237	-0.000340	-0.000087	6610.951921	46303.652139	3981.189840	24442.961286
8.535500	0.000000	0.000000	0.000253	0.000112	6600.628914	46260.011877	3982.298871	24433.038955
9.036000	-0.000450	-0.000363	0.000816	-0.000623	6603.136789	46297.234026	3985.962633	24469.724862
9.536000	0.000276	-0.000616	-0.002975	0.000000	6604.036813	46209.626914	3973.547580	24438.607087
10.036500	0.000505	-0.000264	-0.000136	0.000274	6603.637049	46217.370427	3980.743848	24424.936100
10.536500	-0.000156	0.000588	0.001875	0.000408	6596.652028	46289.211404	3986.040921	24418.276429
11.037000	-0.001272	0.000468	0.000000	-0.000170	6591.936090	46335.051106	3982.379638	24447.086363
11.537000	0.000639	0.000293	-0.000540	-0.000131	6608.386239	46313.575849	3980.747463	24445.125707
12.037500	-0.000400	0.000869	0.000873	0.000190	6596.430925	46339.220100	3983.825715	24429.138906
12.537500	-0.000562	-0.000585	0.000627	-0.000672	6602.581932	46279.861019	3985.565408	24472.147764
13.035000	-0.000499	-0.000168	-0.001087	-0.001384	6609.396642	46392.938577	3982.736067	24507.717659
13.535500	0.000259	0.000279	0.003282	-0.000310	6606.617960	46330.184897	3992.063020	24454.075988
14.036000	-0.003470	-0.000267	-0.003360	0.001494	6558.204051	46095.273395	3968.296864	24364.209120
14.536500	-0.000621	0.000232	-0.001881	0.002102	6577.738967	46084.494393	3970.730633	24334.042880
15.036000	-0.002043	-0.000082	0.000339	-0.000822	6590.896734	46345.378586	3985.176669	24479.665400
15.536500	0.001203	0.000708	0.000910	0.000207	6610.384267	46321.437172	3983.882969	24428.307748
16.037000	0.001181	-0.000360	0.000629	-0.000254	6614.249738	46260.539957	3984.390861	24451.254906
16.537500	0.000691	0.000352	-0.003641	-0.000345	6610.730324	46340.943043	3972.647713	24455.821958
17.037500	0.001324	0.000426	0.002689	-0.003126	6640.942802	46627.986182	3998.394365	24595.053180
17.535000	-0.001589	0.000105	-0.001094	0.000917	6579.630322	46189.947971	3976.246493	24392.907392
18.035500	-0.000252	0.000243	0.000030	0.000733	6592.960574	46222.227921	3979.922132	24402.082495
18.535500	-0.000426	0.000320	-0.000033	0.001194	6587.391106	46183.828816	3978.447652	24379.123094
19.036000	-0.002244	0.000568	0.001480	0.001060	6572.668177	46221.982832	3983.086487	24385.813415
19.536000	0.000498	0.000725	0.000075	0.001234	6595.142402	46220.320058	3978.640739	24377.165209
20.036500	0.000435	0.000387	-0.000116	0.000879	6597.708776	46221.960658	3979.099795	24394.811103
20.536500	-0.001831	0.000436	0.001472	0.001075	6576.142580	46207.245336	3983.020146	24385.057099
21.037000	-0.000271	-0.000090	-0.002839	0.000570	6594.223010	46205.145449	3972.333286	24410.191903
21.537500	-0.001674	0.000148	0.001000	0.000898	6579.060989	46196.158934	3982.186552	24393.858873
22.035000	0.001183	-0.000578	-0.000810	0.000463	6607.949864	46167.167400	3978.317894	24415.537681
22.535000	-0.000612	-0.000123	-0.001035	0.000592	6591.040364	46199.764564	3977.324643	24409.125331
23.036000	-0.000136	-0.000450	0.000053	0.000371	6597.149720	46189.048477	3981.003208	24420.100280
23.535500	-0.003159	0.000157	-0.002592	0.001010	6565.129732	46185.920903	3971.792860	24388.309989
24.036000	0.000251	0.000111	-0.000002	0.000984	6595.168045	46183.890926	3979.123688	24389.576232
24.536500	0.001672	0.000669	-0.001847	0.001450	6603.566494	46193.065638	3972.645613	24366.405489
25.036500	-0.000333	0.000706	-0.000899	0.001379	6586.587378	46203.854546	3975.498089	24369.931777
25.537000	-0.001936	-0.000556	-0.001414	0.000432	6580.841175	46172.421759	3976.708115	24417.057172
26.040000	-0.002831	-0.000245	0.003560	0.001202	6566.309557	46126.613714	3988.561172	24378.726418
26.535000	-0.001983	-0.000015	-0.003485	0.000980	6575.639503	46171.695996	3969.383810	24389.785564
27.035000	0.001377	0.000325	0.000211	-0.000782	6620.646551	46382.073478	3984.700709	24477.643979
27.535500	0.000164	0.000621	0.001977	-0.000734	6609.517445	46407.019434	3989.563736	24475.258884
28.036000	-0.000298	0.000421	-0.000412	0.000175	6597.450073	46295.801325	3980.245045	24429.856453
28.535500	0.000462	-0.000485	0.001274	-0.000740	6612.192271	46296.656031	3987.589179	24475.538788
29.036500	-0.000407	0.000775	-0.000554	-0.000201	6599.802607	46368.976600	3980.905916	24448.634282
29.536500	0.000158	0.000359	-0.005477	-0.000029	6603.259816	46310.066644	3966.644928	24440.074329
30.037000	0.000903	0.000562	-0.001013	0.000270	6607.179586	46300.356527	3978.290783	24425.127927
30.540000	-0.001956	0.000069	0.000379	0.002510	6562.539148	46027.606997	3975.909223	24313.783969
31.037500	-0.000670	0.000381	-0.000068	0.002430	6574.438779	46066.588252	3974.881785	24317.728141
31.535000	-0.000397	0.000245	0.004456	0.000765	6591.405443	46219.260455	3992.347255	24400.505126
32.035500	0.000574	0.000988	-0.004136	0.001257	6595.605607	46244.217050	3966.797218	24375.990405
32.535500	-0.000268	0.000384	-0.000205	0.000394	6595.790691	46270.187488	3980.213337	24418.973401
33.035500	0.002191	0.000341	0.000472	0.000345	6617.879332	46270.788096	3982.257472	24421.388695
33.536000	0.003778	0.000838	0.002939	-0.000214	6636.874856	46376.518183	3990.817777	24449.272773
34.036500	-0.001575	-0.000271	0.001130	0.002714	6564.080494	45973.507329	3977.443659	24303.656003
34.537000	-0.000737	-0.000124	0.001583	0.001974	6577.846134	46061.754508	3980.800946	24340.399520
35.036500	0.000540	-0.000013	0.000238	0.001988	6588.904635	46071.430548	3976.981590	24339.707970
35.537000	-0.000385	0.000489	-0.002151	0.001782	6582.606095	46142.044050	3970.868429	24349.929184
36.037000	-0.000753	0.000087	0.000685	0.000998	6586.241964	46180.144964	3981.017788	24388.882063
36.537500	-0.002547	-0.000095	-0.000696	0.001304	6567.893098	46131.381705	3976.276393	24373.655160
37.035500	-0.000099	0.000117	0.001528	0.000962	6592.289756	46186.689366	3983.497311	24390.676012
37.535500	-0.002647	-0.000483	0.001095	0.000910	6570.459620	46131.972426	3982.422087	24393.267064
38.036000	-0.002108	-0.000017	0.000504	0.002357	6562.547350	46034.299605	3976.688869	24321.371719
38.536500	-0.001106	-0.000028	-0.003777	0.002289	6571.869490	46039.934643	3964.925736	24324.745170
39.036500	-0.004558	0.000629	-0.001068	0.002591	6539.262480	46075.368315	3971.635302	24309.788358
39.539500	-0.004028	0.000337	-0.000270	0.001699	6551.576203	46135.074676	3976.364975	24354.027400
40.037000	-0.002012	0.000704	-0.001241	0.000441	6580.100592	46297.513923	3977.172508	24416.648796
40.537500	-0.000533	0.000585	-0.000702	0.000538	6592.201117	46275.882878	3978.411210	24411.785389
41.035000	-0.000711	0.000685	0.001460	0.000613	6589.983715	46278.398857	3984.288387	24408.042277
41.535000	-0.001005	-0.000238	0.000152	-0.000011	6592.883596	46248.541245	3982.361150	24439.176785
42.036000	-0.000419	-0.000510	0.000988	0.000014	6597.803739	46218.725051	3984.646089	24437.889180
42.535000	-0.000915	0.000118	-0.004086	0.000822	6586.368499	46200.829787	3968.150960	24397.669937
43.035500	0.000723	0.000144	0.002127	0.001180	6597.594247	46167.655159	3984.573138	24379.855765
43.536000	0.000808	0.001071	0.001619	0.001753	6593.305198	46202.975084	3981.522823	24351.352236
44.039500	0.001260	0.000456	0.003302	-0.001831	6628.885559	46500.643177	3996.450621	24530.123272
44.537000	-0.000258	0.000177	-0.000662	-0.000579	6604.433168	46346.931587	3981.667677	24467.504671
45.034500	0.000769	0.000383	0.001232	0.000821	6601.159067	46227.380875	3983.060718	24397.711990
45.537500	0.001219	0.000387	-0.004658	-0.000384	6615.731596	46348.366797	3969.916956	24457.770311
46.035000	-0.001833	-0.000368	0.000513	0.003101	6558.468336	45925.431251	3974.628519	24284.482881
46.535500	0.000653	-0.000121	0.000746	-0.000853	6614.877719	46344.522323	3986.415682	24481.211272
47.035000	0.000560	0.000673	-0.003404	0.001325	6594.888591	46206.032199	3968.647956	24372.638553
47.536000	-0.003989	-0.000238	-0.001982	0.001065	6557.425620	46140.986480	3973.345318	24385.574907
48.035500	-0.001823	0.000690	-0.001738	0.002918	6560.146247	46048.853372	3968.850889	24293.561276
48.539500	-0.000332	0.000106	-0.001761	-0.001052	6607.950753	46387.229967	3979.905452	24491.149008
49.037000	-0.001929	0.000112	0.002365	0.001591	6570.779391	46123.471126	3984.082665	24359.406417
49.537000	0.002065	0.000699	0.000098	-0.001982	6637.366174	46540.333038	3987.777240	24537.693455
50.037000	0.001423	0.000619	0.000186	0.002138	6595.333663	46119.456162	3976.413208	24332.260783
50.537500	0.000980	0.001058	0.005387	0.024762	6398.102484	43962.885597	3928.505600	23238.183769
51.035000	0.039916	-0.012132	0.077518	0.430657	4335.699079	18492.037393	3300.836181	10813.955562
51.535000	0.000128	-0.007634	-0.018417	0.145423	5515.687343	33363.883026	3597.322174	18275.214981
52.036000	-0.023838	-0.046160	-0.066392	-0.184304	8308.705534	62545.399623	4363.636372	35888.830492
52.536000	-0.013328	-0.139506	-0.047160	-0.298861	10152.932875	65535.000000	4942.868274	45882.709478
53.039000	-0.014683	-0.130799	-0.033554	-0.290154	9984.139374	65535.000000	4967.654433	45027.155176
53.536500	-0.012950	-0.119223	-0.034710	-0.278578	9822.745974	65535.000000	4903.819767	43915.881491
54.036500	-0.020236	-0.099132	-0.040415	-0.258487	9392.655577	65535.000000	4780.082646	42056.150891
54.537000	-0.021140	-0.099256	-0.037523	-0.258611	9380.800513	65535.000000	4794.171136	42067.404415
55.037500	-0.023467	-0.082028	-0.036676	-0.241383	9090.269328	65535.000000	4718.806997	40539.332282
55.535000	-0.020028	-0.087579	-0.034153	-0.246934	9222.213068	65535.000000	4755.596713	41025.108010
56.035000	-0.014344	-0.069501	-0.024284	-0.225963	8999.484559	65118.595452	4705.182832	39222.166536
56.535500	-0.012673	-0.046431	-0.028350	-0.193192	8569.854550	63742.382202	4546.846258	36573.393420
57.035500	-0.014643	-0.022972	-0.023622	-0.145895	7949.198817	60488.301068	4379.837954	33086.304489
57.538500	-0.010241	-0.015056	-0.019448	-0.113702	7628.936393	57352.735525	4278.514762	30920.916232
58.036000	-0.010215	-0.009577	-0.020636	-0.086022	7329.959526	54634.842891	4180.740086	29183.243402
58.536500	-0.008568	-0.008344	-0.018936	-0.075504	7238.013015	53538.734626	4152.144778	28551.433629
59.037000	-0.009007	-0.005379	-0.017781	-0.051592	6995.062960	51150.219988	4080.980404	27170.744781
59.536000	-0.006834	-0.001476	-0.011243	-0.030782	6818.115483	49304.736881	4038.214790	26029.524384
60.034500	-0.001044	-0.000445	-0.011399	-0.017526	6749.336398	48014.462659	3999.289206	25330.583881
60.534500	-0.003328	0.000577	-0.006336	-0.006150	6626.506295	46949.499905	3981.374148	24747.489018
61.035000	-0.001598	0.000901	-0.007877	0.002530	6565.485473	46108.519981	3952.922937	24312.796271
61.536000	0.000045	0.004691	-0.002043	0.010201	6513.339249	45723.347738	3947.882366	23935.789748
62.039000	-0.001715	0.004496	-0.002433	0.014869	6458.521461	45245.571564	3934.103724	23709.579065
62.536500	-0.003532	0.004362	-0.006051	0.020608	6395.123698	44675.668562	3909.041302	23434.828986
63.036500	0.000937	0.006085	0.000167	0.034824	6314.944502	43488.635602	3888.037766	22769.617382
63.537000	0.002199	0.007393	0.002069	0.044599	6246.381480	42703.351048	3867.738893	22324.684135
64.037000	0.002146	0.008625	-0.003387	0.030098	6363.553772	44174.845012	3891.091455	22988.347042
64.535000	0.003883	0.006405	-0.000992	0.019383	6467.708765	44991.789571	3925.815174	23493.168107
65.035500	-0.001921	0.006429	-0.003779	0.018160	6429.040920	45113.052826	3921.614515	23551.563424
65.535500	0.002319	0.007189	0.001696	0.024797	6408.971997	44544.461583	3918.506810	23236.512914
66.035500	0.004504	0.010744	0.006425	0.035961	6334.773447	43819.804271	3901.440889	22717.359298
66.539000	0.005764	0.011347	0.011157	0.033803	6362.835472	44081.316282	3919.724856	22816.675697
67.036500	0.005559	0.011396	0.004391	0.034335	6356.768262	44035.455576	3900.367249	22792.138085
67.542500	0.008816	0.011152	0.008454	0.028320	6433.894263	44586.808927	3927.181310	23071.242516
68.051000	0.008568	0.010744	0.004350	0.026900	6443.759599	44684.344912	3919.981066	23137.720099
68.537000	0.009324	0.011127	0.012139	0.026227	6455.828058	44786.276503	3942.841193	23169.290654
69.034000	0.001817	0.010592	0.002609	0.030202	6359.982282	44352.590081	3906.566737	22983.478884
69.537000	0.007782	0.012096	0.001660	0.025004	6453.124378	44998.598818	3917.856767	23226.767601
70.035000	0.006227	0.012522	0.004873	0.024854	6441.271291	45054.587287	3926.874854	23233.855981
70.535000	0.009559	0.013258	0.007843	0.026688	6453.911504	44947.961497	3929.935376	23147.648783
71.038000	0.007392	0.012959	0.009301	0.033948	6375.075279	44220.961243	3914.383079	22809.963563
71.536000	0.010419	0.013755	0.008532	0.030788	6426.622673	44599.812603	3920.767770	22956.256729
72.039000	0.011586	0.012346	0.008114	0.030421	6439.519613	44499.698603	3920.629836	22973.312233
72.537000	0.012072	0.014400	0.012854	0.031787	6432.120648	44565.772173	3929.697499	22909.912915
73.039500	0.010391	0.013695	0.010102	0.038739	6360.286638	43836.126868	3903.809521	22590.197805
73.537000	0.014106	0.013780	0.014127	0.036501	6409.667075	44056.146533	3920.452293	22692.583088
74.037500	0.014184	0.014099	0.013065	0.039174	6388.061797	43833.225999	3910.498723	22570.388269
74.538000	0.013715	0.013878	0.012878	0.040995	6369.094189	43640.813526	3905.181441	22487.552628
75.035000	0.011132	0.015165	0.009739	0.048775	6284.528214	43034.890619	3876.702069	22137.625406
75.538500	0.013621	0.014824	0.016239	0.044055	6343.142844	43442.530724	3905.976046	22349.167993
76.038000	0.014619	0.016739	0.017609	0.045381	6340.453937	43497.675547	3906.092721	22289.512030
76.536000	0.015431	0.016171	0.017142	0.045583	6345.460051	43425.701727	3904.328155	22280.467027
77.035500	0.016692	0.016868	0.016358	0.046468	6348.543583	43407.995118	3899.929452	22240.742397
77.536500	0.019275	0.016882	0.012486	0.047329	6362.713532	43329.003217	3887.554885	22202.213958
78.037000	0.018637	0.016181	0.016384	0.047116	6359.208842	43283.398239	3898.295382	22211.718685
78.537000	0.020051	0.017054	0.020447	0.048503	6359.428907	43235.626082	3905.343131	22149.772624
79.035000	0.012967	0.017124	0.016784	0.053385	6262.224003	42790.241626	3882.992307	21933.245680
79.538000	0.016237	0.017519	0.016281	0.048435	6328.712611	43285.249869	3894.568671	22152.805566
80.038500	0.016918	0.018399	0.019997	0.049235	6327.737486	43292.675307	3902.224374	22117.134242
80.535500	0.016360	0.018384	0.016605	0.048558	6328.712414	43354.427649	3895.096995	22147.335433
81.036000	0.011349	0.016713	0.012642	0.051834	6261.686736	42895.269810	3876.301452	22001.781139
81.536000	0.013712	0.018167	0.018585	0.047879	6312.673146	43397.613567	3902.078694	22177.631498
82.035500	0.014884	0.018159	0.017769	0.047411	6326.022865	43440.524679	3901.159978	22198.528449
82.536500	0.015861	0.019398	0.018677	0.048811	6322.573759	43425.509428	3899.866415	22136.024092
83.037500	0.012603	0.018425	0.015902	0.054010	6254.302890	42852.415388	3879.095488	21905.675158
83.537500	0.017296	0.018229	0.021964	0.050384	6321.454559	43169.924346	3904.384134	22066.065758
84.035000	0.015349	0.018568	0.017661	0.051606	6295.726145	43087.996072	3889.893394	22011.870634
84.538000	0.017204	0.017962	0.022309	0.050627	6318.722321	43122.534168	3904.648985	22055.242088
85.035000	0.019284	0.018527	0.019978	0.051140	6331.500879	43127.393420	3897.167347	22032.493913
85.535500	0.019758	0.017923	0.015991	0.050240	6342.748466	43154.860444	3889.100975	22072.447335
86.036000	0.020296	0.018868	0.021424	0.050545	6344.667194	43214.414278	3902.534222	22058.916675
86.536500	0.020847	0.018710	0.021498	0.049999	6353.671291	43250.439567	3904.167292	22083.150774
87.037000	0.018475	0.019237	0.021662	0.055647	6288.323475	42776.427611	3889.787684	21833.715168
87.537000	0.022272	0.020677	0.025927	0.052092	6348.184137	43238.811481	3910.351391	21990.365934
88.037000	0.022801	0.020637	0.023452	0.052249	6351.238518	43220.377187	3903.386975	21983.389332
88.537500	0.023803	0.020910	0.019782	0.052507	6357.353703	43221.826678	3893.075187	21971.992144
89.037500	0.022003	0.020679	0.022088	0.056401	6310.788559	42839.869845	3888.931987	21800.663805
89.535500	0.021390	0.020698	0.022577	0.052371	6338.656161	43214.751817	3900.760412	21977.988296
90.035500	0.021795	0.021607	0.023314	0.052814	6338.348544	43258.082353	3901.535410	21958.433903
90.536000	0.024030	0.021446	0.021553	0.052697	6357.662703	43254.064020	3897.216785	21963.616464
91.036000	0.020518	0.022295	0.021384	0.058957	6278.112625	42753.291281	3880.476429	21689.053187
91.536500	0.022626	0.022576	0.023871	0.053519	6339.377376	43282.695823	3901.145174	21927.314562
92.036500	0.023624	0.022928	0.024402	0.053889	6344.526676	43281.034294	3901.568547	21911.021782
92.537000	0.022517	0.022845	0.027689	0.054058	6334.078320	43257.561908	3909.806299	21903.562657
93.037000	0.018897	0.022423	0.021748	0.058785	6266.465521	42780.875366	3881.863445	21696.526120
93.535000	0.023410	0.024693	0.025198	0.055894	6326.380780	43258.669558	3898.391556	21822.904429
94.035500	0.025260	0.023573	0.022692	0.054537	6352.640285	43280.743044	3895.378440	21882.486452
94.535500	0.023805	0.023562	0.025891	0.054061	6344.604445	43324.169821	3905.041769	21903.454486
95.036000	0.020762	0.022688	0.022231	0.058297	6285.397309	42850.284776	3884.379186	21717.822688
95.536000	0.023714	0.022733	0.021284	0.053801	6345.993218	43271.037798	3893.619968	21914.890870
96.036500	0.024737	0.024101	0.023442	0.054474	6348.857821	43335.824458	3897.508232	21885.251885
96.536500	0.024613	0.023446	0.022890	0.053048	6359.578467	43407.928906	3899.806459	21948.122352
97.037000	0.019703	0.023758	0.024217	0.057994	6279.306976	42976.999614	3890.329539	21731.011060
97.537000	0.024698	0.023848	0.025972	0.052778	6362.497073	43470.683813	3908.650085	21960.014817
98.040500	0.024652	0.024408	0.026972	0.052865	6361.395067	43514.943377	3911.070789	21956.161822
98.534500	0.025460	0.024472	0.025613	0.052832	6368.338091	43524.068760	3907.556460	21957.625033
99.035000	0.022136	0.023327	0.023548	0.056193	6313.564919	43103.995082	3893.285556	21809.804317
99.535500	0.024973	0.024071	0.027074	0.051762	6373.157490	43586.857633	3914.274736	22004.964962
100.035500	0.025933	0.024790	0.026268	0.052350	6376.231289	43599.168488	3910.568146	21978.926060
100.536500	0.025039	0.024183	0.026867	0.051760	6373.721438	43597.574928	3913.730402	22005.047899
101.036500	0.022172	0.023972	0.026071	0.055739	6317.548920	43205.999312	3901.093102	21829.699943
101.537000	0.026289	0.024698	0.028076	0.052303	6379.560875	43594.939289	3915.500597	21981.003098
102.037000	0.026813	0.025012	0.028586	0.052156	6385.125848	43638.222712	3917.253062	21987.502562
102.540000	0.026448	0.025268	0.026865	0.051947	6383.841031	43681.994004	3913.227536	21996.776023
103.037500	0.027416	0.025963	0.028797	0.052445	6387.732490	43700.495919	3917.045258	21974.725812
103.535000	0.029072	0.025338	0.028357	0.052678	6399.569717	43619.852798	3915.253649	21964.446087
104.035500	0.029301	0.026085	0.031649	0.052999	6398.803985	43659.935075	3923.196134	21950.274774
104.535500	0.026745	0.025892	0.029202	0.052534	6381.434592	43685.505113	3917.890867	21970.823662
105.036000	0.027646	0.026360	0.030270	0.052608	6388.291349	43722.565230	3920.547554	21967.551372
105.536500	0.029468	0.026078	0.030243	0.052858	6401.363145	43672.407045	3919.805468	21956.472224
106.036000	0.026993	0.025884	0.026583	0.052906	6380.403042	43649.741502	3909.932149	21954.380627
106.536000	0.029830	0.026546	0.031712	0.053993	6394.931202	43609.811936	3920.699552	21906.431389
107.040000	0.029299	0.026172	0.028388	0.054837	6383.508660	43495.475574	3909.595930	21869.279794
107.546000	0.028121	0.026133	0.028909	0.053785	6382.463671	43590.478881	3913.771956	21915.579685
108.035000	0.029140	0.025185	0.027083	0.052905	6398.243446	43584.210312	3911.260949	21954.424307
108.535500	0.029813	0.025950	0.027478	0.053678	6397.408937	43583.371244	3910.257025	21920.302827
109.035500	0.029144	0.027151	0.032158	0.055077	6380.240489	43564.871855	3918.995388	21858.769205
109.535500	0.031251	0.025961	0.029354	0.054207	6404.979103	43534.779226	3913.834167	21896.998250
110.036000	0.029644	0.026318	0.031744	0.054673	6387.732045	43524.604842	3918.966848	21876.506728
