sample name	sample
index	31
start time	 02-11-2021  12:49:01 PM


Wavelength (nm)	Absorbance
494.344910	-0.400081
494.563924	-0.400081
494.782919	-0.400081
495.001897	-0.256083
495.220856	-0.169130
495.439797	-0.165123
495.658719	0.092357
495.877624	0.318871
496.096510	0.894863
496.315378	0.122590
496.534227	-0.145266
496.753059	-0.194318
496.971872	-0.220657
497.190667	-0.020436
497.409444	-0.000875
497.628203	-0.008004
497.846943	-0.001238
498.065665	-0.000087
498.284369	0.004505
498.503055	0.002839
498.721723	0.002869
498.940372	0.001180
499.159003	0.001609
499.377616	0.000803
499.596210	0.002196
499.814787	-0.000217
500.033345	-0.000848
500.251885	-0.002055
500.470406	0.000302
500.688910	0.002674
500.907395	0.003581
501.125862	0.001399
501.344311	0.001375
501.562742	0.000555
501.781154	0.001772
501.999548	0.001166
502.217924	0.003933
502.436282	0.003741
502.654621	0.002933
502.872942	0.002973
503.091245	0.003702
503.309530	0.005433
503.527797	0.006525
503.746045	0.004945
503.964275	0.004526
504.182487	0.002547
504.400681	0.001633
504.618856	0.002412
504.837013	0.002259
505.055152	0.003189
505.273273	0.001967
505.491376	-0.000274
505.709460	0.000613
505.927526	0.002234
506.145574	0.002098
506.363604	0.003357
506.581615	0.001530
506.799608	0.002598
507.017583	0.003105
507.235540	0.001643
507.453478	0.004332
507.671399	0.004093
507.889301	0.001421
508.107185	0.002107
508.325050	0.001692
508.542898	0.003083
508.760727	0.002945
508.978538	0.000717
509.196330	0.001420
509.414105	-0.000201
509.631861	-0.000117
509.849599	0.002230
510.067319	0.002115
510.285021	0.002346
510.502704	0.002580
510.720369	0.001220
510.938016	0.002025
511.155645	0.002151
511.373255	0.002294
511.590848	0.001599
511.808422	0.000669
512.025977	0.000182
512.243515	-0.000437
512.461034	-0.001598
512.678536	0.000226
512.896018	-0.000719
513.113483	-0.000042
513.330930	-0.000609
513.548358	-0.000099
513.765768	-0.000055
513.983160	0.000653
514.200533	-0.000289
514.417889	0.001696
514.635226	0.000954
514.852545	0.001250
515.069845	0.001544
515.287128	0.001977
515.504392	0.001950
515.721638	0.000824
515.938866	0.000295
516.156075	0.000689
516.373267	-0.001657
516.590440	-0.002140
516.807594	-0.002696
517.024731	-0.003248
517.241850	-0.002887
517.458950	-0.002723
517.676032	-0.001457
517.893095	-0.001670
518.110141	-0.001002
518.327168	-0.000375
518.544177	-0.000441
518.761168	-0.000422
518.978141	-0.001362
519.195095	-0.000752
519.412031	-0.000409
519.628949	-0.000133
519.845849	0.000122
520.062731	-0.000088
520.279594	-0.000180
520.496439	-0.000133
520.713266	0.000727
520.930074	0.001027
521.146865	-0.000200
521.363637	-0.000412
521.580391	-0.001239
521.797127	-0.001469
522.013844	-0.001420
522.230543	-0.001768
522.447224	-0.001573
522.663887	-0.001952
522.880532	-0.000246
523.097158	0.000796
523.313766	0.000494
523.530356	0.001056
523.746928	0.002035
523.963481	0.002002
524.180017	0.002295
524.396534	0.002244
524.613032	0.002167
524.829513	0.001150
525.045975	0.001026
525.262420	0.001144
525.478845	0.000173
525.695253	-0.000831
525.911643	-0.000668
526.128014	-0.000400
526.344367	-0.000336
526.560702	0.000042
526.777018	0.000006
526.993316	-0.000351
527.209597	-0.000023
527.425858	-0.000054
527.642102	0.000175
527.858328	0.000793
528.074535	0.000572
528.290724	0.000632
528.506894	0.001106
528.723047	0.001646
528.939181	0.001850
529.155297	0.001820
529.371395	0.003012
529.587475	0.002323
529.803536	0.001774
530.019579	0.001422
530.235604	0.001508
530.451611	0.001275
530.667600	0.001015
530.883570	0.000988
531.099522	0.001253
531.315456	0.000182
531.531372	0.001607
531.747269	0.001729
531.963148	0.001681
532.179009	0.001083
532.394852	0.001557
532.610676	0.001683
532.826482	0.001992
533.042271	0.001362
533.258040	0.002344
533.473792	0.002643
533.689525	0.002435
533.905240	0.003403
534.120937	0.004859
534.336616	0.005433
534.552277	0.005311
534.767919	0.004598
534.983543	0.005326
535.199149	0.005831
535.414736	0.004630
535.630306	0.004444
535.845857	0.004490
536.061390	0.003573
536.276904	0.003263
536.492401	0.002642
536.707879	0.002256
536.923339	0.002146
537.138781	0.001361
537.354204	0.002075
537.569610	0.002353
537.784997	0.002250
538.000366	0.002928
538.215716	0.002381
538.431049	0.002938
538.646363	0.003688
538.861659	0.003098
539.076937	0.002516
539.292196	0.002364
539.507438	0.002765
539.722661	0.002578
539.937866	0.002090
540.153052	0.002185
540.368221	0.002131
540.583371	0.001965
540.798503	0.002502
541.013617	0.002661
541.228712	0.002374
541.443789	0.001937
541.658848	0.002008
541.873889	0.001500
542.088912	0.001240
542.303916	0.001201
542.518902	0.000922
542.733870	0.000665
542.948820	0.000707
543.163752	0.000977
543.378665	0.001494
543.593560	0.001141
543.808437	0.001968
544.023295	0.002375
544.238136	0.002684
544.452958	0.002931
544.667762	0.003211
544.882548	0.003800
545.097315	0.003998
545.312064	0.003864
545.526795	0.004274
545.741508	0.004055
545.956203	0.003752
546.170879	0.003977
546.385537	0.003994
546.600177	0.003804
546.814799	0.003626
547.029402	0.003613
547.243988	0.003566
547.458555	0.003487
547.673103	0.004070
547.887634	0.003780
548.102146	0.003248
548.316640	0.002916
548.531116	0.003173
548.745574	0.003386
548.960013	0.002449
549.174435	0.002752
549.388838	0.002303
549.603222	0.001420
549.817589	0.002060
550.031937	0.002187
550.246267	0.002099
550.460579	0.002049
550.674873	0.001167
550.889148	0.001709
551.103405	0.001206
551.317644	0.001784
551.531865	0.002245
551.746068	0.002715
551.960252	0.002853
552.174418	0.003356
552.388566	0.002753
552.602696	0.003707
552.816807	0.003768
553.030900	0.004590
553.244975	0.004033
553.459032	0.003409
553.673070	0.002623
553.887091	0.002187
554.101093	0.002579
554.315077	0.003274
554.529042	0.003262
554.742990	0.002978
554.956919	0.002332
555.170830	0.002857
555.384722	0.003414
555.598597	0.003874
555.812453	0.004322
556.026291	0.003883
556.240111	0.003458
556.453913	0.003627
556.667696	0.004292
556.881461	0.004490
557.095208	0.004263
557.308937	0.004280
557.522647	0.004056
557.736339	0.003807
557.950013	0.003952
558.163669	0.004477
558.377307	0.004704
558.590926	0.004512
558.804527	0.005072
559.018110	0.005160
559.231675	0.004830
559.445221	0.005156
559.658749	0.005682
559.872259	0.005522
560.085751	0.005102
560.299225	0.004543
560.512680	0.005259
560.726117	0.004353
560.939536	0.004819
561.152937	0.004872
561.366319	0.004497
561.579683	0.003874
561.793029	0.004239
562.006357	0.004706
562.219667	0.005217
562.432958	0.004188
562.646231	0.004915
562.859486	0.004652
563.072723	0.004752
563.285941	0.004653
563.499141	0.005111
563.712323	0.005121
563.925487	0.005081
564.138632	0.004902
564.351760	0.005158
564.564869	0.004652
564.777960	0.005266
564.991032	0.005380
565.204087	0.005891
565.417123	0.005865
565.630141	0.005951
565.843140	0.005859
566.056122	0.005940
566.269085	0.005810
566.482030	0.006076
566.694957	0.005101
566.907866	0.004949
567.120756	0.004914
567.333628	0.005128
567.546482	0.005204
567.759318	0.005047
567.972135	0.004400
568.184935	0.004838
568.397716	0.004685
568.610478	0.005200
568.823223	0.005503
569.035949	0.005538
569.248657	0.005306
569.461347	0.004509
569.674019	0.004857
569.886672	0.005260
570.099308	0.004963
570.311925	0.004966
570.524523	0.005180
570.737104	0.005222
570.949666	0.005264
571.162210	0.005155
571.374736	0.005276
571.587244	0.005012
571.799733	0.005017
572.012205	0.005375
572.224658	0.005027
572.437092	0.004603
572.649509	0.004382
572.861907	0.004186
573.074287	0.004486
573.286649	0.004846
573.498993	0.005118
573.711318	0.005270
573.923625	0.004890
574.135914	0.005133
574.348185	0.005096
574.560438	0.005328
574.772672	0.005103
574.984888	0.004676
575.197086	0.004371
575.409266	0.003885
575.621427	0.004083
575.833570	0.004422
576.045695	0.004340
576.257802	0.004127
576.469890	0.003929
576.681961	0.003696
576.894013	0.003853
577.106046	0.004092
577.318062	0.004305
577.530059	0.003953
577.742039	0.003853
577.954000	0.003952
578.165942	0.003754
578.377867	0.003174
578.589773	0.003573
578.801661	0.003516
579.013531	0.003614
579.225382	0.003415
579.437216	0.002971
579.649031	0.002983
579.860828	0.002951
580.072606	0.003349
580.284367	0.004246
580.496109	0.004272
580.707833	0.004671
580.919539	0.004828
581.131227	0.004970
581.342896	0.005784
581.554547	0.005559
581.766180	0.005643
581.977795	0.006151
582.189391	0.005914
582.400969	0.005963
582.612529	0.005154
582.824071	0.005428
583.035595	0.005311
583.247100	0.004992
583.458587	0.005500
583.670056	0.005346
583.881506	0.005274
584.092939	0.004796
584.304353	0.005038
584.515749	0.005766
584.727127	0.005074
584.938486	0.005770
585.149828	0.005809
585.361151	0.006226
585.572456	0.006816
585.783742	0.006822
585.995011	0.007600
586.206261	0.007030
586.417493	0.007191
586.628706	0.007612
586.839902	0.007202
587.051079	0.006853
587.262238	0.006334
587.473379	0.006313
587.684502	0.005437
587.895606	0.005436
588.106692	0.005627
588.317760	0.005531
588.528810	0.005841
588.739841	0.006186
588.950855	0.006619
589.161850	0.006665
589.372827	0.006496
589.583785	0.007422
589.794726	0.007048
590.005648	0.007451
590.216552	0.007027
590.427437	0.006436
590.638305	0.006178
590.849154	0.006391
591.059985	0.006214
591.270798	0.006064
591.481592	0.006405
591.692369	0.006384
591.903127	0.006500
592.113867	0.007004
592.324588	0.007408
592.535292	0.007387
592.745977	0.007081
592.956644	0.007504
593.167293	0.007666
593.377923	0.007376
593.588536	0.007620
593.799130	0.006878
594.009706	0.006880
594.220263	0.006623
594.430803	0.006756
594.641324	0.006684
594.851827	0.006658
595.062312	0.006490
595.272778	0.005931
595.483227	0.005827
595.693657	0.006157
595.904069	0.005913
596.114462	0.006192
596.324838	0.006121
596.535195	0.006356
596.745534	0.006028
596.955855	0.006109
597.166157	0.006550
597.376441	0.006783
597.586707	0.006689
597.796955	0.006553
598.007185	0.006307
598.217396	0.006532
598.427589	0.006932
598.637764	0.006858
598.847921	0.006892
599.058060	0.006785
599.268180	0.006777
599.478282	0.006889
599.688366	0.007132
599.898431	0.007310
600.108479	0.006721
600.318508	0.005831
600.528519	0.006114
600.738511	0.006282
600.948486	0.006617
601.158442	0.006509
601.368380	0.006836
601.578300	0.007179
601.788202	0.007422
601.998085	0.008089
602.207950	0.008569
602.417797	0.008942
602.627626	0.008714
602.837436	0.008623
603.047228	0.008759
603.257002	0.008575
603.466758	0.008456
603.676496	0.008300
603.886215	0.008403
604.095916	0.008864
604.305599	0.008476
604.515264	0.008788
604.724910	0.008617
604.934538	0.008795
605.144148	0.009073
605.353740	0.009022
605.563314	0.009050
605.772869	0.008894
605.982406	0.008344
606.191925	0.008489
606.401425	0.008304
606.610908	0.008548
606.820372	0.008472
607.029818	0.008101
607.239246	0.008253
607.448655	0.008356
607.658047	0.008071
607.867420	0.008106
608.076775	0.008097
608.286111	0.008162
608.495430	0.008221
608.704730	0.008210
608.914012	0.008496
609.123275	0.008399
609.332521	0.008845
609.541748	0.008777
609.750957	0.009477
609.960148	0.009453
610.169321	0.009691
610.378475	0.009653
610.587611	0.009590
610.796729	0.009668
611.005829	0.009778
611.214910	0.009175
611.423974	0.009455
611.633019	0.008722
611.842045	0.008649
612.051054	0.008567
612.260044	0.008276
612.469017	0.008713
612.677970	0.008672
612.886906	0.008418
613.095824	0.008659
613.304723	0.008543
613.513604	0.008709
613.722467	0.008607
613.931311	0.008618
614.140138	0.008720
614.348946	0.008282
614.557736	0.008317
614.766507	0.008655
614.975261	0.008481
615.183996	0.008439
615.392713	0.008718
615.601412	0.008889
615.810092	0.008839
616.018754	0.008631
616.227399	0.009145
616.436024	0.009434
616.644632	0.009709
616.853222	0.010000
617.061793	0.010706
617.270346	0.011085
617.478880	0.011024
617.687397	0.011245
617.895895	0.011920
618.104375	0.011527
618.312837	0.011498
618.521281	0.011295
618.729706	0.011509
618.938113	0.011228
619.146502	0.010593
619.354873	0.011037
619.563226	0.010825
619.771560	0.010481
619.979876	0.010409
620.188174	0.010063
620.396453	0.010074
620.604715	0.010265
620.812958	0.010169
621.021183	0.010583
621.229390	0.010247
621.437578	0.010644
621.645748	0.010975
621.853900	0.011003
622.062034	0.011652
622.270150	0.011891
622.478247	0.011456
622.686326	0.011405
622.894387	0.011473
623.102430	0.011695
623.310454	0.011625
623.518461	0.011456
623.726449	0.011662
623.934418	0.011292
624.142370	0.011373
624.350303	0.011269
624.558218	0.011629
624.766115	0.011357
624.973994	0.011401
625.181855	0.011250
625.389697	0.011368
625.597521	0.011754
625.805327	0.011896
626.013114	0.011397
626.220883	0.011607
626.428634	0.011241
626.636367	0.011423
626.844082	0.011478
627.051778	0.011531
627.259457	0.011737
627.467117	0.011575
627.674758	0.011790
627.882382	0.012488
628.089987	0.012437
628.297574	0.012886
628.505143	0.012954
628.712694	0.013008
628.920226	0.013433
629.127740	0.013574
629.335236	0.013701
629.542714	0.013237
629.750174	0.012792
629.957615	0.013096
630.165038	0.012790
630.372443	0.012768
630.579829	0.012654
630.787198	0.012478
630.994548	0.012342
631.201880	0.012319
631.409194	0.012528
631.616489	0.012840
631.823766	0.012437
632.031025	0.012765
632.238266	0.012819
632.445489	0.012802
632.652693	0.012766
632.859879	0.012605
633.067047	0.012180
633.274197	0.012458
633.481329	0.012367
633.688442	0.012701
633.895537	0.012268
634.102614	0.012209
634.309672	0.012227
634.516713	0.012368
634.723735	0.012585
634.930739	0.013114
635.137724	0.013091
635.344692	0.013124
635.551641	0.013189
635.758572	0.013831
635.965485	0.013884
636.172379	0.014101
636.379256	0.014043
636.586114	0.013981
636.792954	0.014050
636.999775	0.013746
637.206579	0.013747
637.413364	0.013711
637.620131	0.013167
637.826880	0.013227
638.033610	0.013490
638.240323	0.013581
638.447017	0.013630
638.653692	0.013487
638.860350	0.013322
639.066990	0.012893
639.273611	0.013035
639.480214	0.013283
639.686798	0.013677
639.893365	0.013397
640.099913	0.013411
640.306443	0.013468
640.512955	0.013365
640.719449	0.013593
640.925924	0.014195
641.132381	0.014116
641.338820	0.014308
641.545241	0.013819
641.751644	0.013753
641.958028	0.013577
642.164394	0.013359
642.370742	0.013548
642.577071	0.013730
642.783383	0.013505
642.989676	0.013352
643.195951	0.013379
643.402207	0.013567
643.608446	0.013583
643.814666	0.013663
644.020868	0.013737
644.227052	0.013902
644.433218	0.013783
644.639365	0.013858
644.845494	0.013809
645.051605	0.013416
645.257698	0.013333
645.463772	0.013556
645.669828	0.013860
645.875866	0.013940
646.081886	0.013811
646.287888	0.014068
646.493871	0.014030
646.699836	0.013978
646.905783	0.014079
647.111712	0.014059
647.317622	0.013856
647.523514	0.013555
647.729388	0.013489
647.935244	0.013416
648.141082	0.013292
648.346901	0.013393
648.552702	0.013760
648.758485	0.013904
648.964250	0.014216
649.169996	0.014738
649.375724	0.014708
649.581434	0.014764
649.787126	0.015041
649.992800	0.015185
650.198455	0.015445
650.404092	0.015405
650.609711	0.015571
650.815311	0.015506
651.020894	0.015215
651.226458	0.015456
651.432004	0.015588
651.637532	0.015686
651.843041	0.015847
652.048532	0.015761
652.254006	0.016013
652.459460	0.015885
652.664897	0.015999
652.870315	0.015856
653.075716	0.016079
653.281097	0.016371
653.486461	0.016414
653.691807	0.016115
653.897134	0.016286
654.102443	0.016220
654.307734	0.016631
654.513006	0.016622
654.718261	0.016711
654.923497	0.016596
655.128715	0.016438
655.333915	0.016465
655.539096	0.016892
655.744259	0.016792
655.949404	0.016623
656.154531	0.016349
656.359640	0.016469
656.564730	0.016447
656.769802	0.016453
656.974856	0.016817
657.179892	0.016655
657.384909	0.016560
657.589908	0.016724
657.794889	0.016928
657.999852	0.017233
658.204797	0.017665
658.409723	0.018031
658.614631	0.018504
658.819521	0.018139
659.024393	0.018205
659.229246	0.018529
659.434081	0.018409
659.638898	0.018769
659.843697	0.018545
660.048478	0.018021
660.253240	0.017949
660.457984	0.017305
660.662710	0.017548
660.867417	0.017340
661.072107	0.016978
661.276778	0.017089
661.481431	0.016786
661.686066	0.016728
661.890682	0.016924
662.095281	0.017124
662.299861	0.017329
662.504422	0.017526
662.708966	0.017860
662.913491	0.018043
663.117999	0.017848
663.322488	0.018143
663.526958	0.018382
663.731411	0.018341
663.935845	0.017959
664.140261	0.018256
664.344659	0.018174
664.549038	0.018357
664.753400	0.018105
664.957743	0.018308
665.162068	0.018014
665.366375	0.018224
665.570663	0.018403
665.774933	0.018614
665.979185	0.018757
666.183419	0.018729
666.387635	0.018535
666.591832	0.018933
666.796011	0.019187
667.000172	0.019555
667.204315	0.019719
667.408439	0.019605
667.612545	0.019667
667.816634	0.019549
668.020703	0.019660
668.224755	0.019957
668.428788	0.020215
668.632803	0.020344
668.836800	0.020411
669.040779	0.020397
669.244739	0.020498
669.448681	0.020672
669.652605	0.020826
669.856511	0.020949
670.060399	0.020784
670.264268	0.020565
670.468119	0.020575
670.671952	0.020353
670.875767	0.020186
671.079563	0.020172
671.283341	0.020042
671.487101	0.019806
671.690843	0.019483
671.894567	0.019863
672.098272	0.020119
672.301959	0.020292
672.505628	0.020435
672.709278	0.020419
672.912911	0.020324
673.116525	0.020789
673.320121	0.021023
673.523699	0.021550
673.727258	0.021353
673.930799	0.021301
674.134322	0.021038
674.337827	0.021341
674.541314	0.021716
674.744782	0.022276
674.948232	0.022093
675.151664	0.022169
675.355078	0.022168
675.558474	0.022226
675.761851	0.022372
675.965210	0.022532
676.168551	0.022474
676.371873	0.022301
676.575178	0.022241
676.778464	0.022535
676.981732	0.022638
677.184981	0.022503
677.388213	0.022720
677.591426	0.022617
677.794621	0.022775
677.997798	0.022996
678.200956	0.023185
678.404097	0.023178
678.607219	0.022992
678.810323	0.022791
679.013408	0.022943
679.216476	0.022744
679.419525	0.022915
679.622556	0.022667
679.825569	0.022395
680.028563	0.022355
680.231540	0.022436
680.434498	0.022608
680.637438	0.022743
680.840359	0.022627
681.043263	0.022839
681.246148	0.022738
681.449015	0.022865
681.651864	0.022697
681.854694	0.022871
682.057506	0.022893
682.260301	0.022901
682.463076	0.022951
682.665834	0.022917
682.868573	0.022960
683.071295	0.022978
683.273998	0.023084
683.476682	0.023403
683.679349	0.023622
683.881997	0.023720
684.084627	0.023745
684.287239	0.024069
684.489833	0.024215
684.692408	0.024140
684.894965	0.024273
685.097504	0.024326
685.300025	0.024613
685.502527	0.024207
685.705012	0.024145
685.907478	0.024151
686.109925	0.024083
686.312355	0.024270
686.514766	0.024257
686.717159	0.024364
686.919534	0.024236
687.121891	0.024029
687.324230	0.024242
687.526550	0.024393
687.728852	0.024269
687.931136	0.024041
688.133401	0.023891
688.335649	0.024138
688.537878	0.024148
688.740089	0.024071
688.942281	0.024120
689.144456	0.024334
689.346612	0.024421
689.548750	0.024640
689.750870	0.025040
689.952971	0.025050
690.155055	0.024881
690.357120	0.024680
690.559167	0.025236
690.761195	0.025524
690.963206	0.025459
691.165198	0.025358
691.367172	0.025486
691.569128	0.025349
691.771065	0.025964
691.972984	0.026281
692.174885	0.026624
692.376768	0.026178
692.578633	0.026124
692.780479	0.026389
692.982308	0.026461
693.184118	0.026830
693.385909	0.027035
693.587683	0.026673
693.789438	0.026684
693.991175	0.026679
694.192894	0.026975
694.394595	0.026804
694.596277	0.026557
694.797941	0.026808
694.999587	0.026179
695.201215	0.025966
695.402824	0.025844
695.604416	0.025676
695.805989	0.025619
696.007543	0.025484
696.209080	0.025372
696.410598	0.025501
696.612099	0.025354
696.813580	0.025735
697.015044	0.025922
697.216490	0.026346
697.417917	0.026462
697.619326	0.026442
697.820717	0.026871
698.022089	0.027537
698.223444	0.027689
698.424780	0.027858
698.626098	0.027720
698.827397	0.027754
699.028679	0.027659
699.229942	0.027637
699.431187	0.027701
699.632414	0.027205
699.833622	0.027156
700.034813	0.027051
700.235985	0.026967
700.437139	0.027039
700.638274	0.027167
700.839392	0.027060
701.040491	0.027408
701.241572	0.027734
701.442635	0.028031
701.643679	0.027908
701.844706	0.027921
702.045714	0.028062
702.246704	0.028277
702.447675	0.028455
702.648629	0.028854
702.849564	0.028726
703.050481	0.028620
703.251380	0.028672
703.452260	0.028549
703.653122	0.028706
703.853966	0.028683
704.054792	0.028549
704.255600	0.028417
704.456389	0.028149
704.657160	0.028239
704.857913	0.028094
705.058648	0.028310
705.259365	0.028410
705.460063	0.028433
705.660743	0.028373
705.861405	0.028470
706.062048	0.028499
706.262674	0.028970
706.463281	0.029053
706.663870	0.029193
706.864441	0.029170
707.064993	0.029207
707.265527	0.028957
707.466043	0.029011
707.666541	0.028998
707.867021	0.028926
708.067482	0.028551
708.267925	0.028474
708.468350	0.028340
708.668757	0.028291
708.869145	0.028383
709.069516	0.028585
709.269868	0.028335
709.470201	0.028336
709.670517	0.028268
709.870814	0.028135
710.071093	0.028016
710.271354	0.028215
710.471597	0.028361
710.671821	0.028262
710.872028	0.028295
711.072216	0.028556
711.272385	0.028674
711.472537	0.028990
711.672670	0.028767
711.872785	0.028865
712.072882	0.028400
712.272961	0.028048
712.473021	0.027973
712.673063	0.028092
712.873087	0.028273
713.073093	0.028128
713.273081	0.027876
713.473050	0.028152
713.673001	0.027962
713.872934	0.028476
714.072849	0.028553
714.272745	0.028697
714.472623	0.028359
714.672483	0.027876
714.872325	0.028059
715.072148	0.028155
715.271954	0.028129
715.471741	0.028238
715.671509	0.028042
715.871260	0.027952
716.070992	0.027920
716.270707	0.027853
716.470403	0.027822
716.670080	0.027548
716.869740	0.027666
717.069381	0.027844
717.269004	0.027767
717.468609	0.027866
717.668195	0.027713
717.867764	0.027534
718.067314	0.027841
718.266846	0.028111
718.466360	0.028353
718.665855	0.028156
718.865332	0.028024
719.064791	0.028261
719.264232	0.028172
719.463655	0.028586
719.663059	0.028736
719.862445	0.028526
720.061813	0.028667
720.261163	0.028516
720.460494	0.028716
720.659807	0.028485
720.859102	0.028237
721.058379	0.028537
721.257638	0.028588
721.456878	0.028637
721.656100	0.028715
721.855304	0.028409
722.054490	0.028370
722.253657	0.028035
722.452806	0.028409
722.651937	0.028523
722.851050	0.028121
723.050145	0.027942
723.249221	0.027788
723.448279	0.027954
723.647319	0.028139
723.846340	0.028071
724.045344	0.028074
724.244329	0.027885
724.443296	0.027849
724.642245	0.027916
724.841175	0.028178
725.040088	0.028043
725.238982	0.028116
725.437857	0.028006
725.636715	0.027853
725.835554	0.027592
726.034376	0.027450
726.233179	0.027128
726.431963	0.027044
726.630730	0.026672
726.829478	0.026592
727.028208	0.026050
727.226920	0.026178
727.425614	0.026423
727.624289	0.026650
727.822946	0.026651
728.021585	0.026924
728.220206	0.026960
728.418808	0.026981
728.617392	0.027101
728.815958	0.027274
729.014506	0.027156
729.213036	0.026987
729.411547	0.026833
729.610040	0.026719
729.808515	0.026598
730.006972	0.026490
730.205410	0.026395
730.403831	0.025951
730.602233	0.025800
730.800616	0.025482
730.998982	0.025546
731.197329	0.025625
731.395658	0.025762
731.593969	0.025541
731.792262	0.025281
731.990536	0.025081
732.188793	0.025224
732.387031	0.025202
732.585250	0.025015
732.783452	0.024750
732.981635	0.024440
733.179800	0.024080
733.377947	0.023906
733.576076	0.023910
733.774186	0.024212
733.972278	0.024395
734.170352	0.024235
734.368408	0.024617
734.566446	0.024704
734.764465	0.024837
734.962466	0.024925
735.160449	0.025082
735.358413	0.024918
735.556360	0.024548
735.754288	0.024649
735.952198	0.024836
736.150090	0.024618
736.347963	0.024376
736.545818	0.024309
736.743655	0.024336
736.941474	0.024412
737.139275	0.024471
737.337057	0.024525
737.534821	0.024024
737.732567	0.023974
737.930295	0.023663
738.128005	0.023736
738.325696	0.023495
738.523369	0.023213
738.721024	0.023048
738.918660	0.023166
739.116279	0.022930
739.313879	0.023185
739.511461	0.023143
739.709024	0.023080
739.906570	0.023039
740.104097	0.023055
740.301606	0.023314
740.499097	0.023624
740.696569	0.023556
740.894024	0.023811
741.091460	0.023777
741.288878	0.023499
741.486277	0.023599
741.683659	0.023528
741.881022	0.023822
742.078367	0.023813
742.275694	0.023447
742.473002	0.023229
742.670293	0.023050
742.867565	0.022854
743.064819	0.023027
743.262054	0.023361
743.459272	0.023475
743.656471	0.023315
743.853652	0.023022
744.050815	0.023020
744.247959	0.023557
744.445085	0.023424
744.642194	0.023307
744.839283	0.023218
745.036355	0.023252
745.233408	0.023230
745.430444	0.023235
745.627461	0.023469
745.824459	0.023639
746.021440	0.023358
746.218402	0.023577
746.415346	0.023883
746.612272	0.023576
746.809180	0.023247
747.006069	0.023222
747.202940	0.023150
747.399793	0.022940
747.596628	0.022967
747.793444	0.023119
747.990243	0.022692
748.187023	0.022461
748.383784	0.022706
748.580528	0.022807
748.777253	0.022817
748.973960	0.022753
749.170649	0.022824
749.367320	0.022706
749.563973	0.022307
749.760607	0.022457
749.957223	0.022689
750.153821	0.022593
750.350400	0.022615
750.546962	0.022559
750.743505	0.022630
750.940030	0.022395
751.136536	0.022426
751.333025	0.022657
751.529495	0.022959
751.725947	0.022767
751.922381	0.023002
752.118796	0.022894
752.315194	0.022800
752.511573	0.022763
752.707934	0.023120
752.904276	0.022937
753.100601	0.023063
753.296907	0.023062
753.493195	0.023041
753.689465	0.022839
753.885716	0.022742
754.081949	0.022845
754.278164	0.023066
754.474361	0.022916
754.670540	0.022835
754.866700	0.022667
755.062843	0.022474
755.258967	0.022108
755.455072	0.022233
755.651160	0.022022
755.847229	0.021833
756.043280	0.021763
756.239313	0.021868
756.435328	0.021987
756.631324	0.021941
756.827302	0.021995
757.023262	0.022567
757.219204	0.022735
757.415127	0.023071
757.611033	0.023071
757.806920	0.022811
758.002788	0.022785
758.198639	0.022846
758.394471	0.022610
758.590286	0.022736
758.786081	0.022701
758.981859	0.022196
759.177619	0.021984
759.373360	0.022316
759.569083	0.022590
759.764788	0.022539
759.960474	0.022421
760.156143	0.022601
760.351793	0.022361
760.547425	0.022178
760.743038	0.022473
760.938634	0.022814
761.134211	0.022511
761.329770	0.022549
761.525311	0.022610
761.720833	0.022526
761.916338	0.022671
762.111824	0.022765
762.307292	0.022819
762.502741	0.022853
762.698173	0.022715
762.893586	0.022617
763.088981	0.022579
763.284358	0.022359
763.479716	0.022383
763.675057	0.022254
763.870379	0.022170
764.065683	0.022226
764.260968	0.021992
764.456236	0.021985
764.651485	0.022034
764.846716	0.021862
765.041929	0.021690
765.237123	0.021757
765.432299	0.021818
765.627457	0.021751
765.822597	0.021261
766.017719	0.021224
766.212822	0.020951
766.407907	0.020742
766.602974	0.020784
766.798023	0.021006
766.993054	0.020998
767.188066	0.020836
767.383060	0.020737
767.578036	0.021160
767.772993	0.021301
767.967933	0.021469
768.162854	0.021857
768.357757	0.021823
768.552642	0.021760
768.747508	0.021683
768.942356	0.021615
769.137186	0.021620
769.331998	0.021575
769.526792	0.021303
769.721567	0.021325
769.916324	0.020957
770.111063	0.020609
770.305784	0.020523
770.500486	0.020467
770.695171	0.020400
770.889837	0.020529
771.084484	0.020506
771.279114	0.020562
771.473725	0.020388
771.668318	0.020439
771.862893	0.020792
772.057450	0.020546
772.251988	0.020510
772.446509	0.020548
772.641011	0.020244
772.835494	0.020327
773.029960	0.020439
773.224407	0.020208
773.418836	0.020182
773.613247	0.020159
773.807640	0.020195
774.002014	0.020220
774.196370	0.020254
774.390708	0.020692
774.585028	0.020220
774.779330	0.020052
774.973613	0.020506
775.167878	0.020313
775.362125	0.020198
775.556354	0.020277
775.750564	0.020088
775.944756	0.019926
776.138930	0.019331
776.333086	0.019486
776.527223	0.019472
776.721343	0.019219
776.915444	0.019450
777.109526	0.019430
777.303591	0.019587
777.497637	0.019682
777.691666	0.019708
777.885676	0.020029
778.079667	0.019963
778.273641	0.020159
778.467596	0.020376
778.661533	0.020793
778.855452	0.020805
779.049352	0.020611
779.243235	0.020653
779.437099	0.020524
779.630945	0.020625
779.824773	0.020933
780.018582	0.020805
780.212373	0.020589
780.406146	0.020320
780.599901	0.019890
780.793638	0.019843
780.987356	0.020239
781.181056	0.020611
781.374738	0.020457
781.568402	0.020240
781.762047	0.020289
781.955674	0.020558
782.149283	0.020577
782.342874	0.020975
782.536447	0.020977
782.730001	0.020281
782.923537	0.020297
783.117055	0.020531
783.310555	0.020678
783.504036	0.020681
783.697499	0.020372
783.890944	0.020409
784.084371	0.020448
784.277780	0.020695
784.471170	0.021040
784.664542	0.020831
784.857896	0.020690
785.051231	0.020426
785.244549	0.020497
785.437848	0.020826
785.631129	0.020879
785.824392	0.020697
786.017636	0.020898
786.210863	0.020707
786.404071	0.020762
786.597260	0.020760
786.790432	0.020999
786.983585	0.020897
787.176721	0.020812
787.369838	0.020567
787.562936	0.020813
787.756017	0.020603
787.949079	0.020756
788.142123	0.020932
788.335149	0.021027
788.528156	0.020737
788.721146	0.020877
788.914117	0.020918
789.107070	0.020786
789.300005	0.020720
789.492921	0.020911
789.685819	0.021061
789.878699	0.021048
790.071561	0.021140
790.264405	0.021806
790.457230	0.021846
790.650037	0.021710
790.842826	0.021993
791.035597	0.022088
791.228349	0.021717
791.421084	0.021501
791.613800	0.021310
791.806497	0.021126
791.999177	0.020532
792.191838	0.020629
792.384481	0.020671
792.577106	0.020634
792.769713	0.020489
792.962301	0.020552
793.154871	0.020474
793.347423	0.020633
793.539957	0.020816
793.732473	0.021144
793.924970	0.021128
794.117449	0.020872
794.309910	0.020743
794.502353	0.020654
794.694777	0.020648
794.887183	0.020786
795.079571	0.020903
795.271941	0.021057
795.464293	0.021013
795.656626	0.021038
795.848941	0.021296
796.041238	0.021599
796.233516	0.021614
796.425777	0.021746
796.618019	0.021805
796.810243	0.021383
797.002449	0.020981
797.194636	0.021155
797.386805	0.020905
797.578956	0.021299
797.771089	0.021327
797.963204	0.021176
798.155300	0.021190
798.347378	0.021050
798.539438	0.021006
798.731480	0.021264
798.923503	0.020901
799.115509	0.021044
799.307496	0.020381
799.499465	0.020372
799.691415	0.020450
799.883348	0.020536
800.075262	0.021002
800.267158	0.021506
800.459035	0.021737
800.650895	0.021896
800.842736	0.022252
801.034559	0.022692
801.226364	0.022802
801.418150	0.023174
801.609919	0.023432
801.801669	0.023322
801.993401	0.023131
802.185114	0.022991
802.376810	0.023189
802.568487	0.023055
802.760146	0.022901
802.951787	0.022771
803.143409	0.022884
803.335014	0.022420
803.526600	0.022459
803.718168	0.022524
803.909717	0.022196
804.101249	0.021976
804.292762	0.022083
804.484257	0.022375
804.675734	0.022417
804.867192	0.022401
805.058632	0.022602
805.250054	0.022755
805.441458	0.022869
805.632844	0.023047
805.824211	0.023162
806.015561	0.022949
806.206891	0.022877
806.398204	0.022921
806.589499	0.022563
806.780775	0.022614
806.972033	0.022405
807.163273	0.022112
807.354495	0.022312
807.545698	0.022311
807.736883	0.022473
807.928050	0.022359
808.119199	0.022395
808.310329	0.022670
808.501441	0.022731
808.692535	0.022755
808.883611	0.022832
809.074669	0.022873
809.265708	0.022750
809.456729	0.022835
809.647732	0.022962
809.838717	0.023047
810.029683	0.023428
810.220632	0.023523
810.411562	0.023406
810.602474	0.023490
810.793367	0.023500
810.984242	0.023774
811.175100	0.023609
811.365938	0.023909
811.556759	0.024196
811.747562	0.023985
811.938346	0.023949
812.129112	0.024253
812.319860	0.024496
812.510589	0.024754
812.701300	0.024953
812.891994	0.024931
813.082668	0.024608
813.273325	0.024077
813.463964	0.024005
813.654584	0.023910
813.845186	0.023623
814.035769	0.023529
814.226335	0.023279
814.416882	0.022802
814.607411	0.022660
814.797922	0.022631
814.988415	0.022763
815.178889	0.022690
815.369345	0.022983
815.559783	0.023194
815.750203	0.023172
815.940605	0.023413
816.130988	0.023811
816.321353	0.024201
816.511700	0.023974
816.702028	0.023970
816.892339	0.024214
817.082631	0.024055
817.272905	0.024037
817.463161	0.023994
817.653398	0.023689
817.843617	0.023659
818.033819	0.023785
818.224001	0.024124
818.414166	0.024323
818.604312	0.024052
818.794440	0.024302
818.984550	0.024440
819.174642	0.025003
819.364716	0.024991
819.554771	0.025089
819.744808	0.025137
819.934827	0.025296
820.124827	0.025052
820.314810	0.025458
820.504774	0.025429
820.694720	0.024955
820.884647	0.024708
821.074557	0.024821
821.264448	0.024707
821.454321	0.024338
821.644176	0.024493
821.834012	0.025208
822.023831	0.025267
822.213631	0.025345
822.403413	0.025552
822.593176	0.025496
822.782922	0.025543
822.972649	0.025703
823.162358	0.025702
823.352049	0.025668
823.541721	0.025184
823.731376	0.024990
823.921012	0.025257
824.110629	0.025567
824.300229	0.025646
824.489811	0.025778
824.679374	0.025923
824.868919	0.026160
825.058445	0.026334
825.247954	0.026547
825.437444	0.026415
825.626916	0.026227
825.816370	0.026069
826.005806	0.026125
826.195223	0.026461
826.384622	0.026583
826.574003	0.026873
826.763366	0.027233
826.952711	0.027283
827.142037	0.027568
827.331345	0.027760
827.520635	0.028087
827.709906	0.027997
827.899160	0.027880
828.088395	0.028098
828.277612	0.027926
828.466810	0.027288
828.655991	0.027274
828.845153	0.027394
829.034297	0.027297
829.223423	0.027262
829.412531	0.027770
829.601620	0.027661
829.790691	0.027412
829.979744	0.027533
830.168779	0.027904
830.357795	0.027902
830.546793	0.028277
830.735773	0.028027
830.924735	0.028156
831.113679	0.027859
831.302604	0.028161
831.491511	0.028259
831.680400	0.028463
831.869271	0.028159
832.058123	0.028565
832.246957	0.028321
832.435773	0.028887
832.624571	0.029233
832.813351	0.029501
833.002112	0.029743
833.190855	0.030099
833.379580	0.030467
833.568287	0.030750
833.756975	0.030687
833.945645	0.030887
834.134297	0.030827
834.322931	0.030739
834.511547	0.030889
834.700144	0.030447
834.888723	0.029941
835.077284	0.029509
835.265826	0.029756
835.454351	0.029757
835.642857	0.029743
835.831345	0.029949
836.019815	0.029880
836.208266	0.029985
836.396699	0.030386
836.585114	0.030849
836.773511	0.031080
836.961890	0.030988
837.150250	0.031135
837.338592	0.031296
837.526916	0.031690
837.715222	0.031584
837.903510	0.031777
838.091779	0.031839
838.280030	0.031944
838.468263	0.031895
838.656477	0.032093
838.844674	0.031648
839.032852	0.031910
839.221012	0.031589
839.409153	0.032220
839.597277	0.032122
839.785382	0.031965
839.973469	0.031721
840.161538	0.032100
840.349589	0.031873
840.537621	0.032000
840.725635	0.031802
840.913631	0.032018
841.101609	0.031873
841.289568	0.031894
841.477509	0.032550
841.665432	0.032829
841.853337	0.032425
842.041224	0.032882
842.229092	0.033475
842.416942	0.033474
842.604774	0.033486
842.792588	0.033968
842.980383	0.033936
843.168160	0.033494
843.355919	0.033837
843.543660	0.034210
843.731382	0.034119
843.919087	0.034249
844.106773	0.034318
844.294441	0.034318
844.482090	0.034371
844.669722	0.034544
844.857335	0.035128
845.044930	0.034878
845.232507	0.034902
845.420065	0.035462
845.607605	0.035494
845.795127	0.035891
845.982631	0.035649
846.170117	0.035303
846.357584	0.035449
846.545033	0.035452
846.732464	0.035229
846.919877	0.035481
847.107272	0.035696
847.294648	0.035735
847.482006	0.035890
847.669346	0.036319
847.856667	0.036101
848.043971	0.036174
848.231256	0.035814
848.418523	0.036462
848.605771	0.036222
848.793002	0.035537
848.980214	0.035711
849.167408	0.035360
849.354584	0.035346
849.541742	0.035940
849.728881	0.036077
849.916002	0.036212
850.103105	0.035956
850.290190	0.036619
850.477256	0.036867
850.664304	0.036564
850.851334	0.036887
851.038346	0.036878
851.225340	0.036632
851.412315	0.036161
851.599272	0.035933
851.786211	0.036262
851.973132	0.036031
852.160034	0.036185
852.346918	0.036520
852.533784	0.036395
852.720632	0.036748
852.907462	0.036544
853.094273	0.036884
853.281066	0.037012
853.467841	0.036914
853.654598	0.036920
853.841336	0.036940
854.028056	0.037050
854.214758	0.037099
854.401442	0.037074
854.588107	0.037370
854.774755	0.037922
854.961384	0.038077
855.147995	0.038252
855.334587	0.038484
855.521162	0.038347
855.707718	0.038781
855.894256	0.038978
856.080775	0.039215
856.267277	0.039424
856.453760	0.039110
856.640225	0.039714
856.826672	0.040034
857.013101	0.039934
857.199511	0.040126
857.385903	0.039700
857.572277	0.039732
857.758633	0.039391
857.944970	0.039650
858.131290	0.039468
858.317591	0.039088
858.503873	0.038547
858.690138	0.038169
858.876384	0.038143
859.062612	0.038033
859.248822	0.037831
859.435014	0.038052
859.621188	0.038092
859.807343	0.038010
859.993480	0.038260
860.179599	0.038516
860.365699	0.039054
860.551781	0.039433
860.737846	0.039553
860.923891	0.039813
861.109919	0.039859
861.295929	0.040128
861.481920	0.040718
861.667893	0.041201
861.853848	0.040864
862.039784	0.040890
862.225702	0.040744
862.411603	0.040424
862.597484	0.040770
862.783348	0.040618
862.969193	0.040348
863.155021	0.040190
863.340830	0.039803
863.526620	0.039991
863.712393	0.039732
863.898147	0.039989
864.083883	0.040759
864.269601	0.040749
864.455301	0.040988
864.640982	0.041092
864.826645	0.040827
865.012290	0.040823
865.197917	0.041267
865.383526	0.041880
865.569116	0.041879
865.754688	0.041855
865.940242	0.041575
866.125777	0.041714
866.311295	0.042103
866.496794	0.043070
866.682275	0.043489
866.867737	0.043901
867.053182	0.043506
867.238608	0.043376
867.424016	0.043277
867.609406	0.043468
867.794778	0.043360
867.980131	0.043077
868.165466	0.042488
868.350783	0.042494
868.536082	0.042259
868.721362	0.042784
868.906625	0.042956
869.091869	0.043085
869.277094	0.043492
869.462302	0.043793
869.647491	0.043879
869.832662	0.043764
870.017815	0.043279
870.202950	0.043344
870.388066	0.042892
870.573165	0.042838
870.758245	0.042999
870.943306	0.042453
871.128350	0.042010
871.313375	0.041949
871.498382	0.042708
871.683371	0.042960
871.868342	0.042988
872.053294	0.043461
872.238229	0.043684
872.423144	0.043430
872.608042	0.043370
872.792922	0.043995
872.977783	0.043692
873.162626	0.043489
873.347451	0.043823
873.532258	0.044077
873.717046	0.044189
873.901816	0.043880
874.086568	0.044019
874.271302	0.043975
874.456017	0.043562
874.640715	0.043784
874.825394	0.043124
875.010055	0.042469
875.194697	0.042229
875.379322	0.041633
875.563928	0.041724
875.748516	0.041323
875.933085	0.041988
876.117637	0.041811
876.302170	0.041678
876.486685	0.042527
876.671182	0.042746
876.855661	0.042960
877.040121	0.043222
877.224563	0.043109
877.408987	0.043653
877.593393	0.043060
877.777780	0.043334
877.962150	0.043564
878.146501	0.043126
878.330833	0.043206
878.515148	0.042894
878.699444	0.043073
878.883722	0.043176
879.067982	0.042914
879.252224	0.043339
879.436447	0.043980
879.620653	0.044004
879.804840	0.044480
879.989008	0.044695
880.173159	0.044663
880.357291	0.044571
880.541405	0.045284
880.725501	0.045321
880.909579	0.045123
881.093638	0.044893
881.277680	0.044758
881.461703	0.044949
881.645707	0.044627
881.829694	0.044654
882.013662	0.044398
882.197612	0.043889
882.381544	0.043798
882.565458	0.044339
882.749353	0.044054
882.933230	0.044078
883.117089	0.043559
883.300930	0.043684
883.484753	0.043937
883.668557	0.044449
883.852343	0.044542
884.036111	0.044746
884.219861	0.044249
884.403592	0.044140
884.587305	0.043665
884.771000	0.043852
884.954677	0.043690
885.138335	0.043013
885.321976	0.043145
885.505598	0.043143
885.689201	0.042939
885.872787	0.043236
886.056354	0.043265
886.239904	0.043828
886.423434	0.043852
886.606947	0.044129
886.790442	0.044657
886.973918	0.043957
887.157376	0.043994
887.340816	0.044446
887.524237	0.044564
887.707641	0.044708
887.891026	0.044872
888.074393	0.044990
888.257741	0.044385
888.441072	0.044348
888.624384	0.045092
888.807678	0.045408
888.990954	0.045307
889.174211	0.045124
889.357451	0.044946
889.540672	0.044951
889.723875	0.045217
889.907059	0.045640
890.090226	0.045424
890.273374	0.044585
890.456504	0.044720
890.639616	0.045059
890.822709	0.045223
891.005785	0.045505
891.188842	0.045525
891.371881	0.045049
891.554901	0.045565
891.737904	0.045932
891.920888	0.046445
892.103854	0.045573
892.286802	0.044510
892.469731	0.044688
892.652643	0.044333
892.835536	0.044507
893.018410	0.044903
893.201267	0.044332
893.384106	0.044431
893.566926	0.044416
893.749728	0.044875
893.932511	0.045698
894.115277	0.045144
894.298024	0.045441
894.480753	0.045050
894.663464	0.044985
894.846157	0.045285
895.028831	0.045159
895.211487	0.045199
895.394125	0.044907
895.576745	0.044663
895.759346	0.044424
895.941930	0.044580
896.124495	0.044337
896.307041	0.044023
896.489570	0.043997
896.672080	0.043568
896.854573	0.043165
897.037046	0.043488
897.219502	0.043711
897.401940	0.043566
897.584359	0.042869
897.766760	0.043196
897.949143	0.043391
898.131507	0.043136
898.313854	0.043159
898.496182	0.042959
898.678492	0.042505
898.860783	0.042427
899.043057	0.043236
899.225312	0.044357
899.407549	0.043815
899.589768	0.043208
899.771968	0.042999
899.954151	0.043254
900.136315	0.043559
900.318461	0.043545
900.500588	0.043139
900.682698	0.042060
900.864789	0.041464
901.046862	0.041787
901.228917	0.042048
901.410953	0.042813
901.592971	0.043048
901.774972	0.043052
901.956953	0.043208
902.138917	0.043264
902.320862	0.043666
902.502790	0.043150
902.684699	0.042975
902.866589	0.042956
903.048462	0.042578
903.230316	0.042059
903.412152	0.041934
903.593970	0.041482
903.775770	0.041073
903.957551	0.041057
904.139314	0.041602
904.321059	0.041734
904.502786	0.041242
904.684494	0.040517
904.866185	0.040322
905.047857	0.040101
905.229510	0.039894
905.411146	0.040183
905.592763	0.040004
905.774363	0.039364
905.955943	0.039132
906.137506	0.039560
906.319051	0.039468
906.500577	0.039257
906.682085	0.039186
906.863575	0.039114
907.045046	0.038889
907.226500	0.038736
907.407935	0.038585
907.589352	0.038594
907.770750	0.038024
907.952131	0.037786
908.133493	0.037754
908.314837	0.038519
908.496163	0.038098
908.677470	0.037959
908.858760	0.037616
909.040031	0.037638
909.221284	0.037366
909.402518	0.037343
909.583735	0.037656
909.764933	0.037689
909.946113	0.036882
910.127275	0.036837
910.308418	0.036402
910.489544	0.036441
910.670651	0.036510
910.851740	0.036960
911.032810	0.036177
911.213863	0.036424
911.394897	0.035695
911.575913	0.034986
911.756911	0.035112
911.937890	0.035325
912.118851	0.035110
912.299794	0.033759
912.480719	0.032960
912.661626	0.033523
912.842514	0.032854
913.023384	0.033426
913.204236	0.033687
913.385070	0.033561
913.565886	0.033839
913.746683	0.033891
913.927462	0.035000
914.108223	0.034850
914.288965	0.034041
914.469690	0.033962
914.650396	0.034481
914.831084	0.034547
915.011754	0.034491
915.192405	0.033785
915.373038	0.033981
915.553653	0.034157
915.734250	0.034197
915.914829	0.034107
916.095389	0.034389
916.275931	0.033089
916.456455	0.032500
916.636961	0.032270
916.817448	0.032233
916.997917	0.032118
917.178368	0.031298
917.358801	0.030623
917.539216	0.030318
917.719612	0.029545
917.899990	0.030269
918.080350	0.029806
918.260692	0.030172
918.441015	0.030030
918.621320	0.029547
918.801607	0.029542
918.981876	0.029941
919.162127	0.029988
919.342359	0.029753
919.522573	0.029328
919.702769	0.030054
919.882947	0.029889
920.063106	0.029679
920.243247	0.029279
920.423370	0.029039
920.603475	0.029359
920.783562	0.029430
920.963630	0.029864
921.143680	0.029576
921.323712	0.029039
921.503725	0.028834
921.683721	0.027775
921.863698	0.028182
922.043657	0.027732
922.223598	0.027050
922.403520	0.027451
922.583424	0.026927
922.763311	0.026347
922.943178	0.026415
923.123028	0.026099
923.302859	0.026263
923.482673	0.025394
923.662467	0.025606
923.842244	0.025240
924.022003	0.023709
924.201743	0.023148
924.381465	0.023255
924.561169	0.022696
924.740854	0.022660
924.920522	0.023717
925.100171	0.023981
925.279802	0.023630
925.459414	0.023765
925.639009	0.023803
925.818585	0.023258
925.998143	0.022846
926.177683	0.022088
926.357205	0.021262
926.536708	0.019903
926.716193	0.018509
926.895660	0.018432
927.075109	0.017507
927.254539	0.018030
927.433951	0.019374
927.613345	0.019801
927.792721	0.019452
927.972079	0.019793
928.151418	0.020353
928.330739	0.021522
928.510042	0.021781
928.689327	0.022030
928.868593	0.022571
929.047841	0.021791
929.227071	0.021613
929.406283	0.022307
929.585476	0.021107
929.764652	0.020668
929.943809	0.020654
930.122948	0.019766
930.302068	0.019958
930.481171	0.018970
930.660255	0.018252
930.839321	0.017981
931.018369	0.017119
931.197398	0.017070
931.376409	0.016314
931.555402	0.015632
931.734377	0.014577
931.913334	0.013331
932.092272	0.013456
932.271192	0.013577
932.450094	0.011877
932.628978	0.013113
932.807844	0.011939
932.986691	0.011227
933.165520	0.010441
933.344331	0.011582
933.523123	0.011847
933.701898	0.010673
933.880654	0.010017
934.059392	0.009645
934.238111	0.007463
934.416813	0.007584
934.595496	0.007773
934.774161	0.007096
934.952808	0.005920
935.131437	0.005327
935.310047	0.006180
935.488639	0.006381
935.667213	0.007054
935.845769	0.006174
936.024306	0.006657
936.202825	0.007489
936.381326	0.007532
936.559809	0.007936
936.738274	0.007784
936.916720	0.006112
937.095148	0.005226
937.273558	0.004881
937.451950	0.005665
937.630323	0.005969
937.808678	0.004464
937.987015	0.005179
938.165334	0.003860
938.343635	0.004793
938.521917	0.005806
938.700181	0.005469
938.878427	0.005409
939.056655	0.005023
939.234864	0.004920
939.413055	0.004909
939.591228	0.003634
939.769383	0.005010
939.947519	0.003275
940.125638	0.002364
940.303738	0.002625
940.481820	0.001931
940.659883	0.000679
940.837929	0.000709
941.015956	0.001100
941.193965	0.002454
941.371955	-0.000350
941.549928	0.000694
941.727882	0.000130
941.905818	0.000192
942.083736	0.001235
942.261636	0.001908
942.439517	-0.000031
942.617380	0.000434
942.795225	-0.000402
942.973052	0.001987
943.150860	-0.000552
943.328651	0.000483
943.506423	-0.001138
943.684176	-0.002543
943.861912	-0.002032
944.039629	-0.000652
944.217328	-0.001072
944.395009	-0.003518
944.572672	-0.004702
944.750317	-0.002463
944.927943	-0.003571
945.105551	-0.002518
945.283141	-0.004847
945.460712	-0.005941
945.638265	-0.006916
945.815801	-0.008989
945.993317	-0.006686
946.170816	-0.007490
946.348297	-0.008919
946.525759	-0.010083
946.703203	-0.009362
946.880629	-0.005964
947.058036	-0.007400
947.235425	-0.008391
947.412797	-0.008611
947.590149	-0.010073
947.767484	-0.010375
947.944800	-0.010710
948.122099	-0.010031
948.299379	-0.010847
948.476640	-0.013291
948.653884	-0.009607
948.831109	-0.009558
949.008316	-0.009466
949.185505	-0.009048
949.362676	-0.008353
949.539828	-0.007988
949.716962	-0.007813
949.894078	-0.008711
950.071176	-0.007895
950.248256	-0.007605
950.425317	-0.006561
950.602360	-0.004997
950.779385	-0.004596
950.956391	-0.005738
951.133380	-0.006254
951.310350	-0.006205
951.487302	-0.006766
951.664235	-0.005160
951.841151	-0.004916
952.018048	-0.002268
952.194927	-0.001816
952.371788	0.000042
952.548631	-0.000256
952.725455	0.001201
952.902261	0.000302
953.079049	-0.000668
953.255819	-0.004330
953.432570	-0.004989
953.609303	-0.007146
953.786018	-0.006869
953.962715	-0.009233
954.139394	-0.008696
954.316054	-0.009576
954.492696	-0.008804
954.669320	-0.007628
954.845926	-0.003034
955.022513	-0.004922
955.199083	-0.003892
955.375634	-0.006291
955.552166	-0.007774
955.728681	-0.003970
955.905177	0.000194
956.081655	0.002830
956.258115	0.004610
956.434557	0.002935
956.610980	0.004025
956.787385	-0.000330
956.963772	0.003003
957.140141	0.007332
957.316492	0.004968
957.492824	0.001752
957.669138	-0.004174
957.845434	-0.003206
958.021712	-0.003637
958.197971	-0.000140
958.374212	0.005041
958.550435	-0.001272
958.726640	-0.005901
958.902826	-0.005576
959.078995	-0.006775
959.255145	-0.003883
959.431277	-0.007180
959.607390	-0.004355
959.783486	-0.005175
959.959563	-0.006442
960.135622	-0.000470
960.311662	-0.001767
960.487685	-0.005172
960.663689	-0.006977
960.839675	-0.007675
961.015643	0.000287
961.191593	-0.003817
961.367524	-0.002846
961.543437	-0.004903
961.719332	-0.005472
961.895209	0.000368
962.071067	0.006064
962.246907	0.010183
962.422730	0.010540
962.598533	0.005886
962.774319	0.007248
962.950086	-0.000094
963.125835	0.001588
963.301566	-0.001677
963.477279	-0.001157
963.652973	-0.003906
963.828650	-0.010173
964.004308	-0.011415
964.179947	-0.011687
964.355569	-0.012104
964.531172	-0.007693
964.706757	-0.001990
964.882324	0.001958
965.057873	-0.000801
965.233403	-0.001749
965.408916	0.006938
965.584410	0.008410
965.759885	0.007163
965.935343	0.010989
966.110782	0.007691
966.286203	0.005131
966.461606	0.005488
966.636991	0.007054
966.812357	0.009218
966.987705	0.007471
967.163035	0.012893
967.338347	0.011971
967.513641	0.009276
967.688916	0.009866
967.864173	0.005943
968.039412	0.004400
968.214632	0.005723
968.389835	0.003446
968.565019	-0.000840
968.740185	-0.006288
968.915333	-0.004919
969.090462	-0.005482
969.265573	-0.001069
969.440667	0.001240
969.615741	-0.000157
969.790798	-0.001954
969.965836	-0.001985
970.140856	0.002429
970.315858	0.004934
970.490842	0.000715
970.665808	0.003869
970.840755	-0.000244
971.015684	0.000532
971.190595	0.002758
971.365487	0.006730
971.540362	0.008135
971.715218	0.009108
971.890056	0.010796
972.064875	0.016019
972.239677	0.016601
972.414460	0.017356
972.589225	0.017076
972.763972	0.015412
972.938700	0.007113
973.113411	0.009424
973.288103	0.003797
973.462777	0.001204
973.637432	0.005160
973.812070	0.002174
973.986689	0.000827
974.161290	0.001468
974.335873	0.002277
974.510437	0.003149
974.684984	-0.001740
974.859512	0.003874
975.034022	0.003639
975.208513	-0.005584
975.382987	-0.005428
975.557442	-0.002595
975.731879	-0.005218
975.906298	-0.003774
976.080698	0.000280
976.255080	0.004165
976.429445	0.002162
976.603790	0.002537
976.778118	0.004763
976.952427	0.001482
977.126719	0.000174
977.300992	-0.000779
977.475246	0.000016
977.649483	-0.001735
977.823701	-0.005393
977.997901	-0.008480
978.172083	-0.007607
978.346247	-0.005582
978.520392	-0.004234
978.694519	-0.006558
978.868628	-0.001849
979.042719	-0.005613
979.216791	-0.005334
979.390845	-0.006104
979.564882	-0.006677
979.738899	-0.009971
979.912899	-0.011049
980.086880	-0.010528
980.260843	-0.009795
980.434788	-0.012226
980.608715	-0.011031
980.782623	-0.011653
980.956514	-0.010481
981.130386	-0.008904
981.304240	-0.006917
981.478075	-0.001652
981.651892	-0.002550
981.825692	-0.000697
981.999472	0.002352
982.173235	0.001185
982.346980	0.002160
982.520706	0.006427
982.694414	0.012932
982.868104	0.007644
983.041775	0.003383
983.215428	0.006003
983.389064	0.006359
983.562680	-0.000372
983.736279	0.002641
983.909860	0.003291
984.083422	0.000831
984.256966	-0.003119
984.430491	0.001235
984.603999	0.004063
984.777488	-0.001152
984.950959	-0.005265
985.124412	-0.001848
985.297847	0.000022
985.471263	0.000076
985.644661	-0.001709
985.818041	-0.004360
985.991403	-0.001688
986.164747	-0.007801
986.338072	0.001139
986.511379	0.005272
986.684668	0.002329
986.857938	-0.004201
987.031191	-0.004737
987.204425	-0.004150
987.377641	-0.000517
987.550839	-0.006049
987.724018	-0.000712
987.897179	-0.006018
988.070322	-0.005838
988.243447	-0.006244
988.416554	-0.002924
988.589642	-0.004392
988.762712	-0.000099
988.935764	-0.002127
989.108798	-0.000347
989.281813	-0.001979
989.454811	-0.001746
989.627790	-0.004517
989.800751	-0.003117
989.973693	-0.003053
990.146617	-0.001945
990.319524	-0.004112
990.492412	-0.001877
990.665281	0.002949
990.838133	0.000310
991.010966	-0.003161
991.183781	-0.001778
991.356578	-0.002360
991.529356	-0.003038
991.702117	-0.002127
991.874859	-0.003147
992.047583	-0.003450
992.220288	-0.005651
992.392976	-0.003777
992.565645	-0.007300
992.738296	-0.004410
992.910929	-0.007954
993.083543	-0.010725
993.256139	-0.013286
993.428718	-0.013200
993.601277	-0.016546
993.773819	-0.016704
993.946342	-0.014053
994.118848	-0.008605
994.291335	-0.010172
994.463803	-0.006637
994.636254	-0.007065
994.808686	-0.006960
994.981100	-0.007132
995.153496	-0.007570
995.325874	-0.011041
995.498233	-0.009751
995.670574	-0.008088
995.842897	-0.007930
996.015202	-0.008190
996.187488	-0.000379
996.359757	0.001606
996.532007	0.001488
996.704239	0.000283
996.876452	0.005124
997.048648	0.001291
997.220825	-0.000665
997.392984	-0.001496
997.565124	-0.002041
997.737247	-0.005156
997.909351	-0.008373
998.081437	-0.010033
998.253505	-0.006669
998.425554	-0.009056
998.597586	-0.007863
998.769599	-0.006154
998.941594	-0.007923
999.113571	-0.005889
999.285529	-0.006162
999.457469	0.002581
999.629391	0.003803
999.801295	0.002695
999.973181	0.003505
1000.145048	0.004546
1000.316897	0.004163
1000.488728	0.004067
1000.660541	0.002565
1000.832335	-0.000527
1001.004111	-0.004990
1001.175869	-0.004754
1001.347609	-0.006230
1001.519331	-0.002710
1001.691034	-0.003282
1001.862719	-0.004599
1002.034386	-0.002493
1002.206035	0.000077
1002.377665	0.001668
1002.549277	-0.000505
1002.720871	0.004093
1002.892447	0.004166
1003.064004	0.001561
1003.235544	-0.004535
1003.407065	-0.006332
1003.578568	-0.005226
1003.750052	-0.006837
1003.921519	-0.008756
1004.092967	-0.006578
1004.264397	-0.007738
1004.435809	-0.008658
1004.607202	-0.010231
1004.778577	-0.004842
1004.949934	-0.001641
1005.121273	-0.003879
1005.292594	-0.004283
1005.463896	-0.002623
1005.635180	-0.003425
1005.806446	-0.010213
1005.977694	-0.010163
1006.148923	-0.007369
1006.320135	-0.007689
1006.491328	-0.013986
1006.662503	-0.015422
1006.833659	-0.016862
1007.004798	-0.016893
1007.175918	-0.018690
1007.347020	-0.013584
1007.518103	-0.014452
1007.689169	-0.015495
1007.860216	-0.014735
1008.031245	-0.012511
1008.202256	-0.007670
1008.373248	-0.003923
1008.544223	-0.002336
1008.715179	-0.005264
1008.886117	-0.009162
1009.057036	-0.006927
1009.227938	-0.007530
1009.398821	-0.008434
1009.569686	-0.007281
1009.740533	-0.008705
1009.911361	-0.010781
1010.082172	-0.015482
1010.252964	-0.009540
1010.423738	-0.008274
1010.594493	-0.006844
1010.765231	-0.007167
1010.935950	-0.008739
1011.106651	-0.007276
1011.277334	-0.010560
1011.447998	-0.006533
1011.618645	-0.003736
1011.789273	-0.005274
1011.959882	-0.003430
1012.130474	-0.007816
1012.301048	-0.004965
1012.471603	-0.002852
1012.642140	-0.001185
1012.812658	-0.000548
1012.983159	-0.006624
1013.153641	-0.004449
1013.324105	-0.004861
1013.494551	-0.008526
1013.664979	-0.005217
1013.835388	-0.008713
1014.005779	-0.011456
1014.176152	-0.011786
1014.346507	-0.008612
1014.516843	-0.007743
1014.687162	-0.010500
1014.857462	-0.010822
1015.027744	-0.008364
1015.198007	-0.006904
1015.368252	-0.006015
1015.538480	-0.005137
1015.708689	-0.003700
1015.878879	-0.007712
1016.049052	-0.007959
1016.219206	-0.007518
1016.389342	-0.007086
1016.559460	-0.011052
1016.729559	-0.010304
1016.899641	-0.009130
1017.069704	-0.012792
1017.239749	-0.013994
1017.409775	-0.012858
1017.579784	-0.010438
1017.749774	-0.009971
1017.919746	-0.011296
1018.089700	-0.009514
1018.259635	-0.013036
1018.429553	-0.012018
1018.599452	-0.009282
1018.769333	-0.009638
1018.939195	-0.008302
1019.109040	-0.007645
1019.278866	-0.009808
1019.448674	-0.009950
1019.618464	-0.007921
1019.788235	-0.004659
1019.957989	-0.006300
1020.127724	-0.005744
1020.297441	-0.003855
1020.467139	-0.003832
1020.636820	-0.002100
1020.806482	0.002776
1020.976126	0.005604
1021.145752	0.004848
1021.315359	0.003906
1021.484948	0.003649
1021.654519	0.005869
1021.824072	0.003794
1021.993607	0.004375
1022.163123	0.001824
1022.332621	-0.001002
1022.502101	-0.002215
1022.671563	-0.002356
1022.841007	-0.003386
1023.010432	-0.004830
1023.179839	-0.002819
1023.349228	-0.002812
1023.518598	-0.003221
1023.687951	-0.003312
1023.857285	-0.001481
1024.026601	0.000860
1024.195899	-0.000123
1024.365178	0.003092
1024.534439	0.007492
1024.703682	0.008414
1024.872907	0.007674
1025.042114	0.007183
1025.211302	0.006654
1025.380472	0.006759
1025.549624	0.003060
1025.718758	0.003826
1025.887873	-0.000038
1026.056970	-0.003244
1026.226049	-0.007943
1026.395110	-0.010007
1026.564153	-0.012951
1026.733177	-0.013614
1026.902183	-0.018907
1027.071171	-0.017760
1027.240141	-0.017542
1027.409092	-0.018124
1027.578026	-0.019986
1027.746940	-0.021590
1027.915837	-0.017569
1028.084716	-0.017044
1028.253576	-0.015606
1028.422418	-0.015876
1028.591242	-0.018469
1028.760048	-0.018993
1028.928835	-0.016188
1029.097604	-0.013546
1029.266355	-0.014093
1029.435088	-0.014775
1029.603803	-0.014282
1029.772499	-0.016363
1029.941177	-0.015767
1030.109837	-0.013945
1030.278478	-0.012249
1030.447102	-0.012489
1030.615707	-0.012892
1030.784294	-0.010438
1030.952863	-0.007398
1031.121413	-0.007091
1031.289945	-0.004540
1031.458460	-0.000459
1031.626955	-0.000470
1031.795433	0.001090
1031.963892	-0.000382
1032.132334	-0.001463
1032.300756	-0.000014
1032.469161	-0.004237
1032.637548	-0.001361
1032.805916	-0.005162
1032.974266	-0.006114
1033.142598	-0.007810
1033.310911	-0.011302
1033.479207	-0.008527
1033.647484	-0.009907
1033.815743	-0.010221
1033.983983	-0.008782
1034.152206	-0.008899
1034.320410	-0.005990
1034.488596	-0.008026
1034.656764	-0.009990
1034.824914	-0.007630
1034.993045	-0.011149
1035.161158	-0.011399
1035.329253	-0.011876
1035.497330	-0.010520
1035.665388	-0.012969
1035.833428	-0.015458
1036.001450	-0.013653
1036.169454	-0.007753
1036.337440	-0.008887
1036.505407	-0.007808
1036.673356	-0.005170
1036.841287	-0.007488
1037.009200	-0.008369
1037.177094	-0.007546
1037.344970	-0.008017
1037.512828	-0.007266
1037.680668	-0.012961
1037.848489	-0.010836
1038.016293	-0.009996
1038.184078	-0.009623
1038.351845	-0.007386
1038.519593	-0.011423
1038.687324	-0.013087
1038.855036	-0.010990
1039.022730	-0.012370
1039.190406	-0.011338
1039.358063	-0.016392
1039.525702	-0.019852
1039.693323	-0.014961
1039.860926	-0.014526
1040.028511	-0.015960
1040.196077	-0.015497
1040.363625	-0.017070
1040.531155	-0.016657
1040.698667	-0.019820
1040.866161	-0.015124
1041.033636	-0.013930
1041.201093	-0.019709
1041.368532	-0.020693
1041.535952	-0.018049
1041.703355	-0.016057
1041.870739	-0.013595
1042.038105	-0.014922
1042.205452	-0.009973
1042.372782	-0.014088
1042.540093	-0.014513
1042.707386	-0.011453
1042.874661	-0.010537
1043.041918	-0.009045
1043.209156	-0.010404
1043.376376	-0.009310
1043.543578	-0.007255
1043.710762	-0.010501
1043.877927	-0.008212
1044.045074	-0.005096
1044.212203	-0.006884
1044.379314	-0.005943
1044.546407	-0.004720
1044.713481	-0.002968
1044.880537	-0.004627
1045.047575	-0.006440
1045.214595	-0.000751
1045.381596	0.000853
1045.548579	-0.000044
1045.715544	-0.003540
1045.882491	-0.006955
1046.049420	-0.006812
1046.216330	-0.010143
1046.383222	-0.009322
1046.550096	-0.009440
1046.716951	-0.010891
1046.883789	-0.010223
1047.050608	-0.008265
1047.217409	-0.009612
1047.384192	-0.006252
1047.550956	-0.008377
1047.717703	-0.008617
1047.884431	-0.008304
1048.051140	-0.007778
1048.217832	-0.005417
1048.384505	-0.008704
1048.551161	-0.009966
1048.717798	-0.008577
1048.884416	-0.009398
1049.051017	-0.006158
1049.217599	-0.004698
1049.384163	-0.008633
1049.550709	-0.006704
1049.717237	-0.013032
1049.883746	-0.012152
1050.050237	-0.013690
1050.216710	-0.012817
1050.383165	-0.017782
1050.549601	-0.018149
1050.716019	-0.016569
1050.882420	-0.014696
1051.048801	-0.016146
1051.215165	-0.011507
1051.381510	-0.015878
1051.547837	-0.013831
1051.714146	-0.012223
1051.880437	-0.005512
1052.046709	-0.009322
1052.212964	-0.009367
1052.379200	-0.010212
1052.545417	-0.011607
1052.711617	-0.011099
1052.877798	-0.009269
1053.043961	-0.012937
1053.210106	-0.015096
1053.376233	-0.018200
1053.542341	-0.016852
1053.708432	-0.017865
1053.874504	-0.017901
1054.040557	-0.015545
1054.206593	-0.019091
1054.372610	-0.016678
1054.538609	-0.014142
1054.704590	-0.010524
1054.870553	-0.009823
1055.036497	-0.010812
1055.202424	-0.011284
1055.368331	-0.007702
1055.534221	-0.007349
1055.700093	-0.003269
1055.865946	-0.002969
1056.031781	-0.007410
1056.197598	-0.012032
1056.363397	-0.010054
1056.529177	-0.013312
1056.694939	-0.015052
1056.860683	-0.017879
1057.026409	-0.018582
1057.192116	-0.022734
1057.357806	-0.022516
1057.523477	-0.019186
1057.689130	-0.017535
1057.854764	-0.019993
1058.020381	-0.019177
1058.185979	-0.016139
1058.351559	-0.017145
1058.517120	-0.019246
1058.682664	-0.014636
1058.848189	-0.012634
1059.013696	-0.014554
1059.179185	-0.017698
1059.344656	-0.013293
1059.510108	-0.008503
1059.675542	-0.007491
1059.840958	-0.005704
1060.006356	-0.003011
1060.171735	-0.002267
1060.337096	-0.000363
1060.502439	-0.001424
1060.667764	0.004720
1060.833071	-0.005246
1060.998359	-0.006382
1061.163629	-0.006287
1061.328881	-0.008145
1061.494115	-0.013765
1061.659330	-0.014066
1061.824527	-0.016451
1061.989706	-0.011867
1062.154867	-0.015160
1062.320010	-0.008373
1062.485134	-0.007637
1062.650240	-0.009054
1062.815328	-0.006031
1062.980398	0.000749
1063.145449	-0.001374
1063.310482	-0.005172
1063.475497	-0.007583
1063.640494	-0.004152
1063.805473	-0.003847
1063.970433	-0.007943
1064.135375	-0.009688
1064.300299	-0.013801
1064.465204	-0.016712
1064.630092	-0.013802
1064.794961	-0.009880
1064.959812	-0.005906
1065.124645	-0.008307
1065.289459	-0.010778
1065.454256	-0.006821
1065.619034	-0.005305
1065.783793	-0.004340
1065.948535	-0.003481
1066.113258	-0.006734
1066.277964	-0.007174
1066.442651	-0.009982
1066.607319	-0.012429
1066.771970	-0.012091
1066.936602	-0.016741
1067.101216	-0.016159
1067.265812	-0.018233
1067.430389	-0.019034
1067.594949	-0.020420
1067.759490	-0.022607
1067.924013	-0.022034
1068.088518	-0.017673
1068.253004	-0.019277
1068.417472	-0.014548
1068.581922	-0.016908
1068.746354	-0.009655
1068.910768	-0.008440
1069.075163	-0.007249
1069.239540	-0.004605
1069.403899	-0.009622
1069.568240	-0.008651
1069.732562	-0.005265
1069.896866	-0.010541
1070.061152	-0.008944
1070.225420	-0.014540
1070.389670	-0.017304
1070.553901	-0.018259
1070.718114	-0.019377
1070.882309	-0.017278
1071.046486	-0.019927
1071.210644	-0.022201
1071.374784	-0.017288
1071.538906	-0.020768
1071.703010	-0.011628
1071.867096	-0.005118
1072.031163	-0.004851
1072.195212	-0.006780
1072.359243	-0.003784
1072.523256	-0.005942
1072.687250	-0.006500
1072.851226	-0.009922
1073.015184	-0.008067
1073.179124	-0.016798
1073.343045	-0.020799
1073.506949	-0.016618
1073.670834	-0.011044
1073.834701	-0.015733
1073.998549	-0.010658
1074.162380	-0.009490
1074.326192	-0.011179
1074.489986	-0.009567
1074.653761	-0.006101
1074.817519	-0.008613
1074.981258	-0.014127
1075.144979	-0.020692
1075.308682	-0.019887
1075.472367	-0.021500
1075.636033	-0.021440
1075.799681	-0.015440
1075.963311	-0.017902
1076.126923	-0.020224
1076.290516	-0.014771
1076.454092	-0.011541
1076.617649	-0.015547
1076.781187	-0.010731
1076.944708	-0.014858
1077.108210	-0.011202
1077.271695	-0.012849
1077.435160	-0.013316
1077.598608	-0.012248
1077.762038	-0.020227
1077.925449	-0.018105
1078.088842	-0.013469
1078.252217	-0.019905
1078.415573	-0.012578
1078.578912	-0.016329
1078.742232	-0.019419
1078.905534	-0.009030
1079.068817	-0.007967
1079.232083	-0.000897
1079.395330	-0.007129
1079.558559	-0.006903
1079.721770	-0.000503
1079.884962	-0.000646
1080.048136	-0.001978
1080.211293	0.005728
1080.374430	-0.000491
1080.537550	-0.000686
1080.700651	-0.000773
1080.863735	-0.004454
1081.026800	0.001229
1081.189846	0.001997
1081.352875	-0.005653
1081.515885	-0.002298
1081.678877	-0.010743
1081.841851	-0.011673
1082.004807	-0.011390
1082.167744	-0.009447
1082.330663	-0.000012
1082.493564	0.002453
1082.656447	-0.001975
1082.819312	0.006109
1082.982158	0.003071
1083.144986	0.010470
1083.307796	0.012626
1083.470587	0.015189
1083.633361	0.010780
1083.796116	0.004353
1083.958853	0.001219
1084.121571	0.002446
1084.284272	-0.000298
1084.446954	-0.002180
1084.609618	-0.004836
1084.772264	-0.012137
1084.934892	-0.023637
1085.097501	-0.020086
1085.260092	-0.008621
1085.422665	-0.011147
1085.585220	-0.011164
1085.747756	-0.015034
1085.910274	-0.007630
1086.072774	-0.007696
1086.235256	-0.002075
1086.397720	0.007930
1086.560165	0.009188
1086.722592	0.000622
1086.885001	-0.002951
1087.047392	0.002939
1087.209764	0.005106
1087.372119	-0.000903
1087.534455	0.001651
1087.696772	0.002547
1087.859072	0.000106
1088.021353	-0.000771
1088.183616	-0.001855
1088.345861	0.005989
1088.508088	-0.006757
1088.670296	-0.004951
1088.832486	-0.001142
1088.994658	0.002547
1089.156812	0.006738
1089.318948	0.000443
1089.481065	0.003720
1089.643164	0.012883
1089.805245	0.012607
1089.967308	0.019935
1090.129352	0.018200
1090.291378	0.012121
1090.453386	0.005432
1090.615376	-0.004085
1090.777347	0.000057
1090.939301	-0.015577
1091.101236	-0.021366
1091.263153	-0.031948
1091.425051	-0.037154
1091.586932	-0.034297
1091.748794	-0.030894
1091.910638	-0.033474
1092.072463	-0.028205
1092.234271	-0.023825
1092.396060	-0.022513
1092.557831	-0.026745
1092.719584	-0.018065
1092.881319	-0.012135
1093.043035	-0.013928
1093.204733	-0.013232
1093.366413	-0.011125
1093.528075	-0.015661
1093.689718	-0.020805
1093.851343	-0.014402
1094.012950	-0.011288
1094.174539	-0.016321
1094.336110	-0.011938
1094.497662	-0.015957
1094.659196	-0.023220
1094.820712	-0.022867
1094.982210	-0.019917
1095.143689	-0.015026
1095.305151	-0.014646
1095.466594	-0.009381
1095.628018	-0.002090
1095.789425	-0.003113
1095.950813	-0.004647
1096.112183	-0.000028
1096.273535	0.003156
1096.434869	0.004968
1096.596184	0.004259
1096.757482	0.002558
1096.918761	-0.006864
1097.080021	-0.014296
1097.241264	-0.022668
1097.402488	-0.022501
1097.563694	-0.020149
1097.724882	-0.011800
1097.886052	-0.011867
1098.047203	-0.008002
1098.208336	0.000132
1098.369451	0.000530
1098.530548	-0.001082
1098.691627	0.008965
1098.852687	0.009206
1099.013729	0.010890
1099.174753	0.000318
1099.335758	0.005388
1099.496746	0.004421
1099.657715	0.011810
1099.818666	0.010636
1099.979599	0.010628
1100.140513	0.012064
1100.301409	0.023269
1100.462287	0.025091
1100.623147	0.021716
1100.783989	0.011725
1100.944812	0.015635
1101.105617	0.002858
1101.266404	0.006037
1101.427173	0.015082
1101.587923	0.016855
1101.748656	0.001258
1101.909370	0.003333
1102.070066	0.002988
1102.230743	0.016912
1102.391403	0.005767
1102.552044	0.015668
1102.712667	0.021962
1102.873271	0.016016
1103.033858	0.002254
1103.194426	0.006488
1103.354976	0.003703
1103.515508	0.007110
1103.676021	-0.001464
1103.836517	0.004648
1103.996994	-0.006482
1104.157453	-0.019251
1104.317893	-0.019745
1104.478316	-0.007332
1104.638720	-0.006580
1104.799106	-0.016910
1104.959474	-0.021420
1105.119823	-0.031958
1105.280155	-0.035497
1105.440468	-0.041296
1105.600763	-0.037253
1105.761039	-0.039233
1105.921298	-0.050763
1106.081538	-0.045414
1106.241760	-0.040348
1106.401964	-0.036640
1106.562149	-0.021862
1106.722316	-0.013925
1106.882465	-0.013580
1107.042596	-0.004882
1107.202709	-0.000918
1107.362803	0.011171
1107.522879	0.009307
1107.682937	0.012538
1107.842977	0.015357
1108.002999	0.016212
1108.163002	0.004296
1108.322987	0.011614
1108.482954	0.007438
1108.642902	0.004153
1108.802833	0.004050
1108.962745	0.010271
1109.122639	0.008723
1109.282515	0.007397
1109.442372	0.007265
1109.602211	0.013885
1109.762032	0.017601
1109.921835	0.021298
1110.081620	0.031003
1110.241386	0.013822
1110.401134	0.010211
1110.560864	0.010751
1110.720576	0.001218
1110.880269	-0.005886
1111.039945	-0.008464
1111.199602	-0.009763
1111.359240	-0.018230
1111.518861	-0.026814
1111.678463	-0.009477
1111.838047	-0.007519
1111.997613	-0.000793
1112.157161	0.011376
1112.316690	0.017223
1112.476202	0.009730
1112.635695	-0.000680
1112.795169	0.001843
1112.954626	0.018375
1113.114064	0.007662
1113.273484	-0.005469
1113.432886	-0.009440
1113.592270	-0.014099
1113.751635	-0.024710
1113.910983	-0.019293
1114.070312	-0.006856
1114.229622	-0.007459
1114.388915	-0.020943
1114.548189	-0.031456
1114.707445	-0.009270
1114.866683	0.007972
1115.025903	0.004591
1115.185104	0.001424
1115.344287	0.006749
1115.503452	0.011143
1115.662599	0.007995
1115.821727	-0.000009
1115.980838	0.013116
1116.139930	-0.013567
1116.299004	-0.035898
1116.458059	-0.045771
1116.617097	-0.036050
1116.776116	-0.032310
1116.935117	-0.047504
1117.094099	-0.039673
1117.253064	-0.041596
1117.412010	-0.026321
1117.570938	-0.013356
1117.729848	-0.019607
1117.888740	-0.005987
1118.047613	-0.008284
1118.206468	-0.021251
1118.365305	-0.015678
1118.524124	-0.024840
1118.682924	-0.014298
1118.841707	-0.023577
1119.000471	-0.028461
1119.159216	-0.027247
1119.317944	-0.032771
1119.476653	-0.019722
1119.635344	-0.013554
1119.794017	-0.014127
1119.952672	-0.010795
1120.111308	-0.016827
1120.269927	-0.019579
1120.428527	-0.004930
1120.587108	0.013748
1120.745672	0.019628
1120.904217	-0.002211
1121.062744	-0.005372
1121.221253	-0.013787
1121.379744	-0.011118
1121.538216	-0.002082
1121.696671	-0.012963
1121.855107	-0.020354
1122.013524	-0.031951
1122.171924	-0.030140
1122.330305	-0.018868
1122.488668	-0.006398
1122.647013	0.011099
1122.805340	-0.004173
1122.963648	0.006032
1123.121938	0.016519
1123.280210	0.016076
1123.438464	0.024808
1123.596700	0.023719
1123.754917	0.015861
1123.913116	0.001352
1124.071297	-0.000201
1124.229459	0.008404
1124.387604	-0.017019
1124.545730	-0.011681
1124.703838	-0.015364
1124.861928	-0.028385
1125.019999	-0.038084
1125.178052	-0.016549
1125.336088	-0.020466
1125.494104	-0.039548
1125.652103	-0.045935
1125.810083	-0.031304
1125.968045	-0.025900
1126.125989	-0.030056
1126.283915	-0.022740
1126.441823	-0.017562
1126.599712	-0.041229
1126.757583	-0.037544
1126.915436	-0.012350
1127.073270	0.005416
1127.231087	0.010175
1127.388885	-0.005429
1127.546665	-0.003222
1127.704426	-0.014590
1127.862170	-0.006620
1128.019895	-0.008952
1128.177602	-0.003996
1128.335291	-0.019457
1128.492961	-0.022419
1128.650614	-0.039782
1128.808248	-0.030285
1128.965864	-0.030650
1129.123461	-0.016306
1129.281041	-0.030606
1129.438602	-0.028447
1129.596145	-0.017209
1129.753670	-0.013936
1129.911176	-0.005753
1130.068665	0.010514
1130.226135	0.003972
1130.383587	0.021203
1130.541020	0.008344
1130.698436	0.024737
1130.855833	0.018799
1131.013212	-0.006054
1131.170573	0.010544
1131.327915	0.002029
1131.485239	-0.015785
1131.642545	-0.018051
1131.799833	-0.040081
1131.957103	-0.032967
1132.114354	-0.048082
1132.271588	-0.019890
1132.428803	-0.012328
1132.585999	-0.022055
1132.743178	-0.026748
1132.900338	-0.038360
1133.057480	-0.037300
1133.214604	-0.050183
1133.371710	-0.059721
1133.528797	-0.050467
1133.685866	-0.075093
1133.842917	-0.084096
1133.999950	-0.090911
1134.156964	-0.075254
1134.313960	-0.044491
1134.470938	-0.045884
1134.627898	-0.029097
1134.784840	-0.023394
1134.941763	-0.037404
1135.098668	-0.028942
1135.255555	-0.017981
1135.412424	-0.008982
1135.569274	-0.027132
1135.726107	-0.021908
1135.882921	-0.008112
1136.039716	-0.004918
1136.196494	-0.008846
1136.353253	0.006639
1136.509995	0.024526
1136.666717	0.039967
1136.823422	0.020938
1136.980109	0.020938
1137.136777	0.010066
1137.293427	-0.004793
1137.450059	0.002531
1137.606672	0.029816
1137.763267	0.021958
1137.919844	0.031672
1138.076403	-0.009471
1138.232944	0.000301
1138.389466	0.000535
1138.545971	-0.009325
1138.702457	-0.021844
1138.858924	-0.019794
1139.015374	-0.040891
1139.171805	-0.019447
1139.328218	-0.052711
1139.484613	-0.021462
1139.640990	-0.022039
1139.797348	-0.013278
1139.953688	-0.023648
1140.110010	0.001455
1140.266314	0.000440
1140.422600	0.012921
1140.578867	0.005589
1140.735116	0.040683
1140.891347	0.030300
1141.047559	0.037332
1141.203754	0.021294
1141.359930	0.023751
1141.516088	0.031443
1141.672228	0.037869
1141.828349	0.020867
1141.984452	0.017959
1142.140537	-0.004139
1142.296604	-0.021654
1142.452653	-0.039551
1142.608683	-0.021168
1142.764695	-0.002798
1142.920689	-0.010196
1143.076665	-0.024404
1143.232622	-0.015565
1143.388562	-0.024045
1143.544483	-0.021525
1143.700385	-0.014780
1143.856270	-0.008516
1144.012136	-0.040998
1144.167985	-0.047281
1144.323814	-0.063810
1144.479626	-0.072670
1144.635420	-0.074427
1144.791195	-0.079355
1144.946952	-0.085960
1145.102691	-0.051948
1145.258411	-0.047537
1145.414113	-0.039757
1145.569798	-0.042747
1145.725463	-0.039878
1145.881111	-0.040797
1146.036741	-0.047801
1146.192352	-0.031991
1146.347945	-0.041673
1146.503519	-0.075523
1146.659076	-0.077095
1146.814614	-0.080052
1146.970134	-0.078001
1147.125636	-0.086812
1147.281120	-0.074916
1147.436585	-0.063523
1147.592032	-0.051335
1147.747461	-0.024290
1147.902872	0.003672
1148.058265	0.008102
1148.213639	0.034986
1148.368995	0.031367
1148.524333	0.060897
1148.679653	0.052320
1148.834954	0.041665
1148.990237	-0.000319
1149.145502	-0.017861
1149.300749	-0.036062
1149.455977	-0.032997
1149.611188	-0.047857
1149.766380	-0.033976
1149.921553	-0.012807
1150.076709	-0.027108
1150.231846	-0.018419
1150.386966	-0.015351
1150.542066	-0.015150
1150.697149	0.008271
1150.852214	0.019995
1151.007260	0.006120
1151.162288	-0.022216
1151.317298	-0.057722
1151.472289	-0.050192
1151.627263	-0.055202
1151.782218	-0.044181
1151.937155	-0.033382
1152.092073	-0.060567
1152.246974	-0.082082
1152.401856	-0.056987
1152.556720	-0.023221
1152.711566	-0.008466
1152.866393	0.016404
1153.021203	0.037060
1153.175994	0.086968
1153.330767	0.096362
1153.485521	0.089502
1153.640258	0.113794
1153.794976	0.092559
1153.949676	0.077576
1154.104358	0.050918
1154.259021	0.045868
1154.413667	0.052907
1154.568294	0.002973
1154.722903	-0.038255
1154.877493	-0.022028
1155.032066	-0.027624
1155.186620	0.008278
1155.341156	0.025580
1155.495674	0.046585
1155.650173	0.020746
1155.804654	-0.008448
1155.959118	-0.001968
1156.113562	-0.005156
1156.267989	-0.000413
1156.422397	-0.000335
1156.576788	-0.028067
1156.731160	-0.072666
1156.885513	-0.100669
1157.039849	-0.114789
1157.194166	-0.098237
1157.348465	-0.100642
1157.502746	-0.035953
1157.657009	-0.042285
1157.811253	-0.054412
1157.965479	-0.093036
1158.119687	-0.061864
1158.273877	-0.037055
1158.428048	-0.018245
1158.582201	-0.043365
1158.736337	-0.059191
1158.890453	-0.076339
1159.044552	-0.084123
1159.198632	-0.063888
1159.352694	-0.020487
1159.506738	-0.034149
1159.660764	-0.033653
1159.814771	-0.029469
1159.968761	-0.044148
1160.122732	-0.029433
1160.276685	-0.041545
1160.430619	-0.042864
1160.584535	-0.050400
1160.738434	-0.050095
1160.892313	-0.064641
1161.046175	-0.027489
1161.200019	-0.009233
1161.353844	0.017313
1161.507651	0.023948
1161.661440	0.008190
1161.815210	0.040174
1161.968962	0.023969
1162.122697	0.028679
1162.276412	0.024416
1162.430110	-0.026549
1162.583789	-0.036763
1162.737451	0.003841
1162.891094	-0.010557
1163.044718	0.008938
1163.198325	0.000341
1163.351913	0.019425
1163.505483	-0.039417
1163.659035	-0.063760
1163.812569	-0.045687
1163.966084	-0.062831
1164.119581	-0.095233
1164.273060	-0.088144
1164.426521	-0.098149
1164.579964	-0.122446
1164.733388	-0.116926
1164.886794	-0.067948
1165.040182	-0.035214
1165.193551	-0.041641
1165.346903	-0.041449
1165.500236	-0.030463
1165.653551	-0.046041
1165.806848	-0.054273
1165.960126	-0.047104
1166.113386	-0.080516
1166.266628	-0.089645
1166.419852	-0.074668
1166.573058	-0.065180
1166.726245	-0.069546
1166.879414	-0.083205
1167.032565	-0.055522
1167.185698	-0.039335
1167.338812	-0.023098
1167.491909	-0.015771
1167.644987	0.004378
1167.798046	0.018468
1167.951088	-0.030247
1168.104111	-0.021903
1168.257117	-0.015210
1168.410103	-0.056318
1168.563072	-0.051597
1168.716023	-0.050292
1168.868955	-0.005212
1169.021869	-0.005205
1169.174765	-0.031748
1169.327642	0.016984
1169.480501	0.020089
1169.633343	0.015936
1169.786165	0.072844
1169.938970	0.033518
1170.091757	0.001965
1170.244525	-0.040285
1170.397275	-0.083836
1170.550007	-0.078180
1170.702720	-0.092023
1170.855415	-0.099483
1171.008092	-0.122937
1171.160751	-0.158341
1171.313392	-0.159467
1171.466014	-0.201326
1171.618619	-0.202801
1171.771205	-0.202801
1171.923772	-0.202801
