sample name	sample
index	743
start time	 03-25-2021  03:53:28 PM
880	0.068754
Peak Time (s)	91.035
Peak Height 	0.06875
calc peak height	90,93
Baseline Time (s)	9.535
Baseline Value 	0.01105
subtract baseline	10,4
Abs	0.044878
Peak Time (s)	90.535
Peak Height 	0.04488
calc peak height	90,93
Baseline Time (s)	10.536
Baseline Value 	0.00265
subtract baseline	10,3
PK_550	0.022704
Peak Time (s)	90.035
Peak Height 	0.0227
calc peak height	90,93
Baseline Time (s)	9.035
Baseline Value 	0.001843
subtract baseline	10,2
PK_880	0.044710
Peak Time (s)	92.036
Peak Height 	0.04471
calc peak height	90,93
Baseline Time (s)	10.036
Baseline Value 	0.002238
subtract baseline	10,1


Time (s)	A880-A510	A880-A775	A880-A975	A880	I510	I775	I975	I880	
0.035500	-0.001384	-0.002082	-0.003908	-0.011180	7570.346319	47152.122778	4049.170700	25145.405521
0.536000	-0.000378	-0.001122	-0.007013	-0.009786	7566.159546	47107.863323	4037.002527	25074.062424
1.036000	0.000062	-0.000167	-0.001408	-0.008667	7558.873380	47091.229189	4049.137856	25017.008587
1.539500	-0.001524	-0.001327	-0.002980	-0.006864	7522.640038	46790.966748	4039.997757	24925.340308
2.037000	0.000495	-0.000265	0.001522	-0.009049	7567.628805	47120.132595	4058.174586	25036.464889
2.537000	-0.000290	-0.001013	0.001604	-0.008617	7554.557255	47000.149659	4057.213937	25014.425051
3.037500	0.001178	-0.000761	-0.001715	-0.010338	7588.888372	47200.940640	4052.851968	25102.310901
3.535000	-0.002795	-0.001123	-0.003320	-0.003216	7470.535268	46444.542115	4029.290776	24741.030919
4.038000	0.000008	-0.000485	0.000482	-0.006949	7539.887046	46884.607154	4049.604212	24929.630106
4.535500	0.001287	-0.000026	-0.002819	-0.006107	7544.565928	46845.940165	4038.391730	24886.956105
5.036000	0.001626	-0.000949	-0.002142	-0.005701	7543.838240	46711.658823	4039.119838	24866.382486
5.536000	0.000434	0.000353	0.001603	-0.004290	7516.071184	46700.686625	4045.428943	24795.101390
6.036500	0.002260	-0.000700	-0.000902	-0.004426	7536.983558	46608.402930	4039.025541	24801.945907
6.536500	-0.000098	0.000298	-0.000366	-0.003394	7500.903431	46604.976233	4037.688789	24749.941249
7.037000	0.001176	-0.000247	-0.000788	-0.002938	7509.592797	46504.439842	4035.328953	24727.032446
7.537000	0.000259	-0.000304	-0.001873	-0.002982	7500.326291	46503.151722	4032.537241	24729.246984
8.037500	0.001547	0.000575	-0.001093	-0.001060	7493.606297	46398.583448	4029.478750	24632.780789
8.535000	0.000283	-0.000722	-0.004546	-0.001453	7484.400515	46308.180259	4021.327841	24652.472286
9.035000	-0.000281	0.000000	-0.004061	-0.001052	7474.213183	46340.238375	4021.549709	24632.377767
9.535000	0.002294	0.000546	0.000764	0.000000	7490.298797	46289.691528	4031.611244	24579.797040
10.036000	0.000000	-0.000279	0.000164	-0.000445	7470.786312	46251.803603	4031.196581	24602.041635
10.536000	-0.000556	0.000548	0.000000	0.000387	7456.185027	46251.320842	4028.532613	24560.476733
11.036000	0.001622	0.000908	-0.002732	0.001154	7471.027277	46210.771753	4019.225781	24522.264499
11.537000	-0.000954	-0.000533	0.000645	0.000817	7447.500257	46100.829587	4029.106915	24539.026719
12.037000	0.000512	0.000972	0.001962	0.002184	7448.537785	46114.592150	4028.973405	24471.001966
12.534500	-0.000687	0.001228	0.003253	0.002851	7429.027622	46073.687394	4030.641196	24437.886774
13.035000	-0.003169	0.000357	-0.000690	0.008718	7342.722668	45409.447979	4004.687100	24148.743746
13.537500	-0.002178	0.000306	-0.000029	0.003363	7408.177700	45931.504573	4020.536025	24412.506396
14.035500	-0.003115	0.000227	-0.002573	0.005983	7371.370726	45665.024583	4006.917333	24283.055797
14.535500	-0.001077	0.000301	0.000879	0.005585	7396.549767	45711.551962	4017.054814	24302.680761
15.036000	-0.003049	0.000365	-0.003589	0.008824	7342.871931	45399.882993	3996.852201	24143.562598
15.536000	-0.003599	-0.000113	0.002701	0.004140	7385.387854	45813.152624	4025.725425	24373.999281
16.036500	-0.000241	-0.000056	-0.001132	0.004570	7415.757599	45776.417449	4014.422554	24352.747616
16.537000	-0.001136	0.000459	-0.003683	0.005454	7397.286002	45739.979510	4005.395309	24309.117078
17.037000	-0.003662	0.001339	-0.004738	0.008897	7335.853905	45488.102304	3993.681615	24139.973499
17.540500	-0.004360	-0.000505	0.000198	0.006878	7349.369290	45505.182248	4011.843484	24238.987439
18.035000	-0.001908	-0.000212	0.001760	0.006800	7375.399441	45541.700186	4016.171714	24242.857970
18.538000	-0.002416	0.000331	0.000894	0.007387	7364.113513	45537.316555	4012.337554	24213.984689
19.035500	-0.003308	0.000588	-0.000793	0.008390	7344.667928	45464.200972	4005.276138	24164.828882
19.536000	-0.001922	0.000487	0.000042	0.007701	7365.969591	45521.795600	4009.269732	24198.591018
20.036000	-0.003286	0.000130	-0.000992	0.007547	7353.524245	45501.850986	4006.961590	24206.128743
20.536500	-0.002167	0.000620	0.000380	0.008217	7358.142304	45484.298333	4008.802792	24173.285207
21.036500	-0.003249	0.000920	-0.003839	0.009323	7335.718772	45405.356494	3994.908594	24119.170911
21.537000	-0.004137	0.000257	-0.002282	0.008170	7338.419686	45453.283761	4001.957461	24175.565170
22.037000	-0.002289	0.000082	-0.003731	0.008324	7355.787745	45421.077548	3997.781056	24168.042637
22.534500	-0.003703	0.000618	-0.000774	0.009102	7333.332690	45397.437913	4003.460257	24129.942454
23.036000	-0.004005	0.000144	-0.000119	0.010070	7320.376756	45256.647144	4002.644772	24082.653720
23.535500	-0.002595	0.000227	0.002824	0.009372	7341.909800	45332.831852	4012.194197	24116.769334
24.037000	-0.005744	0.000082	-0.000198	0.009537	7308.107847	45302.489758	4003.828116	24108.668198
24.536000	-0.002148	0.000297	0.002009	0.009702	7343.102668	45307.419817	4009.180479	24100.625091
25.036500	-0.002526	0.000485	-0.000472	0.010924	7326.760427	45206.745399	3999.496873	24041.048331
25.536500	-0.001831	0.000171	-0.001717	0.010209	7341.163188	45245.760054	3998.117430	24075.887205
26.037000	-0.002002	0.000265	-0.002513	0.010105	7340.474583	45265.069689	3996.320416	24080.962496
26.537000	-0.002266	0.000468	-0.000587	0.010252	7336.269430	45270.512850	4000.948511	24073.792868
27.037500	-0.001389	0.000862	-0.002263	0.007183	7376.792760	45609.468428	4004.587174	24224.017421
27.535000	-0.004970	-0.000000	-0.006170	0.012807	7282.834337	44976.735812	3979.925729	23949.510577
28.035500	-0.002593	-0.000093	-0.003851	0.009732	7338.242507	45266.462143	3993.814522	24099.161247
28.535500	-0.003425	0.000158	-0.001296	0.009737	7329.694647	45290.445928	4000.443768	24098.927612
29.035500	-0.003805	0.000618	-0.001808	0.010165	7321.455590	45293.628342	3997.995643	24078.030929
29.536500	-0.005937	0.000628	0.000823	0.012151	7279.696258	45101.294550	3999.674554	23981.352454
30.036500	-0.003239	0.000196	-0.001897	0.010246	7326.393817	45244.595257	3997.553267	24074.078302
30.537000	-0.003017	0.000799	-0.001917	0.013134	7299.286709	45022.550631	3990.018301	23933.697128
31.036500	-0.002546	0.000744	-0.001284	0.011857	7317.044502	45141.147193	3994.963300	23995.656035
31.540500	-0.001545	0.001199	-0.001202	0.014691	7298.419986	44910.457401	3987.845837	23858.348917
32.035000	-0.002295	0.000413	0.000336	0.011085	7327.473737	45184.060941	4001.183220	24033.204987
32.535000	-0.003052	0.000841	-0.002678	0.011447	7316.071650	45190.421540	3992.413596	24015.600153
33.035000	-0.005834	0.000129	-0.004292	0.015904	7243.014435	44690.426071	3976.810141	23799.888633
33.536000	-0.004434	0.000608	-0.001841	0.013830	7277.918740	44936.559291	3988.418126	23899.975180
34.035000	-0.003805	0.000044	0.000943	0.012770	7294.983184	44984.557457	3998.374312	23951.298868
34.536000	-0.002704	-0.000219	-0.005365	0.012608	7307.797612	44974.883010	3982.498052	23959.180086
35.036500	-0.004651	0.000812	0.000678	0.013830	7275.720508	44956.278134	3994.930611	23899.956170
35.536500	-0.007644	-0.000140	-0.001193	0.012851	7255.469663	44959.030778	3992.623140	23947.410886
36.037500	-0.005349	0.000191	-0.004447	0.013126	7275.788988	44964.388446	3983.523235	23934.047420
36.537500	-0.003238	0.000694	-0.003511	0.014062	7287.651216	44922.440769	3983.522409	23888.740246
37.035000	-0.005773	0.000283	0.001081	0.014385	7258.851030	44851.566615	3994.538275	23873.157247
37.535500	-0.003615	0.001021	-0.004509	0.014094	7283.525660	44951.018172	3980.884123	23887.228935
38.035500	-0.003528	0.000821	-0.000405	0.013727	7288.116348	44967.243777	3992.395935	23904.979005
38.536000	-0.004341	0.000369	-0.001286	0.013456	7282.636456	44949.708024	3990.817329	23918.083838
39.036000	-0.005176	-0.000172	-0.003207	0.014277	7265.941637	44818.049999	3983.754192	23878.369679
39.536500	-0.005645	0.000166	0.002006	0.013963	7264.387988	44881.066528	3998.038024	23893.562441
40.037000	-0.005503	0.000600	-0.000718	0.014587	7259.533904	44862.714101	3989.362989	23863.401677
40.537000	-0.003934	-0.000069	-0.001281	0.013829	7282.978511	44871.309390	3989.865924	23900.028964
41.037000	-0.005173	0.000025	0.000576	0.014374	7264.994230	44827.718092	3993.259808	23873.689467
41.535000	-0.004626	0.000307	0.003531	0.014358	7270.662960	44856.468164	4000.980132	23874.452131
42.035000	-0.003374	0.000718	-0.001842	0.014575	7281.098223	44875.218280	3986.496380	23863.974927
42.535500	-0.004577	0.000386	-0.003044	0.014726	7267.454128	44828.604237	3983.019922	23856.681278
43.035500	-0.005926	0.000274	-0.005990	0.015804	7243.086670	44713.958150	3972.740650	23804.689947
43.538500	-0.001704	0.000180	0.003677	0.009666	7348.025825	45299.552762	4013.667025	24102.399397
44.036000	-0.004432	0.001346	0.001299	0.013988	7276.348984	44992.707521	3996.134835	23892.332684
44.536500	-0.001854	-0.000057	0.000342	0.013388	7308.515813	44915.037176	3995.209956	23921.385639
45.037000	-0.008039	0.000388	-0.004542	0.018982	7190.462271	44420.217001	3968.350812	23652.224122
45.537000	-0.004131	0.001131	-0.001356	0.016407	7255.034770	44738.411456	3983.037876	23775.689186
46.035000	-0.002058	0.000305	0.003596	0.013195	7308.403903	44968.799983	4004.186421	23930.741257
46.537000	-0.004211	0.000122	-0.000196	0.013293	7285.594590	44941.489880	3994.058252	23925.963881
47.035000	-0.006707	0.000847	-0.001428	0.017770	7215.687905	44580.169237	3979.360515	23710.241049
47.538500	-0.005936	0.000747	0.000826	0.014735	7253.702224	44862.580616	3992.970032	23856.226305
48.036000	-0.003663	0.000222	0.005370	0.013618	7287.844848	44919.801596	4007.725468	23910.234239
48.535500	-0.003499	-0.000225	0.003171	0.013753	7288.134876	44863.488002	4001.616663	23903.693027
49.036500	-0.006811	0.000065	-0.000456	0.017721	7215.147031	44509.923908	3981.974822	23712.604904
49.536500	-0.001715	0.000992	0.000780	0.016730	7276.088008	44693.929710	3987.699330	23760.133079
50.037000	-0.003593	0.000052	0.000793	0.012964	7295.177359	44966.682536	3997.482415	23941.933054
50.537500	0.005318	0.000441	0.004629	-0.018347	7722.006897	48149.911416	4092.644437	25515.723014
51.035000	-0.015055	-0.004566	0.003861	0.030444	7011.606393	42881.024157	3960.630264	23111.429902
51.535000	-0.022002	0.001002	0.003117	0.207743	5588.920452	29831.889555	3593.328803	16333.604515
52.035500	-0.063043	-0.015654	-0.004002	-0.004926	6893.770545	45178.541352	4032.039866	24827.212157
52.535500	-0.061636	-0.062530	-0.004905	-0.213259	9375.339693	64204.353551	4744.397607	38331.581028
53.036000	-0.032607	-0.074516	0.011139	-0.231893	10126.848474	65149.422010	4900.325423	39885.279113
53.536500	-0.032289	-0.031774	0.014539	-0.161283	9046.400651	61282.208706	4609.013735	34333.940640
54.036500	-0.009779	-0.023369	0.007264	-0.154108	9267.444282	61447.747530	4552.055798	33818.765702
54.536500	-0.021702	-0.019651	0.011218	-0.139506	8889.978680	59999.325405	4511.280148	32796.123499
55.037000	0.005344	-0.008685	0.006759	-0.123388	9042.701144	59326.249733	4435.262282	31706.602530
55.534500	0.016330	-0.002096	0.006876	-0.109159	8996.976833	58342.715207	4385.170419	30777.753319
56.034500	0.030231	0.000077	0.010229	-0.114996	9280.635203	59374.426171	4417.607410	31155.121567
56.535500	0.030623	0.005690	0.013021	-0.087527	8894.766260	56603.961273	4332.038621	29422.735017
57.035500	0.029292	0.009584	0.012936	-0.063416	8553.474265	54162.482302	4252.730997	27989.862263
57.535500	0.029304	0.013012	0.023030	-0.040709	8265.453870	51937.757030	4213.108325	26711.234251
58.036000	0.026749	0.013879	0.022666	-0.027482	8073.844039	50562.591590	4171.678344	25996.646379
58.536000	0.026587	0.015369	0.025627	-0.010619	7874.833711	48905.981026	4130.628530	25116.693532
59.037000	0.028931	0.016915	0.027421	-0.001917	7802.470784	48154.483794	4110.708188	24675.745548
59.537000	0.028930	0.017488	0.029963	0.009150	7679.038293	47074.779919	4086.565084	24127.629856
60.037000	0.030884	0.017697	0.033308	0.019839	7583.794756	46022.199946	4066.139690	23611.278671
60.535000	0.026856	0.017485	0.032284	0.025600	7479.336543	45433.563655	4047.574346	23338.252336
61.035000	0.034955	0.020353	0.035459	0.018813	7639.133211	46389.077312	4074.931330	23660.274057
61.535000	0.043787	0.024917	0.030484	0.025251	7665.342418	46201.961387	4043.640949	23354.663033
62.035500	0.046949	0.026440	0.032196	0.042112	7517.271118	44700.219190	4003.355529	22575.369441
62.536000	0.045364	0.025784	0.031521	0.039839	7524.602640	44856.149723	4007.542142	22678.693962
63.046000	0.044774	0.026422	0.035181	0.044844	7465.368181	44436.672387	4004.019550	22451.959965
63.536500	0.045716	0.025594	0.035035	0.042623	7498.755696	44569.942851	4009.457191	22552.230158
64.037000	0.041872	0.024211	0.028423	0.044011	7443.651931	44305.062902	3988.631645	22489.495924
64.537500	0.040395	0.023659	0.033806	0.045815	7409.420619	44081.183877	3997.901880	22408.242014
65.037500	0.035868	0.024898	0.037803	0.053657	7282.711952	43460.273734	3987.946657	22058.969826
65.534500	0.038020	0.024662	0.036660	0.049833	7343.483212	43796.541506	3994.877868	22228.496997
66.035000	0.038347	0.024366	0.037593	0.051190	7332.949083	43641.254630	3993.778683	22168.168251
66.536000	0.035938	0.024352	0.036229	0.051665	7303.588555	43595.421391	3989.023775	22147.109679
67.036000	0.035553	0.023237	0.034073	0.057204	7243.876267	42977.030541	3969.345406	21903.047346
67.536000	0.036386	0.023846	0.038688	0.052980	7294.800669	43425.304751	3991.979706	22088.875959
68.036500	0.035034	0.022679	0.035702	0.051918	7291.860668	43415.488983	3987.014119	22135.898866
68.536500	0.037683	0.023657	0.039919	0.052607	7311.739467	43442.447904	3996.138071	22105.381622
69.036500	0.033788	0.023060	0.038779	0.057431	7223.981904	42939.863178	3980.756552	21893.113338
69.537000	0.036191	0.022926	0.041206	0.052815	7294.494336	43354.938590	3998.941333	22096.186151
70.034500	0.038594	0.023402	0.041304	0.052589	7321.197579	43420.424974	3999.786426	22106.200598
70.535000	0.038130	0.022891	0.040330	0.051419	7328.401776	43481.853748	4000.298759	22158.037428
71.035000	0.036588	0.023350	0.041770	0.056616	7260.154178	43041.784516	3990.546023	21928.807942
71.535500	0.038099	0.023782	0.043788	0.051651	7325.718008	43543.465976	4008.734643	22147.743535
72.035500	0.038203	0.022740	0.042368	0.049958	7344.085106	43604.345246	4009.452164	22222.956957
72.536000	0.041942	0.023733	0.042266	0.050256	7379.459383	43669.554974	4008.400678	22209.693384
73.036000	0.035691	0.022331	0.036075	0.053925	7278.219192	43196.524873	3982.813907	22047.151093
73.536500	0.041905	0.024108	0.039538	0.050479	7376.771218	43683.707407	4000.681180	22199.755618
74.037000	0.040963	0.023816	0.043095	0.048980	7382.523251	43797.134040	4013.939828	22266.520444
74.535000	0.042786	0.024097	0.040893	0.049532	7395.676670	43771.688368	4006.701404	22241.932965
75.038000	0.042122	0.024049	0.041980	0.049119	7393.077588	43806.043687	4010.639416	22260.352322
75.535000	0.045637	0.024466	0.044716	0.049938	7421.077852	43768.280476	4015.692448	22223.858625
76.035000	0.045363	0.024970	0.040643	0.049572	7422.024468	43850.069571	4005.938214	22240.127040
76.535500	0.046059	0.025399	0.040979	0.050709	7417.436597	43783.499011	4003.844486	22189.557622
77.036000	0.043483	0.024382	0.038408	0.054766	7348.920414	43308.980234	3986.650323	22010.114437
77.536000	0.045381	0.024654	0.040603	0.050934	7408.048448	43692.339134	4002.274366	22179.553592
78.036500	0.045787	0.025009	0.041760	0.051149	7410.025033	43705.396479	4004.734283	22169.982234
78.537000	0.046220	0.024476	0.044132	0.051384	7412.082351	43633.349087	4010.339930	22159.552077
79.037500	0.044318	0.024922	0.041356	0.056564	7339.051521	43192.109308	3989.612348	21931.101560
79.537000	0.049070	0.025819	0.042214	0.052914	7425.838801	43615.869493	4001.310275	22091.811345
80.035000	0.046541	0.024166	0.041792	0.052147	7407.501299	43532.965077	4002.211708	22125.758840
80.535500	0.047361	0.024533	0.041239	0.052656	7410.723174	43519.652975	3999.440068	22103.195541
81.035500	0.043964	0.024900	0.042601	0.058099	7319.780347	43048.012563	3988.867044	21863.943403
81.536000	0.046779	0.023704	0.041150	0.053589	7395.007828	43355.363288	3996.784654	22061.987607
82.036000	0.047268	0.024425	0.041078	0.054144	7394.333106	43370.835482	3995.158108	22037.521499
82.536000	0.045816	0.024531	0.040560	0.055015	7370.338040	43299.613278	3991.559036	21999.152663
83.036000	0.042423	0.023946	0.039688	0.059682	7288.065012	42814.287300	3977.325022	21794.875724
83.537000	0.046239	0.023970	0.045008	0.056618	7358.196703	43098.958254	3998.940214	21928.745137
84.037000	0.046324	0.023523	0.038969	0.056666	7358.568897	43053.170278	3983.205796	21926.630918
84.534500	0.044105	0.023408	0.046087	0.057083	7331.571921	43004.043296	4000.538874	21908.364575
85.035500	0.041181	0.023314	0.041990	0.062460	7247.614115	42502.437166	3976.111623	21674.370801
85.535500	0.044614	0.023478	0.040809	0.058829	7318.957597	42849.732727	3982.379638	21832.072344
86.035500	0.046439	0.023767	0.042833	0.060062	7324.989826	42763.032708	3984.408901	21778.368946
86.536000	0.043804	0.023472	0.039646	0.060463	7294.131036	42699.181212	3975.225664	21760.903171
87.036500	0.041986	0.023162	0.041362	0.065223	7228.041303	42237.672977	3967.499109	21555.238972
87.536500	0.046017	0.022868	0.041472	0.062074	7300.234116	42496.825291	3975.775713	21691.043951
88.037000	0.043503	0.022442	0.036155	0.062129	7274.273434	42453.060645	3962.163942	21688.673871
88.537000	0.043998	0.022469	0.039969	0.063273	7267.736053	42351.536210	3968.908590	21639.231668
89.037500	0.042855	0.022336	0.042827	0.066141	7227.548453	42080.058100	3968.882218	21515.829951
89.535000	0.043514	0.022395	0.042985	0.064632	7249.222113	42221.738531	3973.114585	21580.657736
90.035000	0.042771	0.022704	0.043895	0.065314	7234.958832	42187.873956	3973.692279	21551.299794
90.535500	0.041347	0.021620	0.044878	0.065324	7220.659976	42089.200475	3976.172112	21550.887148
91.035500	0.041283	0.021712	0.039285	0.068754	7186.019908	41789.339129	3953.398071	21404.098766
91.536500	0.042129	0.021458	0.040370	0.067610	7205.707645	41869.027806	3958.977570	21452.900645
92.036000	0.044710	0.021724	0.042485	0.068472	7222.802228	41815.661608	3962.129377	21416.098952
92.536500	0.042798	0.020675	0.043444	0.068128	7207.216183	41752.531864	3965.417706	21430.795687
93.075500	0.038858	0.020896	0.039075	0.075009	7101.132185	41161.741871	3937.366664	21139.344812
93.537000	0.042017	0.020569	0.040588	0.069722	7183.707099	41600.873890	3954.233920	21362.877626
94.037500	0.041613	0.020790	0.043488	0.070378	7173.253456	41562.142135	3959.859552	21334.977394
94.534500	0.042517	0.020618	0.040056	0.071049	7175.546502	41487.184077	3949.596289	21306.493601
95.035500	0.043256	0.021516	0.044393	0.072337	7170.146850	41452.661399	3957.214433	21251.992375
95.535500	0.043621	0.020793	0.045037	0.072935	7167.857015	41335.679620	3957.330591	21226.723683
