sample name	sample
index	953
start time	 04-12-2021  03:43:05 PM


Wavelength (nm)	Absorbance
494.344910	-0.006185
494.563924	-0.006185
494.782919	-0.006185
495.001897	-0.037234
495.220856	0.085397
495.439797	0.082600
495.658719	0.059955
495.877624	0.087806
496.096510	0.141137
496.315378	0.146742
496.534227	0.106690
496.753059	0.083683
496.971872	0.099243
497.190667	0.007695
497.409444	0.004130
497.628203	0.004675
497.846943	0.002811
498.065665	0.000917
498.284369	0.000815
498.503055	0.001189
498.721723	-0.000026
498.940372	-0.000748
499.159003	-0.000472
499.377616	-0.001210
499.596210	-0.001201
499.814787	-0.001002
500.033345	-0.001184
500.251885	-0.001697
500.470406	-0.001796
500.688910	-0.000984
500.907395	-0.001092
501.125862	-0.001891
501.344311	-0.000733
501.562742	-0.001117
501.781154	-0.001377
501.999548	-0.001308
502.217924	-0.000996
502.436282	-0.001585
502.654621	-0.002140
502.872942	-0.001795
503.091245	-0.000849
503.309530	-0.001412
503.527797	-0.001668
503.746045	-0.001578
503.964275	-0.001787
504.182487	-0.002047
504.400681	-0.001949
504.618856	-0.001732
504.837013	-0.001082
505.055152	-0.001646
505.273273	-0.001232
505.491376	-0.000579
505.709460	-0.000322
505.927526	-0.000252
506.145574	0.000024
506.363604	0.000865
506.581615	0.001671
506.799608	0.001803
507.017583	0.002038
507.235540	0.001398
507.453478	0.000508
507.671399	0.000419
507.889301	0.000526
508.107185	0.000471
508.325050	-0.000144
508.542898	-0.000229
508.760727	-0.000773
508.978538	-0.001036
509.196330	-0.000397
509.414105	0.000109
509.631861	0.000603
509.849599	0.001243
510.067319	0.001207
510.285021	0.000873
510.502704	0.000785
510.720369	0.000574
510.938016	0.001283
511.155645	0.000801
511.373255	0.000911
511.590848	-0.000688
511.808422	-0.001584
512.025977	-0.001222
512.243515	-0.000954
512.461034	-0.001817
512.678536	-0.001429
512.896018	-0.001893
513.113483	-0.001593
513.330930	-0.001477
513.548358	-0.000058
513.765768	0.000158
513.983160	0.000212
514.200533	0.001235
514.417889	0.001520
514.635226	0.000912
514.852545	0.000879
515.069845	0.001081
515.287128	0.001285
515.504392	0.001343
515.721638	0.001266
515.938866	0.000407
516.156075	-0.000300
516.373267	0.000200
516.590440	0.000930
516.807594	0.000624
517.024731	0.000199
517.241850	-0.000015
517.458950	-0.000523
517.676032	-0.000232
517.893095	0.000741
518.110141	0.000302
518.327168	0.000153
518.544177	0.000122
518.761168	0.000662
518.978141	0.000400
519.195095	0.000729
519.412031	0.000641
519.628949	0.000562
519.845849	0.000414
520.062731	0.001276
520.279594	0.001646
520.496439	0.001676
520.713266	0.001659
520.930074	0.002353
521.146865	0.002193
521.363637	0.002251
521.580391	0.002613
521.797127	0.002423
522.013844	0.001842
522.230543	0.001204
522.447224	0.001115
522.663887	0.001674
522.880532	0.001633
523.097158	0.001253
523.313766	0.001646
523.530356	0.001436
523.746928	0.001161
523.963481	0.001401
524.180017	0.001733
524.396534	0.001396
524.613032	0.000664
524.829513	0.000033
525.045975	0.000172
525.262420	-0.000521
525.478845	-0.000400
525.695253	-0.000416
525.911643	-0.000543
526.128014	-0.000464
526.344367	-0.000292
526.560702	0.000113
526.777018	0.000251
526.993316	0.000414
527.209597	0.001057
527.425858	0.001247
527.642102	0.001545
527.858328	0.001478
528.074535	0.001246
528.290724	0.001196
528.506894	0.001151
528.723047	0.001960
528.939181	0.001685
529.155297	0.001571
529.371395	0.001502
529.587475	0.001691
529.803536	0.002206
530.019579	0.002489
530.235604	0.002973
530.451611	0.002746
530.667600	0.002617
530.883570	0.003285
531.099522	0.003204
531.315456	0.003324
531.531372	0.003676
531.747269	0.003569
531.963148	0.004236
532.179009	0.003778
532.394852	0.003771
532.610676	0.003659
532.826482	0.003413
533.042271	0.003763
533.258040	0.003717
533.473792	0.003881
533.689525	0.004195
533.905240	0.003552
534.120937	0.004154
534.336616	0.004504
534.552277	0.004564
534.767919	0.004652
534.983543	0.004305
535.199149	0.004226
535.414736	0.004001
535.630306	0.003676
535.845857	0.004120
536.061390	0.003959
536.276904	0.004141
536.492401	0.004287
536.707879	0.004639
536.923339	0.004823
537.138781	0.005315
537.354204	0.005362
537.569610	0.005316
537.784997	0.005274
538.000366	0.005159
538.215716	0.004820
538.431049	0.004775
538.646363	0.004282
538.861659	0.004452
539.076937	0.003870
539.292196	0.004044
539.507438	0.004173
539.722661	0.004313
539.937866	0.004262
540.153052	0.004568
540.368221	0.004384
540.583371	0.004340
540.798503	0.004065
541.013617	0.004911
541.228712	0.004721
541.443789	0.004586
541.658848	0.004308
541.873889	0.004484
542.088912	0.004427
542.303916	0.004681
542.518902	0.005285
542.733870	0.005446
542.948820	0.005044
543.163752	0.005306
543.378665	0.005950
543.593560	0.005938
543.808437	0.005879
544.023295	0.006376
544.238136	0.006593
544.452958	0.006304
544.667762	0.006558
544.882548	0.006591
545.097315	0.006494
545.312064	0.006424
545.526795	0.006333
545.741508	0.006557
545.956203	0.006224
546.170879	0.006038
546.385537	0.006159
546.600177	0.006157
546.814799	0.006033
547.029402	0.005862
547.243988	0.005537
547.458555	0.005745
547.673103	0.005582
547.887634	0.005456
548.102146	0.005476
548.316640	0.005394
548.531116	0.005503
548.745574	0.005819
548.960013	0.006317
549.174435	0.006298
549.388838	0.006286
549.603222	0.006172
549.817589	0.006481
550.031937	0.006382
550.246267	0.006537
550.460579	0.006435
550.674873	0.006368
550.889148	0.006060
551.103405	0.006262
551.317644	0.006484
551.531865	0.006909
551.746068	0.006676
551.960252	0.006944
552.174418	0.006683
552.388566	0.006833
552.602696	0.006762
552.816807	0.006588
553.030900	0.006643
553.244975	0.006174
553.459032	0.006168
553.673070	0.006193
553.887091	0.006124
554.101093	0.006210
554.315077	0.006190
554.529042	0.006499
554.742990	0.006663
554.956919	0.006696
555.170830	0.007206
555.384722	0.007028
555.598597	0.007299
555.812453	0.007141
556.026291	0.007736
556.240111	0.007557
556.453913	0.007282
556.667696	0.007360
556.881461	0.007343
557.095208	0.007545
557.308937	0.007688
557.522647	0.007388
557.736339	0.007392
557.950013	0.007056
558.163669	0.007231
558.377307	0.007146
558.590926	0.007452
558.804527	0.007644
559.018110	0.007267
559.231675	0.007535
559.445221	0.007607
559.658749	0.007494
559.872259	0.007669
560.085751	0.007680
560.299225	0.007905
560.512680	0.007892
560.726117	0.007797
560.939536	0.007795
561.152937	0.007794
561.366319	0.007898
561.579683	0.008090
561.793029	0.008150
562.006357	0.008110
562.219667	0.007660
562.432958	0.007512
562.646231	0.007195
562.859486	0.007669
563.072723	0.007591
563.285941	0.007680
563.499141	0.007864
563.712323	0.007922
563.925487	0.007719
564.138632	0.008287
564.351760	0.007982
564.564869	0.008101
564.777960	0.007665
564.991032	0.007343
565.204087	0.007508
565.417123	0.007629
565.630141	0.007318
565.843140	0.007419
566.056122	0.007146
566.269085	0.007500
566.482030	0.007430
566.694957	0.007568
566.907866	0.007880
567.120756	0.007581
567.333628	0.007713
567.546482	0.007483
567.759318	0.007804
567.972135	0.007948
568.184935	0.008040
568.397716	0.008131
568.610478	0.008107
568.823223	0.007835
569.035949	0.008151
569.248657	0.008024
569.461347	0.008251
569.674019	0.008320
569.886672	0.008251
570.099308	0.008222
570.311925	0.008144
570.524523	0.008265
570.737104	0.008624
570.949666	0.008461
571.162210	0.008165
571.374736	0.008404
571.587244	0.008278
571.799733	0.008068
572.012205	0.007856
572.224658	0.007853
572.437092	0.007761
572.649509	0.007716
572.861907	0.007584
573.074287	0.007755
573.286649	0.007208
573.498993	0.007070
573.711318	0.007331
573.923625	0.007473
574.135914	0.007642
574.348185	0.007882
574.560438	0.007915
574.772672	0.008081
574.984888	0.008192
575.197086	0.008420
575.409266	0.008274
575.621427	0.008282
575.833570	0.008120
576.045695	0.008343
576.257802	0.008017
576.469890	0.007668
576.681961	0.007830
576.894013	0.007671
577.106046	0.007544
577.318062	0.007510
577.530059	0.007600
577.742039	0.007762
577.954000	0.007661
578.165942	0.007987
578.377867	0.008076
578.589773	0.008157
578.801661	0.008253
579.013531	0.008652
579.225382	0.008858
579.437216	0.008707
579.649031	0.008623
579.860828	0.008472
580.072606	0.008406
580.284367	0.008500
580.496109	0.008076
580.707833	0.007992
580.919539	0.007703
581.131227	0.007608
581.342896	0.007789
581.554547	0.007566
581.766180	0.007760
581.977795	0.007619
582.189391	0.007436
582.400969	0.007632
582.612529	0.007536
582.824071	0.007879
583.035595	0.007814
583.247100	0.007670
583.458587	0.008024
583.670056	0.007995
583.881506	0.007930
584.092939	0.007941
584.304353	0.008350
584.515749	0.008417
584.727127	0.008432
584.938486	0.008851
585.149828	0.009107
585.361151	0.008935
585.572456	0.008966
585.783742	0.009229
585.995011	0.009293
586.206261	0.008874
586.417493	0.009080
586.628706	0.009131
586.839902	0.009050
587.051079	0.008926
587.262238	0.009132
587.473379	0.009154
587.684502	0.009135
587.895606	0.009428
588.106692	0.009371
588.317760	0.009108
588.528810	0.009034
588.739841	0.008972
588.950855	0.008775
589.161850	0.008558
589.372827	0.008348
589.583785	0.008307
589.794726	0.008131
590.005648	0.008148
590.216552	0.008049
590.427437	0.008016
590.638305	0.008045
590.849154	0.008141
591.059985	0.008455
591.270798	0.008875
591.481592	0.008733
591.692369	0.008981
591.903127	0.009196
592.113867	0.009662
592.324588	0.009638
592.535292	0.009503
592.745977	0.009626
592.956644	0.009542
593.167293	0.009336
593.377923	0.009488
593.588536	0.009524
593.799130	0.009480
594.009706	0.009432
594.220263	0.009397
594.430803	0.009503
594.641324	0.009188
594.851827	0.009175
595.062312	0.008891
595.272778	0.008734
595.483227	0.008838
595.693657	0.008751
595.904069	0.008598
596.114462	0.008792
596.324838	0.008727
596.535195	0.009156
596.745534	0.008995
596.955855	0.009302
597.166157	0.009565
597.376441	0.009274
597.586707	0.009585
597.796955	0.009687
598.007185	0.009466
598.217396	0.009496
598.427589	0.009333
598.637764	0.009788
598.847921	0.009934
599.058060	0.009801
599.268180	0.009887
599.478282	0.009699
599.688366	0.009798
599.898431	0.009968
600.108479	0.010208
600.318508	0.010478
600.528519	0.010380
600.738511	0.010197
600.948486	0.010370
601.158442	0.010257
601.368380	0.010256
601.578300	0.010379
601.788202	0.010575
601.998085	0.010534
602.207950	0.010454
602.417797	0.010281
602.627626	0.010307
602.837436	0.010378
603.047228	0.010696
603.257002	0.010688
603.466758	0.010515
603.676496	0.009967
603.886215	0.009962
604.095916	0.009845
604.305599	0.009959
604.515264	0.009987
604.724910	0.009736
604.934538	0.009517
605.144148	0.009556
605.353740	0.009525
605.563314	0.009775
605.772869	0.009672
605.982406	0.009725
606.191925	0.009722
606.401425	0.009951
606.610908	0.010309
606.820372	0.010441
607.029818	0.010484
607.239246	0.010461
607.448655	0.010474
607.658047	0.010435
607.867420	0.010418
608.076775	0.010521
608.286111	0.010445
608.495430	0.010330
608.704730	0.010369
608.914012	0.010500
609.123275	0.010441
609.332521	0.010455
609.541748	0.010473
609.750957	0.010453
609.960148	0.010304
610.169321	0.010137
610.378475	0.010071
610.587611	0.010000
610.796729	0.009951
611.005829	0.010209
611.214910	0.010384
611.423974	0.010611
611.633019	0.010963
611.842045	0.011250
612.051054	0.011470
612.260044	0.011498
612.469017	0.011718
612.677970	0.011623
612.886906	0.011509
613.095824	0.011492
613.304723	0.011400
613.513604	0.011382
613.722467	0.011228
613.931311	0.011257
614.140138	0.011113
614.348946	0.010909
614.557736	0.011201
614.766507	0.011383
614.975261	0.011531
615.183996	0.011614
615.392713	0.011281
615.601412	0.011237
615.810092	0.011213
616.018754	0.011434
616.227399	0.011601
616.436024	0.011377
616.644632	0.011444
616.853222	0.011406
617.061793	0.011427
617.270346	0.011602
617.478880	0.011640
617.687397	0.011612
617.895895	0.011587
618.104375	0.011595
618.312837	0.011576
618.521281	0.011521
618.729706	0.011329
618.938113	0.011248
619.146502	0.011219
619.354873	0.011270
619.563226	0.011124
619.771560	0.011133
619.979876	0.010900
620.188174	0.010750
620.396453	0.010574
620.604715	0.010508
620.812958	0.010489
621.021183	0.010678
621.229390	0.010643
621.437578	0.010810
621.645748	0.010783
621.853900	0.010956
622.062034	0.011095
622.270150	0.011027
622.478247	0.011199
622.686326	0.011205
622.894387	0.010902
623.102430	0.010912
623.310454	0.011023
623.518461	0.010860
623.726449	0.010884
623.934418	0.010955
624.142370	0.011142
624.350303	0.011228
624.558218	0.011428
624.766115	0.011654
624.973994	0.011530
625.181855	0.011355
625.389697	0.011296
625.597521	0.011087
625.805327	0.011219
626.013114	0.011446
626.220883	0.011469
626.428634	0.011374
626.636367	0.011209
626.844082	0.011363
627.051778	0.011538
627.259457	0.011731
627.467117	0.011951
627.674758	0.011747
627.882382	0.011465
628.089987	0.011340
628.297574	0.011430
628.505143	0.011495
628.712694	0.011357
628.920226	0.011328
629.127740	0.011436
629.335236	0.011525
629.542714	0.011417
629.750174	0.011440
629.957615	0.011686
630.165038	0.011619
630.372443	0.011643
630.579829	0.011945
630.787198	0.011891
630.994548	0.011902
631.201880	0.011741
631.409194	0.011816
631.616489	0.011967
631.823766	0.011803
632.031025	0.011932
632.238266	0.012200
632.445489	0.012032
632.652693	0.012157
632.859879	0.012274
633.067047	0.012486
633.274197	0.012691
633.481329	0.012633
633.688442	0.012740
633.895537	0.012770
634.102614	0.012747
634.309672	0.012848
634.516713	0.012827
634.723735	0.012813
634.930739	0.012633
635.137724	0.012473
635.344692	0.012566
635.551641	0.012600
635.758572	0.012572
635.965485	0.012521
636.172379	0.012579
636.379256	0.012453
636.586114	0.012354
636.792954	0.012461
636.999775	0.012675
637.206579	0.012986
637.413364	0.012982
637.620131	0.013026
637.826880	0.012871
638.033610	0.012787
638.240323	0.012807
638.447017	0.012766
638.653692	0.012718
638.860350	0.012654
639.066990	0.012268
639.273611	0.012160
639.480214	0.012100
639.686798	0.012176
639.893365	0.012135
640.099913	0.012152
640.306443	0.012339
640.512955	0.012425
640.719449	0.012520
640.925924	0.012689
641.132381	0.012959
641.338820	0.013092
641.545241	0.013095
641.751644	0.013090
641.958028	0.013209
642.164394	0.013096
642.370742	0.013095
642.577071	0.013030
642.783383	0.012641
642.989676	0.012499
643.195951	0.012502
643.402207	0.012570
643.608446	0.012759
643.814666	0.012770
644.020868	0.012808
644.227052	0.012865
644.433218	0.012881
644.639365	0.013261
644.845494	0.013221
645.051605	0.013049
645.257698	0.013049
645.463772	0.013056
645.669828	0.013133
645.875866	0.013205
646.081886	0.013346
646.287888	0.013443
646.493871	0.013293
646.699836	0.013350
646.905783	0.013450
647.111712	0.013624
647.317622	0.013619
647.523514	0.013866
647.729388	0.013863
647.935244	0.013877
648.141082	0.014039
648.346901	0.014113
648.552702	0.014250
648.758485	0.014264
648.964250	0.014320
649.169996	0.014329
649.375724	0.014079
649.581434	0.014177
649.787126	0.014167
649.992800	0.014028
650.198455	0.014079
650.404092	0.013974
650.609711	0.014133
650.815311	0.014097
651.020894	0.014176
651.226458	0.014451
651.432004	0.014439
651.637532	0.014564
651.843041	0.014540
652.048532	0.014719
652.254006	0.014806
652.459460	0.014793
652.664897	0.014931
652.870315	0.015077
653.075716	0.015005
653.281097	0.014973
653.486461	0.015065
653.691807	0.015200
653.897134	0.015231
654.102443	0.015337
654.307734	0.015410
654.513006	0.015518
654.718261	0.015656
654.923497	0.015700
655.128715	0.015808
655.333915	0.015734
655.539096	0.015926
655.744259	0.016031
655.949404	0.016009
656.154531	0.016039
656.359640	0.015862
656.564730	0.015533
656.769802	0.015450
656.974856	0.015584
657.179892	0.015652
657.384909	0.015598
657.589908	0.015538
657.794889	0.015544
657.999852	0.015597
658.204797	0.015703
658.409723	0.015932
658.614631	0.016060
658.819521	0.015997
659.024393	0.015849
659.229246	0.015771
659.434081	0.015984
659.638898	0.016087
659.843697	0.016212
660.048478	0.016241
660.253240	0.016167
660.457984	0.016144
660.662710	0.016144
660.867417	0.016327
661.072107	0.016406
661.276778	0.016385
661.481431	0.016406
661.686066	0.016340
661.890682	0.016314
662.095281	0.016598
662.299861	0.016720
662.504422	0.016816
662.708966	0.016723
662.913491	0.016580
663.117999	0.016492
663.322488	0.016399
663.526958	0.016336
663.731411	0.016228
663.935845	0.016152
664.140261	0.016193
664.344659	0.016302
664.549038	0.016524
664.753400	0.016634
664.957743	0.016658
665.162068	0.016964
665.366375	0.017133
665.570663	0.017371
665.774933	0.017342
665.979185	0.017316
666.183419	0.017279
666.387635	0.017208
666.591832	0.017426
666.796011	0.017658
667.000172	0.017672
667.204315	0.017700
667.408439	0.017639
667.612545	0.017710
667.816634	0.017689
668.020703	0.017696
668.224755	0.017751
668.428788	0.017794
668.632803	0.017484
668.836800	0.017221
669.040779	0.017152
669.244739	0.017313
669.448681	0.017382
669.652605	0.017618
669.856511	0.017759
670.060399	0.017785
670.264268	0.017730
670.468119	0.017900
670.671952	0.018076
670.875767	0.017999
671.079563	0.017964
671.283341	0.018011
671.487101	0.017906
671.690843	0.018013
671.894567	0.017995
672.098272	0.018019
672.301959	0.018078
672.505628	0.018087
672.709278	0.018369
672.912911	0.018575
673.116525	0.018498
673.320121	0.018490
673.523699	0.018350
673.727258	0.018331
673.930799	0.018225
674.134322	0.018250
674.337827	0.018361
674.541314	0.018307
674.744782	0.018243
674.948232	0.018318
675.151664	0.018283
675.355078	0.018314
675.558474	0.018397
675.761851	0.018605
675.965210	0.018724
676.168551	0.018632
676.371873	0.018605
676.575178	0.018587
676.778464	0.018581
676.981732	0.018711
677.184981	0.018600
677.388213	0.018755
677.591426	0.018672
677.794621	0.018714
677.997798	0.018904
678.200956	0.018856
678.404097	0.018926
678.607219	0.019035
678.810323	0.018956
679.013408	0.019315
679.216476	0.019192
679.419525	0.019255
679.622556	0.019047
679.825569	0.018961
680.028563	0.019117
680.231540	0.019032
680.434498	0.018816
680.637438	0.018815
680.840359	0.018658
681.043263	0.018689
681.246148	0.018812
681.449015	0.018878
681.651864	0.018901
681.854694	0.018960
682.057506	0.019023
682.260301	0.019143
682.463076	0.019160
682.665834	0.019160
682.868573	0.019366
683.071295	0.019377
683.273998	0.019563
683.476682	0.019720
683.679349	0.019471
683.881997	0.019506
684.084627	0.019561
684.287239	0.019666
684.489833	0.019725
684.692408	0.019646
684.894965	0.019424
685.097504	0.019309
685.300025	0.019223
685.502527	0.019351
685.705012	0.019309
685.907478	0.019384
686.109925	0.019382
686.312355	0.019205
686.514766	0.019189
686.717159	0.019220
686.919534	0.019267
687.121891	0.019237
687.324230	0.019299
687.526550	0.019356
687.728852	0.019261
687.931136	0.019317
688.133401	0.019470
688.335649	0.019411
688.537878	0.019598
688.740089	0.019579
688.942281	0.019738
689.144456	0.019831
689.346612	0.019860
689.548750	0.019961
689.750870	0.020132
689.952971	0.020216
690.155055	0.020295
690.357120	0.020387
690.559167	0.020478
690.761195	0.020398
690.963206	0.020504
691.165198	0.020566
691.367172	0.020584
691.569128	0.020473
691.771065	0.020436
691.972984	0.020383
692.174885	0.020313
692.376768	0.020325
692.578633	0.020405
692.780479	0.020381
692.982308	0.020134
693.184118	0.020148
693.385909	0.020148
693.587683	0.020280
693.789438	0.020374
693.991175	0.020458
694.192894	0.020577
694.394595	0.020483
694.596277	0.020483
694.797941	0.020850
694.999587	0.020804
695.201215	0.020734
695.402824	0.020575
695.604416	0.020397
695.805989	0.020423
696.007543	0.020360
696.209080	0.020511
696.410598	0.020662
696.612099	0.020458
696.813580	0.020615
697.015044	0.020756
697.216490	0.021032
697.417917	0.021319
697.619326	0.021444
697.820717	0.021535
698.022089	0.021556
698.223444	0.021460
698.424780	0.021549
698.626098	0.021595
698.827397	0.021580
699.028679	0.021417
699.229942	0.021232
699.431187	0.020926
699.632414	0.020846
699.833622	0.020851
700.034813	0.020928
700.235985	0.020854
700.437139	0.020661
700.638274	0.020469
700.839392	0.020481
701.040491	0.020546
701.241572	0.020673
701.442635	0.020470
701.643679	0.020318
701.844706	0.020307
702.045714	0.020313
702.246704	0.020383
702.447675	0.020620
702.648629	0.020585
702.849564	0.020529
703.050481	0.020516
703.251380	0.020629
703.452260	0.020741
703.653122	0.020661
703.853966	0.020767
704.054792	0.020695
704.255600	0.020546
704.456389	0.020545
704.657160	0.020747
704.857913	0.020758
705.058648	0.020805
705.259365	0.020876
705.460063	0.020821
705.660743	0.020728
705.861405	0.020867
706.062048	0.020925
706.262674	0.020862
706.463281	0.020607
706.663870	0.020794
706.864441	0.020693
707.064993	0.020576
707.265527	0.020643
707.466043	0.020693
707.666541	0.020618
707.867021	0.020581
708.067482	0.020685
708.267925	0.020914
708.468350	0.020859
708.668757	0.020970
708.869145	0.021001
709.069516	0.020904
709.269868	0.020932
709.470201	0.020843
709.670517	0.021118
709.870814	0.021114
710.071093	0.021156
710.271354	0.021179
710.471597	0.021307
710.671821	0.021282
710.872028	0.021278
711.072216	0.021152
711.272385	0.021287
711.472537	0.021032
711.672670	0.020961
711.872785	0.020866
712.072882	0.020685
712.272961	0.020516
712.473021	0.020467
712.673063	0.020485
712.873087	0.020509
713.073093	0.020468
713.273081	0.020479
713.473050	0.020526
713.673001	0.020522
713.872934	0.020535
714.072849	0.020691
714.272745	0.020797
714.472623	0.020668
714.672483	0.020777
714.872325	0.020595
715.072148	0.020523
715.271954	0.020343
715.471741	0.020249
715.671509	0.020157
715.871260	0.019915
716.070992	0.019804
716.270707	0.019947
716.470403	0.019769
716.670080	0.019912
716.869740	0.019946
717.069381	0.019942
717.269004	0.019929
717.468609	0.019979
717.668195	0.020029
717.867764	0.019951
718.067314	0.019799
718.266846	0.019842
718.466360	0.019846
718.665855	0.019650
718.865332	0.019802
719.064791	0.019616
719.264232	0.019615
719.463655	0.019809
719.663059	0.019877
719.862445	0.019990
720.061813	0.019939
720.261163	0.019862
720.460494	0.019973
720.659807	0.019929
720.859102	0.020248
721.058379	0.020241
721.257638	0.019990
721.456878	0.019950
721.656100	0.019882
721.855304	0.019956
722.054490	0.019934
722.253657	0.019915
722.452806	0.019853
722.651937	0.019672
722.851050	0.019454
723.050145	0.019665
723.249221	0.019573
723.448279	0.019483
723.647319	0.019427
723.846340	0.019400
724.045344	0.019354
724.244329	0.019232
724.443296	0.019219
724.642245	0.019463
724.841175	0.019215
725.040088	0.019238
725.238982	0.019292
725.437857	0.019190
725.636715	0.019357
725.835554	0.019379
726.034376	0.019425
726.233179	0.019367
726.431963	0.019276
726.630730	0.019411
726.829478	0.019327
727.028208	0.019231
727.226920	0.019331
727.425614	0.019201
727.624289	0.019256
727.822946	0.019238
728.021585	0.019256
728.220206	0.019335
728.418808	0.019065
728.617392	0.018978
728.815958	0.019073
729.014506	0.019036
729.213036	0.018883
729.411547	0.018883
729.610040	0.018915
729.808515	0.018805
730.006972	0.018775
730.205410	0.018698
730.403831	0.018664
730.602233	0.018510
730.800616	0.018537
730.998982	0.018705
731.197329	0.018521
731.395658	0.018384
731.593969	0.018520
731.792262	0.018321
731.990536	0.018327
732.188793	0.018365
732.387031	0.018572
732.585250	0.018375
732.783452	0.018116
732.981635	0.018296
733.179800	0.018410
733.377947	0.018186
733.576076	0.017995
733.774186	0.018255
733.972278	0.018245
734.170352	0.018071
734.368408	0.018135
734.566446	0.018199
734.764465	0.017782
734.962466	0.017650
735.160449	0.017549
735.358413	0.017601
735.556360	0.017490
735.754288	0.017483
735.952198	0.017457
736.150090	0.017394
736.347963	0.017503
736.545818	0.017706
736.743655	0.017719
736.941474	0.017814
737.139275	0.017729
737.337057	0.017439
737.534821	0.017376
737.732567	0.017273
737.930295	0.017178
738.128005	0.017072
738.325696	0.017078
738.523369	0.016966
738.721024	0.017026
738.918660	0.017152
739.116279	0.017341
739.313879	0.017506
739.511461	0.017515
739.709024	0.017435
739.906570	0.017321
740.104097	0.017259
740.301606	0.017198
740.499097	0.017168
740.696569	0.017150
740.894024	0.017166
741.091460	0.016954
741.288878	0.016937
741.486277	0.017088
741.683659	0.017162
741.881022	0.017148
742.078367	0.017185
742.275694	0.017139
742.473002	0.017195
742.670293	0.017115
742.867565	0.017029
743.064819	0.016927
743.262054	0.017020
743.459272	0.017057
743.656471	0.017090
743.853652	0.017342
744.050815	0.017182
744.247959	0.017039
744.445085	0.016847
744.642194	0.016958
744.839283	0.016935
745.036355	0.016589
745.233408	0.016342
745.430444	0.016114
745.627461	0.015976
745.824459	0.016073
746.021440	0.016163
746.218402	0.016276
746.415346	0.016189
746.612272	0.016357
746.809180	0.016496
747.006069	0.016543
747.202940	0.016520
747.399793	0.016547
747.596628	0.016435
747.793444	0.016370
747.990243	0.016430
748.187023	0.016393
748.383784	0.016150
748.580528	0.016096
748.777253	0.016280
748.973960	0.016294
749.170649	0.016116
749.367320	0.016350
749.563973	0.016271
749.760607	0.016247
749.957223	0.016338
750.153821	0.016472
750.350400	0.016476
750.546962	0.016307
750.743505	0.016403
750.940030	0.016331
751.136536	0.015987
751.333025	0.016084
751.529495	0.016164
751.725947	0.016270
751.922381	0.016149
752.118796	0.016089
752.315194	0.016048
752.511573	0.015912
752.707934	0.015755
752.904276	0.015916
753.100601	0.015654
753.296907	0.015397
753.493195	0.015141
753.689465	0.015235
753.885716	0.015240
754.081949	0.015288
754.278164	0.015276
754.474361	0.015487
754.670540	0.015446
754.866700	0.015632
755.062843	0.015794
755.258967	0.015994
755.455072	0.016012
755.651160	0.016045
755.847229	0.015861
756.043280	0.016115
756.239313	0.016263
756.435328	0.016195
756.631324	0.016129
756.827302	0.016050
757.023262	0.016030
757.219204	0.015861
757.415127	0.015848
757.611033	0.015825
757.806920	0.015504
758.002788	0.015190
758.198639	0.015180
758.394471	0.015200
758.590286	0.015033
758.786081	0.014712
758.981859	0.014711
759.177619	0.014581
759.373360	0.014548
759.569083	0.014697
759.764788	0.014680
759.960474	0.014677
760.156143	0.014670
760.351793	0.014735
760.547425	0.014899
760.743038	0.014958
760.938634	0.014964
761.134211	0.015136
761.329770	0.015310
761.525311	0.015365
761.720833	0.015322
761.916338	0.015218
762.111824	0.015016
762.307292	0.014792
762.502741	0.014652
762.698173	0.014595
762.893586	0.014397
763.088981	0.014177
763.284358	0.014064
763.479716	0.014040
763.675057	0.014145
763.870379	0.014455
764.065683	0.014665
764.260968	0.014817
764.456236	0.015036
764.651485	0.015072
764.846716	0.015018
765.041929	0.015151
765.237123	0.015221
765.432299	0.015055
765.627457	0.014979
765.822597	0.015077
766.017719	0.015092
766.212822	0.014891
766.407907	0.014973
766.602974	0.015114
766.798023	0.015329
766.993054	0.015374
767.188066	0.015484
767.383060	0.015581
767.578036	0.015498
767.772993	0.015505
767.967933	0.015332
768.162854	0.015363
768.357757	0.015295
768.552642	0.015204
768.747508	0.015464
768.942356	0.015571
769.137186	0.015373
769.331998	0.015410
769.526792	0.015294
769.721567	0.015574
769.916324	0.015628
770.111063	0.015587
770.305784	0.015584
770.500486	0.015227
770.695171	0.015093
770.889837	0.015050
771.084484	0.015097
771.279114	0.014992
771.473725	0.014902
771.668318	0.014742
771.862893	0.014565
772.057450	0.014422
772.251988	0.014406
772.446509	0.014545
772.641011	0.014822
772.835494	0.014598
773.029960	0.014619
773.224407	0.014669
773.418836	0.014686
773.613247	0.014783
773.807640	0.014723
774.002014	0.014834
774.196370	0.014735
774.390708	0.014638
774.585028	0.014744
774.779330	0.014785
774.973613	0.014959
775.167878	0.015112
775.362125	0.015210
775.556354	0.015380
775.750564	0.015247
775.944756	0.015219
776.138930	0.015166
776.333086	0.015089
776.527223	0.015053
776.721343	0.014946
776.915444	0.014850
777.109526	0.014986
777.303591	0.014937
777.497637	0.015099
777.691666	0.015091
777.885676	0.014986
778.079667	0.014991
778.273641	0.015136
778.467596	0.015098
778.661533	0.015180
778.855452	0.014994
779.049352	0.014956
779.243235	0.014842
779.437099	0.014966
779.630945	0.015089
779.824773	0.015226
780.018582	0.015036
780.212373	0.014927
780.406146	0.014700
780.599901	0.014507
780.793638	0.014430
780.987356	0.014340
781.181056	0.014147
781.374738	0.014033
781.568402	0.013961
781.762047	0.013926
781.955674	0.013861
782.149283	0.013915
782.342874	0.013934
782.536447	0.013880
782.730001	0.013869
782.923537	0.013928
783.117055	0.013928
783.310555	0.013765
783.504036	0.013814
783.697499	0.013952
783.890944	0.014103
784.084371	0.014521
784.277780	0.014784
784.471170	0.015036
784.664542	0.015132
784.857896	0.015353
785.051231	0.015507
785.244549	0.015642
785.437848	0.015742
785.631129	0.015697
785.824392	0.015414
786.017636	0.015345
786.210863	0.015263
786.404071	0.015260
786.597260	0.015179
786.790432	0.015121
786.983585	0.015038
787.176721	0.014914
787.369838	0.014875
787.562936	0.014958
787.756017	0.014879
787.949079	0.014757
788.142123	0.014811
788.335149	0.014796
788.528156	0.014997
788.721146	0.015105
788.914117	0.015292
789.107070	0.015345
789.300005	0.015421
789.492921	0.015318
789.685819	0.015399
789.878699	0.015561
790.071561	0.015409
790.264405	0.015232
790.457230	0.015286
790.650037	0.015134
790.842826	0.014980
791.035597	0.014942
791.228349	0.015201
791.421084	0.015469
791.613800	0.015145
791.806497	0.015178
791.999177	0.015173
792.191838	0.014967
792.384481	0.014935
792.577106	0.015098
792.769713	0.015266
792.962301	0.015317
793.154871	0.015156
793.347423	0.015429
793.539957	0.015502
793.732473	0.015676
793.924970	0.015743
794.117449	0.015718
794.309910	0.015900
794.502353	0.015731
794.694777	0.015663
794.887183	0.015593
795.079571	0.015322
795.271941	0.015371
795.464293	0.015366
795.656626	0.015508
795.848941	0.015603
796.041238	0.015287
796.233516	0.015351
796.425777	0.015314
796.618019	0.015340
796.810243	0.015459
797.002449	0.015493
797.194636	0.015384
797.386805	0.015164
797.578956	0.015103
797.771089	0.015104
797.963204	0.015112
798.155300	0.015091
798.347378	0.014991
798.539438	0.014795
798.731480	0.014743
798.923503	0.014750
799.115509	0.015103
799.307496	0.015107
799.499465	0.015349
799.691415	0.015189
799.883348	0.015146
800.075262	0.015251
800.267158	0.015489
800.459035	0.015386
800.650895	0.015563
800.842736	0.015498
801.034559	0.015742
801.226364	0.015749
801.418150	0.016008
801.609919	0.016013
801.801669	0.016026
801.993401	0.015894
802.185114	0.016140
802.376810	0.016035
802.568487	0.015972
802.760146	0.015835
802.951787	0.015820
803.143409	0.015710
803.335014	0.015758
803.526600	0.015981
803.718168	0.016126
803.909717	0.016283
804.101249	0.016368
804.292762	0.016457
804.484257	0.016719
804.675734	0.016803
804.867192	0.017087
805.058632	0.017207
805.250054	0.017121
805.441458	0.017321
805.632844	0.016992
805.824211	0.017051
806.015561	0.017124
806.206891	0.016987
806.398204	0.016883
806.589499	0.016734
806.780775	0.016682
806.972033	0.016612
807.163273	0.016458
807.354495	0.016658
807.545698	0.016502
807.736883	0.016386
807.928050	0.016277
808.119199	0.016403
808.310329	0.016392
808.501441	0.016450
808.692535	0.016586
808.883611	0.016774
809.074669	0.016771
809.265708	0.016890
809.456729	0.017121
809.647732	0.017395
809.838717	0.017310
810.029683	0.017348
810.220632	0.017578
810.411562	0.017463
810.602474	0.017319
810.793367	0.017559
810.984242	0.017616
811.175100	0.017462
811.365938	0.017336
811.556759	0.017501
811.747562	0.017581
811.938346	0.017456
812.129112	0.017483
812.319860	0.017382
812.510589	0.017023
812.701300	0.017020
812.891994	0.016962
813.082668	0.016857
813.273325	0.016820
813.463964	0.016741
813.654584	0.016592
813.845186	0.016605
814.035769	0.016765
814.226335	0.016851
814.416882	0.016985
814.607411	0.017236
814.797922	0.017420
814.988415	0.017418
815.178889	0.017550
815.369345	0.017721
815.559783	0.017969
815.750203	0.017862
815.940605	0.018055
816.130988	0.018123
816.321353	0.017991
816.511700	0.017890
816.702028	0.018188
816.892339	0.018269
817.082631	0.018271
817.272905	0.018165
817.463161	0.018484
817.653398	0.018457
817.843617	0.018453
818.033819	0.018713
818.224001	0.018963
818.414166	0.018853
818.604312	0.018742
818.794440	0.018948
818.984550	0.019064
819.174642	0.018938
819.364716	0.019003
819.554771	0.018963
819.744808	0.018694
819.934827	0.018653
820.124827	0.018518
820.314810	0.018594
820.504774	0.018489
820.694720	0.018354
820.884647	0.018431
821.074557	0.018679
821.264448	0.018725
821.454321	0.018867
821.644176	0.018897
821.834012	0.019026
822.023831	0.018904
822.213631	0.018859
822.403413	0.018971
822.593176	0.018884
822.782922	0.018707
822.972649	0.018718
823.162358	0.018638
823.352049	0.018654
823.541721	0.018580
823.731376	0.018731
823.921012	0.018872
824.110629	0.018912
824.300229	0.019124
824.489811	0.019027
824.679374	0.019097
824.868919	0.019298
825.058445	0.019280
825.247954	0.019409
825.437444	0.019412
825.626916	0.019466
825.816370	0.019384
826.005806	0.019201
826.195223	0.019242
826.384622	0.019185
826.574003	0.019116
826.763366	0.019030
826.952711	0.018861
827.142037	0.018675
827.331345	0.018497
827.520635	0.018502
827.709906	0.018672
827.899160	0.018754
828.088395	0.018993
828.277612	0.019116
828.466810	0.019290
828.655991	0.019444
828.845153	0.019723
829.034297	0.019877
829.223423	0.020157
829.412531	0.020239
829.601620	0.020190
829.790691	0.020273
829.979744	0.020116
830.168779	0.020143
830.357795	0.020343
830.546793	0.020461
830.735773	0.020422
830.924735	0.020221
831.113679	0.020267
831.302604	0.020629
831.491511	0.020530
831.680400	0.020543
831.869271	0.020453
832.058123	0.020594
832.246957	0.020741
832.435773	0.020864
832.624571	0.021133
832.813351	0.021329
833.002112	0.021283
833.190855	0.021368
833.379580	0.021689
833.568287	0.021955
833.756975	0.021836
833.945645	0.021717
834.134297	0.021928
834.322931	0.021986
834.511547	0.021956
834.700144	0.022138
834.888723	0.021813
835.077284	0.021932
835.265826	0.021970
835.454351	0.021996
835.642857	0.022250
835.831345	0.022221
836.019815	0.022419
836.208266	0.022351
836.396699	0.022379
836.585114	0.023033
836.773511	0.023032
836.961890	0.022863
837.150250	0.023036
837.338592	0.023020
837.526916	0.023351
837.715222	0.023484
837.903510	0.023709
838.091779	0.023587
838.280030	0.023160
838.468263	0.023181
838.656477	0.023398
838.844674	0.023243
839.032852	0.023256
839.221012	0.023019
839.409153	0.022722
839.597277	0.022663
839.785382	0.022958
839.973469	0.023174
840.161538	0.023430
840.349589	0.023707
840.537621	0.023854
840.725635	0.024104
840.913631	0.024227
841.101609	0.024616
841.289568	0.024851
841.477509	0.024783
841.665432	0.024915
841.853337	0.024709
842.041224	0.024726
842.229092	0.024813
842.416942	0.024594
842.604774	0.024592
842.792588	0.024706
842.980383	0.024759
843.168160	0.024680
843.355919	0.024854
843.543660	0.025162
843.731382	0.025442
843.919087	0.025463
844.106773	0.025647
844.294441	0.025939
844.482090	0.025896
844.669722	0.026021
844.857335	0.026285
845.044930	0.026214
845.232507	0.026196
845.420065	0.026209
845.607605	0.026482
845.795127	0.026784
845.982631	0.026717
846.170117	0.026773
846.357584	0.026638
846.545033	0.026814
846.732464	0.027212
846.919877	0.027417
847.107272	0.027435
847.294648	0.027381
847.482006	0.027279
847.669346	0.027272
847.856667	0.027226
848.043971	0.027398
848.231256	0.027274
848.418523	0.027352
848.605771	0.027272
848.793002	0.026989
848.980214	0.027321
849.167408	0.027359
849.354584	0.027466
849.541742	0.027651
849.728881	0.027833
849.916002	0.028069
850.103105	0.028077
850.290190	0.028230
850.477256	0.028694
850.664304	0.028720
850.851334	0.029013
851.038346	0.029314
851.225340	0.029492
851.412315	0.029609
851.599272	0.029649
851.786211	0.029630
851.973132	0.029839
852.160034	0.030077
852.346918	0.030298
852.533784	0.030301
852.720632	0.030336
852.907462	0.030032
853.094273	0.030019
853.281066	0.030374
853.467841	0.030589
853.654598	0.030554
853.841336	0.030428
854.028056	0.030157
854.214758	0.029871
854.401442	0.030085
854.588107	0.030398
854.774755	0.030735
854.961384	0.030559
855.147995	0.030493
855.334587	0.030582
855.521162	0.030581
855.707718	0.030921
855.894256	0.031485
856.080775	0.031442
856.267277	0.031463
856.453760	0.031044
856.640225	0.031289
856.826672	0.031400
857.013101	0.031127
857.199511	0.031182
857.385903	0.031145
857.572277	0.031088
857.758633	0.031356
857.944970	0.031638
858.131290	0.032074
858.317591	0.031986
858.503873	0.032239
858.690138	0.032715
858.876384	0.033040
859.062612	0.033179
859.248822	0.033417
859.435014	0.033504
859.621188	0.033614
859.807343	0.033512
859.993480	0.033624
860.179599	0.033409
860.365699	0.033477
860.551781	0.033416
860.737846	0.033629
860.923891	0.033701
861.109919	0.033384
861.295929	0.033343
861.481920	0.033771
861.667893	0.033834
861.853848	0.034051
862.039784	0.034123
862.225702	0.034131
862.411603	0.034045
862.597484	0.033999
862.783348	0.034506
862.969193	0.034601
863.155021	0.034481
863.340830	0.034395
863.526620	0.034514
863.712393	0.034502
863.898147	0.034585
864.083883	0.034801
864.269601	0.034802
864.455301	0.034630
864.640982	0.034586
864.826645	0.034466
865.012290	0.034733
865.197917	0.034694
865.383526	0.034868
865.569116	0.034983
865.754688	0.034924
865.940242	0.035029
866.125777	0.035103
866.311295	0.035470
866.496794	0.035578
866.682275	0.035550
866.867737	0.035459
867.053182	0.035416
867.238608	0.035486
867.424016	0.035335
867.609406	0.035362
867.794778	0.035550
867.980131	0.035263
868.165466	0.035357
868.350783	0.035299
868.536082	0.035413
868.721362	0.035606
868.906625	0.035563
869.091869	0.035964
869.277094	0.036026
869.462302	0.036038
869.647491	0.036207
869.832662	0.036245
870.017815	0.036563
870.202950	0.036713
870.388066	0.036395
870.573165	0.036519
870.758245	0.036257
870.943306	0.036204
871.128350	0.036242
871.313375	0.036609
871.498382	0.036721
871.683371	0.036709
871.868342	0.036642
872.053294	0.037171
872.238229	0.037339
872.423144	0.037258
872.608042	0.037520
872.792922	0.037385
872.977783	0.037099
873.162626	0.037254
873.347451	0.037313
873.532258	0.037581
873.717046	0.037646
873.901816	0.037596
874.086568	0.038316
874.271302	0.038305
874.456017	0.038542
874.640715	0.038726
874.825394	0.038713
875.010055	0.038682
875.194697	0.038649
875.379322	0.038225
875.563928	0.038055
875.748516	0.037725
875.933085	0.037569
876.117637	0.037272
876.302170	0.037238
876.486685	0.037231
876.671182	0.037210
876.855661	0.037208
877.040121	0.037535
877.224563	0.037645
877.408987	0.037437
877.593393	0.037523
877.777780	0.037640
877.962150	0.037241
878.146501	0.037050
878.330833	0.037014
878.515148	0.036970
878.699444	0.036827
878.883722	0.037196
879.067982	0.037351
879.252224	0.037256
879.436447	0.037358
879.620653	0.037874
879.804840	0.038060
879.989008	0.038307
880.173159	0.038226
880.357291	0.038262
880.541405	0.038032
880.725501	0.038259
880.909579	0.038580
881.093638	0.038662
881.277680	0.038812
881.461703	0.038879
881.645707	0.038755
881.829694	0.038755
882.013662	0.038873
882.197612	0.039026
882.381544	0.038861
882.565458	0.038638
882.749353	0.038634
882.933230	0.038373
883.117089	0.038364
883.300930	0.038479
883.484753	0.038591
883.668557	0.038335
883.852343	0.038365
884.036111	0.038302
884.219861	0.038360
884.403592	0.037805
884.587305	0.037759
884.771000	0.037545
884.954677	0.037310
885.138335	0.037212
885.321976	0.037341
885.505598	0.037106
885.689201	0.036928
885.872787	0.036601
886.056354	0.036905
886.239904	0.036723
886.423434	0.036466
886.606947	0.036424
886.790442	0.036453
886.973918	0.036540
887.157376	0.036309
887.340816	0.036295
887.524237	0.036231
887.707641	0.036036
887.891026	0.036132
888.074393	0.036436
888.257741	0.036388
888.441072	0.036525
888.624384	0.036395
888.807678	0.036243
888.990954	0.036293
889.174211	0.036536
889.357451	0.036738
889.540672	0.036608
889.723875	0.036828
889.907059	0.037057
890.090226	0.036967
890.273374	0.037062
890.456504	0.037334
890.639616	0.037558
890.822709	0.037660
891.005785	0.037967
891.188842	0.038132
891.371881	0.038032
891.554901	0.037865
891.737904	0.038087
891.920888	0.037994
892.103854	0.037965
892.286802	0.038210
892.469731	0.038212
892.652643	0.037762
892.835536	0.037721
893.018410	0.037702
893.201267	0.037674
893.384106	0.037328
893.566926	0.037234
893.749728	0.037575
893.932511	0.037089
894.115277	0.036961
894.298024	0.037014
894.480753	0.037069
894.663464	0.036598
894.846157	0.036665
895.028831	0.037072
895.211487	0.037195
895.394125	0.037111
895.576745	0.037398
895.759346	0.037297
895.941930	0.037627
896.124495	0.037682
896.307041	0.037975
896.489570	0.037936
896.672080	0.037642
896.854573	0.037581
897.037046	0.037228
897.219502	0.037029
897.401940	0.037109
897.584359	0.036851
897.766760	0.036953
897.949143	0.036833
898.131507	0.036818
898.313854	0.036906
898.496182	0.037095
898.678492	0.037035
898.860783	0.037139
899.043057	0.037045
899.225312	0.037004
899.407549	0.036972
899.589768	0.037122
899.771968	0.037057
899.954151	0.036702
900.136315	0.036483
900.318461	0.036714
900.500588	0.036748
900.682698	0.036961
900.864789	0.037097
901.046862	0.036900
901.228917	0.036859
901.410953	0.036428
901.592971	0.036806
901.774972	0.036712
901.956953	0.036640
902.138917	0.036086
902.320862	0.035630
902.502790	0.035637
902.684699	0.035491
902.866589	0.035179
903.048462	0.035419
903.230316	0.035339
903.412152	0.035176
903.593970	0.035297
903.775770	0.035270
903.957551	0.035629
904.139314	0.035207
904.321059	0.035269
904.502786	0.035538
904.684494	0.035207
904.866185	0.034719
905.047857	0.034608
905.229510	0.033827
905.411146	0.034039
905.592763	0.033615
905.774363	0.033894
905.955943	0.033749
906.137506	0.033283
906.319051	0.033577
906.500577	0.033384
906.682085	0.033300
906.863575	0.033441
907.045046	0.032976
907.226500	0.033118
907.407935	0.032871
907.589352	0.032605
907.770750	0.032637
907.952131	0.032508
908.133493	0.032680
908.314837	0.032498
908.496163	0.032530
908.677470	0.032769
908.858760	0.032556
909.040031	0.032202
909.221284	0.032072
909.402518	0.032055
909.583735	0.031699
909.764933	0.031636
909.946113	0.031711
910.127275	0.031389
910.308418	0.031154
910.489544	0.031195
910.670651	0.031193
910.851740	0.031223
911.032810	0.030938
911.213863	0.031101
911.394897	0.030853
911.575913	0.030836
911.756911	0.031170
911.937890	0.031138
912.118851	0.030670
912.299794	0.030797
912.480719	0.030792
912.661626	0.030859
912.842514	0.030597
913.023384	0.030316
913.204236	0.030223
913.385070	0.029598
913.565886	0.029366
913.746683	0.029318
913.927462	0.028670
914.108223	0.028398
914.288965	0.028231
914.469690	0.027822
914.650396	0.027630
914.831084	0.027204
915.011754	0.027287
915.192405	0.027111
915.373038	0.027136
915.553653	0.027006
915.734250	0.026739
915.914829	0.026481
916.095389	0.026591
916.275931	0.026469
916.456455	0.026458
916.636961	0.026599
916.817448	0.026491
916.997917	0.026324
917.178368	0.026094
917.358801	0.025952
917.539216	0.025710
917.719612	0.025809
917.899990	0.025938
918.080350	0.026001
918.260692	0.025477
918.441015	0.025215
918.621320	0.025009
918.801607	0.025277
918.981876	0.025390
919.162127	0.025493
919.342359	0.025609
919.522573	0.025178
919.702769	0.025162
919.882947	0.025350
920.063106	0.025223
920.243247	0.024621
920.423370	0.024257
920.603475	0.023691
920.783562	0.023119
920.963630	0.022668
921.143680	0.022592
921.323712	0.021972
921.503725	0.021535
921.683721	0.021499
921.863698	0.021495
922.043657	0.021305
922.223598	0.021790
922.403520	0.021855
922.583424	0.021395
922.763311	0.021411
922.943178	0.021757
923.123028	0.021569
923.302859	0.021505
923.482673	0.021611
923.662467	0.021426
923.842244	0.020765
924.022003	0.020837
924.201743	0.020766
924.381465	0.020689
924.561169	0.019766
924.740854	0.019628
924.920522	0.019316
925.100171	0.018904
925.279802	0.018596
925.459414	0.018412
925.639009	0.018575
925.818585	0.018306
925.998143	0.017856
926.177683	0.017640
926.357205	0.017850
926.536708	0.017702
926.716193	0.017601
926.895660	0.017293
927.075109	0.017339
927.254539	0.016845
927.433951	0.016643
927.613345	0.016493
927.792721	0.016604
927.972079	0.015688
928.151418	0.015295
928.330739	0.015074
928.510042	0.015141
928.689327	0.013857
928.868593	0.013001
929.047841	0.012515
929.227071	0.011988
929.406283	0.011780
929.585476	0.012077
929.764652	0.011630
929.943809	0.011108
930.122948	0.011035
930.302068	0.011501
930.481171	0.011773
930.660255	0.011695
930.839321	0.011282
931.018369	0.010990
931.197398	0.010301
931.376409	0.010221
931.555402	0.010491
931.734377	0.010430
931.913334	0.010024
932.092272	0.009157
932.271192	0.009012
932.450094	0.009241
932.628978	0.008668
932.807844	0.008382
932.986691	0.008018
933.165520	0.007301
933.344331	0.006369
933.523123	0.006584
933.701898	0.006466
933.880654	0.005918
934.059392	0.005486
934.238111	0.005499
934.416813	0.005018
934.595496	0.004864
934.774161	0.005014
934.952808	0.004332
935.131437	0.003536
935.310047	0.003455
935.488639	0.003312
935.667213	0.003017
935.845769	0.002456
936.024306	0.002137
936.202825	0.001671
936.381326	0.001197
936.559809	0.001409
936.738274	0.001286
936.916720	0.001025
937.095148	0.000820
937.273558	0.000607
937.451950	-0.000158
937.630323	0.000296
937.808678	0.000040
937.987015	-0.000411
938.165334	0.000013
938.343635	-0.000274
938.521917	-0.001121
938.700181	-0.001241
938.878427	-0.001496
939.056655	-0.000838
939.234864	-0.001403
939.413055	-0.001385
939.591228	-0.001219
939.769383	-0.002180
939.947519	-0.002615
940.125638	-0.002097
940.303738	-0.002585
940.481820	-0.002976
940.659883	-0.003419
940.837929	-0.003744
941.015956	-0.004322
941.193965	-0.004556
941.371955	-0.004538
941.549928	-0.004758
941.727882	-0.005313
941.905818	-0.004897
942.083736	-0.005776
942.261636	-0.006646
942.439517	-0.006963
942.617380	-0.006801
942.795225	-0.006965
942.973052	-0.006688
943.150860	-0.007179
943.328651	-0.007787
943.506423	-0.008630
943.684176	-0.008375
943.861912	-0.007205
944.039629	-0.007318
944.217328	-0.007666
944.395009	-0.008207
944.572672	-0.008639
944.750317	-0.008562
944.927943	-0.008034
945.105551	-0.009023
945.283141	-0.008332
945.460712	-0.009801
945.638265	-0.010076
945.815801	-0.010290
945.993317	-0.009952
946.170816	-0.009925
946.348297	-0.010432
946.525759	-0.010123
946.703203	-0.009727
946.880629	-0.010212
947.058036	-0.011050
947.235425	-0.010843
947.412797	-0.011837
947.590149	-0.013019
947.767484	-0.013996
947.944800	-0.014457
948.122099	-0.016110
948.299379	-0.016253
948.476640	-0.016421
948.653884	-0.015273
948.831109	-0.016107
949.008316	-0.015856
949.185505	-0.016224
949.362676	-0.016908
949.539828	-0.017529
949.716962	-0.017147
949.894078	-0.017088
950.071176	-0.018369
950.248256	-0.018540
950.425317	-0.018177
950.602360	-0.018540
950.779385	-0.017769
950.956391	-0.017141
951.133380	-0.016961
951.310350	-0.016882
951.487302	-0.018017
951.664235	-0.017814
951.841151	-0.018544
952.018048	-0.020273
952.194927	-0.019693
952.371788	-0.020747
952.548631	-0.020947
952.725455	-0.020169
952.902261	-0.021365
953.079049	-0.020542
953.255819	-0.021112
953.432570	-0.020731
953.609303	-0.020034
953.786018	-0.019847
953.962715	-0.019680
954.139394	-0.020874
954.316054	-0.022282
954.492696	-0.021375
954.669320	-0.022625
954.845926	-0.022960
955.022513	-0.023271
955.199083	-0.023022
955.375634	-0.024147
955.552166	-0.024362
955.728681	-0.022800
955.905177	-0.021244
956.081655	-0.021142
956.258115	-0.020790
956.434557	-0.020188
956.610980	-0.021809
956.787385	-0.021907
956.963772	-0.020205
957.140141	-0.021253
957.316492	-0.022664
957.492824	-0.023170
957.669138	-0.022511
957.845434	-0.021740
958.021712	-0.022281
958.197971	-0.020622
958.374212	-0.019531
958.550435	-0.022039
958.726640	-0.019742
958.902826	-0.019218
959.078995	-0.018796
959.255145	-0.019267
959.431277	-0.018438
959.607390	-0.017404
959.783486	-0.018078
959.959563	-0.020160
960.135622	-0.018257
960.311662	-0.018770
960.487685	-0.017570
960.663689	-0.018938
960.839675	-0.018074
961.015643	-0.018820
961.191593	-0.017865
961.367524	-0.017867
961.543437	-0.017347
961.719332	-0.017694
961.895209	-0.016984
962.071067	-0.017684
962.246907	-0.016878
962.422730	-0.018433
962.598533	-0.017680
962.774319	-0.017685
962.950086	-0.014659
963.125835	-0.013617
963.301566	-0.013260
963.477279	-0.013643
963.652973	-0.013491
963.828650	-0.014275
964.004308	-0.014623
964.179947	-0.015620
964.355569	-0.014982
964.531172	-0.016190
964.706757	-0.016635
964.882324	-0.015203
965.057873	-0.014751
965.233403	-0.015067
965.408916	-0.012874
965.584410	-0.010123
965.759885	-0.011256
965.935343	-0.011787
966.110782	-0.009881
966.286203	-0.009629
966.461606	-0.012216
966.636991	-0.011120
966.812357	-0.009377
966.987705	-0.009064
967.163035	-0.010682
967.338347	-0.008466
967.513641	-0.009707
967.688916	-0.011013
967.864173	-0.010512
968.039412	-0.009284
968.214632	-0.010278
968.389835	-0.009980
968.565019	-0.008924
968.740185	-0.008977
968.915333	-0.011363
969.090462	-0.009758
969.265573	-0.011732
969.440667	-0.011889
969.615741	-0.013174
969.790798	-0.013149
969.965836	-0.014073
970.140856	-0.015631
970.315858	-0.015274
970.490842	-0.013963
970.665808	-0.016179
970.840755	-0.014836
971.015684	-0.014263
971.190595	-0.013801
971.365487	-0.012508
971.540362	-0.012270
971.715218	-0.011048
971.890056	-0.011198
972.064875	-0.010843
972.239677	-0.009824
972.414460	-0.009273
972.589225	-0.010789
972.763972	-0.009073
972.938700	-0.011603
973.113411	-0.011162
973.288103	-0.012948
973.462777	-0.013276
973.637432	-0.011651
973.812070	-0.010800
973.986689	-0.010811
974.161290	-0.008828
974.335873	-0.009492
974.510437	-0.008050
974.684984	-0.009121
974.859512	-0.008141
975.034022	-0.006601
975.208513	-0.008125
975.382987	-0.009256
975.557442	-0.008163
975.731879	-0.009066
975.906298	-0.008249
976.080698	-0.007462
976.255080	-0.005428
976.429445	-0.004696
976.603790	-0.006615
976.778118	-0.005331
976.952427	-0.003466
977.126719	-0.005345
977.300992	-0.004017
977.475246	-0.003445
977.649483	-0.004931
977.823701	-0.005063
977.997901	-0.004655
978.172083	-0.003372
978.346247	-0.005241
978.520392	-0.006836
978.694519	-0.006657
978.868628	-0.008841
979.042719	-0.007746
979.216791	-0.008579
979.390845	-0.010615
979.564882	-0.012384
979.738899	-0.011039
979.912899	-0.010664
980.086880	-0.010692
980.260843	-0.011092
980.434788	-0.009023
980.608715	-0.010336
980.782623	-0.007705
980.956514	-0.007486
981.130386	-0.007306
981.304240	-0.008815
981.478075	-0.007140
981.651892	-0.006029
981.825692	-0.005151
981.999472	-0.006390
982.173235	-0.007267
982.346980	-0.008519
982.520706	-0.008957
982.694414	-0.008895
982.868104	-0.007901
983.041775	-0.008577
983.215428	-0.009077
983.389064	-0.008581
983.562680	-0.008425
983.736279	-0.008578
983.909860	-0.009297
984.083422	-0.008842
984.256966	-0.010178
984.430491	-0.010994
984.603999	-0.010925
984.777488	-0.009258
984.950959	-0.010536
985.124412	-0.009508
985.297847	-0.008599
985.471263	-0.008363
985.644661	-0.006253
985.818041	-0.004055
985.991403	-0.003001
986.164747	-0.004436
986.338072	-0.005125
986.511379	-0.004214
986.684668	-0.005720
986.857938	-0.005176
987.031191	-0.004787
987.204425	-0.006170
987.377641	-0.006339
987.550839	-0.008482
987.724018	-0.007682
987.897179	-0.008094
988.070322	-0.008718
988.243447	-0.007302
988.416554	-0.007313
988.589642	-0.008474
988.762712	-0.008734
988.935764	-0.010298
989.108798	-0.008849
989.281813	-0.008939
989.454811	-0.007559
989.627790	-0.007785
989.800751	-0.008794
989.973693	-0.010212
990.146617	-0.009411
990.319524	-0.009012
990.492412	-0.007833
990.665281	-0.008013
990.838133	-0.006114
991.010966	-0.009254
991.183781	-0.008405
991.356578	-0.009605
991.529356	-0.010011
991.702117	-0.011450
991.874859	-0.012308
992.047583	-0.011466
992.220288	-0.011651
992.392976	-0.012988
992.565645	-0.010712
992.738296	-0.010992
992.910929	-0.009154
993.083543	-0.008365
993.256139	-0.005223
993.428718	-0.004827
993.601277	-0.004247
993.773819	-0.004830
993.946342	-0.004897
994.118848	-0.004682
994.291335	-0.006019
994.463803	-0.006393
994.636254	-0.005661
994.808686	-0.007947
994.981100	-0.007534
995.153496	-0.010042
995.325874	-0.009124
995.498233	-0.009337
995.670574	-0.010873
995.842897	-0.010782
996.015202	-0.010644
996.187488	-0.010786
996.359757	-0.008986
996.532007	-0.010054
996.704239	-0.008716
996.876452	-0.009212
997.048648	-0.007767
997.220825	-0.005998
997.392984	-0.003559
997.565124	-0.003705
997.737247	-0.004357
997.909351	-0.004339
998.081437	-0.004173
998.253505	-0.003516
998.425554	-0.002650
998.597586	-0.002246
998.769599	-0.003322
998.941594	-0.004774
999.113571	-0.004669
999.285529	-0.003559
999.457469	-0.004692
999.629391	-0.005041
999.801295	-0.005728
999.973181	-0.006358
1000.145048	-0.006970
1000.316897	-0.007457
1000.488728	-0.007835
1000.660541	-0.008039
1000.832335	-0.008344
1001.004111	-0.007779
1001.175869	-0.006765
1001.347609	-0.007672
1001.519331	-0.008229
1001.691034	-0.009150
1001.862719	-0.008385
1002.034386	-0.007036
1002.206035	-0.005914
1002.377665	-0.006772
1002.549277	-0.007164
1002.720871	-0.007449
1002.892447	-0.006979
1003.064004	-0.006700
1003.235544	-0.007155
1003.407065	-0.007245
1003.578568	-0.006583
1003.750052	-0.008289
1003.921519	-0.008709
1004.092967	-0.007997
1004.264397	-0.008560
1004.435809	-0.008367
1004.607202	-0.008325
1004.778577	-0.006963
1004.949934	-0.006844
1005.121273	-0.008500
1005.292594	-0.009149
1005.463896	-0.007322
1005.635180	-0.008376
1005.806446	-0.007584
1005.977694	-0.007754
1006.148923	-0.006690
1006.320135	-0.007433
1006.491328	-0.006784
1006.662503	-0.006733
1006.833659	-0.004419
1007.004798	-0.006404
1007.175918	-0.007876
1007.347020	-0.007967
1007.518103	-0.006256
1007.689169	-0.006825
1007.860216	-0.009187
1008.031245	-0.009927
1008.202256	-0.008909
1008.373248	-0.008809
1008.544223	-0.008760
1008.715179	-0.007791
1008.886117	-0.007401
1009.057036	-0.009032
1009.227938	-0.010458
1009.398821	-0.007743
1009.569686	-0.008421
1009.740533	-0.008120
1009.911361	-0.009073
1010.082172	-0.007661
1010.252964	-0.006688
1010.423738	-0.007024
1010.594493	-0.006460
1010.765231	-0.005956
1010.935950	-0.005995
1011.106651	-0.005631
1011.277334	-0.006475
1011.447998	-0.007041
1011.618645	-0.006401
1011.789273	-0.006698
1011.959882	-0.005255
1012.130474	-0.004167
1012.301048	-0.004222
1012.471603	-0.004178
1012.642140	-0.004255
1012.812658	-0.005050
1012.983159	-0.005472
1013.153641	-0.006363
1013.324105	-0.005413
1013.494551	-0.006014
1013.664979	-0.008722
1013.835388	-0.008963
1014.005779	-0.010060
1014.176152	-0.010159
1014.346507	-0.009187
1014.516843	-0.007706
1014.687162	-0.008150
1014.857462	-0.009562
1015.027744	-0.010632
1015.198007	-0.008913
1015.368252	-0.008652
1015.538480	-0.007877
1015.708689	-0.007291
1015.878879	-0.008554
1016.049052	-0.009519
1016.219206	-0.009901
1016.389342	-0.009116
1016.559460	-0.008127
1016.729559	-0.008608
1016.899641	-0.007712
1017.069704	-0.008637
1017.239749	-0.009000
1017.409775	-0.008131
1017.579784	-0.008164
1017.749774	-0.006935
1017.919746	-0.005831
1018.089700	-0.007218
1018.259635	-0.007792
1018.429553	-0.010309
1018.599452	-0.010628
1018.769333	-0.010047
1018.939195	-0.010405
1019.109040	-0.009989
1019.278866	-0.010800
1019.448674	-0.011731
1019.618464	-0.011252
1019.788235	-0.010323
1019.957989	-0.007639
1020.127724	-0.005215
1020.297441	-0.006234
1020.467139	-0.005840
1020.636820	-0.006568
1020.806482	-0.005767
1020.976126	-0.006728
1021.145752	-0.006047
1021.315359	-0.006844
1021.484948	-0.007028
1021.654519	-0.007498
1021.824072	-0.006101
1021.993607	-0.006096
1022.163123	-0.004669
1022.332621	-0.006642
1022.502101	-0.006559
1022.671563	-0.007425
1022.841007	-0.006020
1023.010432	-0.006249
1023.179839	-0.007615
1023.349228	-0.009570
1023.518598	-0.008292
1023.687951	-0.008989
1023.857285	-0.007486
1024.026601	-0.007021
1024.195899	-0.007439
1024.365178	-0.008481
1024.534439	-0.008251
1024.703682	-0.008122
1024.872907	-0.006807
1025.042114	-0.007823
1025.211302	-0.007751
1025.380472	-0.008099
1025.549624	-0.008510
1025.718758	-0.010122
1025.887873	-0.010717
1026.056970	-0.011574
1026.226049	-0.011134
1026.395110	-0.010506
1026.564153	-0.011576
1026.733177	-0.011711
1026.902183	-0.011547
1027.071171	-0.010939
1027.240141	-0.007234
1027.409092	-0.006499
1027.578026	-0.005534
1027.746940	-0.006721
1027.915837	-0.007678
1028.084716	-0.006766
1028.253576	-0.006770
1028.422418	-0.007107
1028.591242	-0.006255
1028.760048	-0.007714
1028.928835	-0.008143
1029.097604	-0.008786
1029.266355	-0.008782
1029.435088	-0.008855
1029.603803	-0.008128
1029.772499	-0.009412
1029.941177	-0.008812
1030.109837	-0.010776
1030.278478	-0.010400
1030.447102	-0.009554
1030.615707	-0.009487
1030.784294	-0.009574
1030.952863	-0.009505
1031.121413	-0.010380
1031.289945	-0.009116
1031.458460	-0.009194
1031.626955	-0.009121
1031.795433	-0.010534
1031.963892	-0.010586
1032.132334	-0.009727
1032.300756	-0.009259
1032.469161	-0.007423
1032.637548	-0.006627
1032.805916	-0.006458
1032.974266	-0.007283
1033.142598	-0.006569
1033.310911	-0.005639
1033.479207	-0.006882
1033.647484	-0.008519
1033.815743	-0.008404
1033.983983	-0.010843
1034.152206	-0.011027
1034.320410	-0.010888
1034.488596	-0.010917
1034.656764	-0.010905
1034.824914	-0.010249
1034.993045	-0.009673
1035.161158	-0.007825
1035.329253	-0.007006
1035.497330	-0.006460
1035.665388	-0.006495
1035.833428	-0.007518
1036.001450	-0.007581
1036.169454	-0.007079
1036.337440	-0.008210
1036.505407	-0.007033
1036.673356	-0.008287
1036.841287	-0.008943
1037.009200	-0.009816
1037.177094	-0.008869
1037.344970	-0.009472
1037.512828	-0.007456
1037.680668	-0.007198
1037.848489	-0.006046
1038.016293	-0.007848
1038.184078	-0.007792
1038.351845	-0.007070
1038.519593	-0.006248
1038.687324	-0.008611
1038.855036	-0.008864
1039.022730	-0.011099
1039.190406	-0.011447
1039.358063	-0.011110
1039.525702	-0.009907
1039.693323	-0.009493
1039.860926	-0.008874
1040.028511	-0.010173
1040.196077	-0.009443
1040.363625	-0.008420
1040.531155	-0.007698
1040.698667	-0.007607
1040.866161	-0.008344
1041.033636	-0.007861
1041.201093	-0.007359
1041.368532	-0.007894
1041.535952	-0.006559
1041.703355	-0.006735
1041.870739	-0.005061
1042.038105	-0.004509
1042.205452	-0.003974
1042.372782	-0.002206
1042.540093	-0.002551
1042.707386	-0.003196
1042.874661	-0.002698
1043.041918	-0.003082
1043.209156	-0.004065
1043.376376	-0.004746
1043.543578	-0.004628
1043.710762	-0.004306
1043.877927	-0.005970
1044.045074	-0.006934
1044.212203	-0.008074
1044.379314	-0.009786
1044.546407	-0.009245
1044.713481	-0.008654
1044.880537	-0.009150
1045.047575	-0.008748
1045.214595	-0.010839
1045.381596	-0.011276
1045.548579	-0.010539
1045.715544	-0.008711
1045.882491	-0.009341
1046.049420	-0.010287
1046.216330	-0.009122
1046.383222	-0.008862
1046.550096	-0.010078
1046.716951	-0.008512
1046.883789	-0.008692
1047.050608	-0.008503
1047.217409	-0.009024
1047.384192	-0.005733
1047.550956	-0.004784
1047.717703	-0.005766
1047.884431	-0.005277
1048.051140	-0.004358
1048.217832	-0.004669
1048.384505	-0.005144
1048.551161	-0.004432
1048.717798	-0.003659
1048.884416	-0.006752
1049.051017	-0.007130
1049.217599	-0.006405
1049.384163	-0.007542
1049.550709	-0.007759
1049.717237	-0.008930
1049.883746	-0.009859
1050.050237	-0.010387
1050.216710	-0.012609
1050.383165	-0.011295
1050.549601	-0.010296
1050.716019	-0.010311
1050.882420	-0.010538
1051.048801	-0.011819
1051.215165	-0.011577
1051.381510	-0.009149
1051.547837	-0.009856
1051.714146	-0.008294
1051.880437	-0.008861
1052.046709	-0.011766
1052.212964	-0.011181
1052.379200	-0.010454
1052.545417	-0.009656
1052.711617	-0.009640
1052.877798	-0.009860
1053.043961	-0.008691
1053.210106	-0.008847
1053.376233	-0.007384
1053.542341	-0.004100
1053.708432	-0.005135
1053.874504	-0.006209
1054.040557	-0.004982
1054.206593	-0.004372
1054.372610	-0.004384
1054.538609	-0.006581
1054.704590	-0.007836
1054.870553	-0.007897
1055.036497	-0.008445
1055.202424	-0.007933
1055.368331	-0.006780
1055.534221	-0.007605
1055.700093	-0.009257
1055.865946	-0.011426
1056.031781	-0.009303
1056.197598	-0.007144
1056.363397	-0.008372
1056.529177	-0.008907
1056.694939	-0.008318
1056.860683	-0.008465
1057.026409	-0.008587
1057.192116	-0.006930
1057.357806	-0.005142
1057.523477	-0.005562
1057.689130	-0.005472
1057.854764	-0.003905
1058.020381	-0.003879
1058.185979	-0.005655
1058.351559	-0.005789
1058.517120	-0.007030
1058.682664	-0.005570
1058.848189	-0.005854
1059.013696	-0.006984
1059.179185	-0.007621
1059.344656	-0.008569
1059.510108	-0.008533
1059.675542	-0.007559
1059.840958	-0.006918
1060.006356	-0.005942
1060.171735	-0.008936
1060.337096	-0.008431
1060.502439	-0.006656
1060.667764	-0.007624
1060.833071	-0.007487
1060.998359	-0.007391
1061.163629	-0.006856
1061.328881	-0.007794
1061.494115	-0.007342
1061.659330	-0.004313
1061.824527	-0.003679
1061.989706	-0.004088
1062.154867	-0.004721
1062.320010	-0.004658
1062.485134	-0.004215
1062.650240	-0.003358
1062.815328	-0.001148
1062.980398	-0.002552
1063.145449	-0.005042
1063.310482	-0.005268
1063.475497	-0.006003
1063.640494	-0.004810
1063.805473	-0.006060
1063.970433	-0.005675
1064.135375	-0.005513
1064.300299	-0.006227
1064.465204	-0.005276
1064.630092	-0.005154
1064.794961	-0.005826
1064.959812	-0.005525
1065.124645	-0.005894
1065.289459	-0.004615
1065.454256	-0.006765
1065.619034	-0.008329
1065.783793	-0.008676
1065.948535	-0.009650
1066.113258	-0.008881
1066.277964	-0.008690
1066.442651	-0.011121
1066.607319	-0.009752
1066.771970	-0.009626
1066.936602	-0.008710
1067.101216	-0.008856
1067.265812	-0.009641
1067.430389	-0.008825
1067.594949	-0.008374
1067.759490	-0.008600
1067.924013	-0.004706
1068.088518	-0.005370
1068.253004	-0.006128
1068.417472	-0.006521
1068.581922	-0.005435
1068.746354	-0.006619
1068.910768	-0.006830
1069.075163	-0.008464
1069.239540	-0.008744
1069.403899	-0.011295
1069.568240	-0.011968
1069.732562	-0.012033
1069.896866	-0.013302
1070.061152	-0.013093
1070.225420	-0.012149
1070.389670	-0.012068
1070.553901	-0.011715
1070.718114	-0.011520
1070.882309	-0.012644
1071.046486	-0.011958
1071.210644	-0.013255
1071.374784	-0.010093
1071.538906	-0.012259
1071.703010	-0.010028
1071.867096	-0.011692
1072.031163	-0.011492
1072.195212	-0.011758
1072.359243	-0.009972
1072.523256	-0.010352
1072.687250	-0.008347
1072.851226	-0.009488
1073.015184	-0.009008
1073.179124	-0.009774
1073.343045	-0.006698
1073.506949	-0.005868
1073.670834	-0.006646
1073.834701	-0.006950
1073.998549	-0.008100
1074.162380	-0.009371
1074.326192	-0.011093
1074.489986	-0.010324
1074.653761	-0.011489
1074.817519	-0.013770
1074.981258	-0.012422
1075.144979	-0.010882
1075.308682	-0.010102
1075.472367	-0.009154
1075.636033	-0.008467
1075.799681	-0.006628
1075.963311	-0.003874
1076.126923	-0.003365
1076.290516	-0.002665
1076.454092	-0.003562
1076.617649	-0.002863
1076.781187	-0.002111
1076.944708	-0.002215
1077.108210	-0.003113
1077.271695	-0.001878
1077.435160	-0.003465
1077.598608	-0.004265
1077.762038	-0.002490
1077.925449	-0.002447
1078.088842	-0.003365
1078.252217	-0.002430
1078.415573	-0.002033
1078.578912	-0.000457
1078.742232	-0.000993
1078.905534	-0.002350
1079.068817	-0.003467
1079.232083	-0.006376
1079.395330	-0.004759
1079.558559	-0.003111
1079.721770	-0.005819
1079.884962	-0.008310
1080.048136	-0.009158
1080.211293	-0.009984
1080.374430	-0.010034
1080.537550	-0.007614
1080.700651	-0.005431
1080.863735	-0.007862
1081.026800	-0.009719
1081.189846	-0.007531
1081.352875	-0.004503
1081.515885	-0.004154
1081.678877	-0.000570
1081.841851	-0.000459
1082.004807	-0.001515
1082.167744	-0.003485
1082.330663	-0.001710
1082.493564	-0.001217
1082.656447	-0.002407
1082.819312	-0.003547
1082.982158	-0.004098
1083.144986	-0.005683
1083.307796	-0.006624
1083.470587	-0.006552
1083.633361	-0.005295
1083.796116	-0.006729
1083.958853	-0.006033
1084.121571	-0.004069
1084.284272	-0.003911
1084.446954	-0.004064
1084.609618	-0.006811
1084.772264	-0.005648
1084.934892	-0.005553
1085.097501	-0.005742
1085.260092	-0.006542
1085.422665	-0.007670
1085.585220	-0.011581
1085.747756	-0.010759
1085.910274	-0.008182
1086.072774	-0.009339
1086.235256	-0.008172
1086.397720	-0.009420
1086.560165	-0.009338
1086.722592	-0.009059
1086.885001	-0.008615
1087.047392	-0.005823
1087.209764	-0.005142
1087.372119	-0.008611
1087.534455	-0.007445
1087.696772	-0.009779
1087.859072	-0.007449
1088.021353	-0.007306
1088.183616	-0.008237
1088.345861	-0.011452
1088.508088	-0.012115
1088.670296	-0.011729
1088.832486	-0.009233
1088.994658	-0.008424
1089.156812	-0.007668
1089.318948	-0.007513
1089.481065	-0.006227
1089.643164	-0.004929
1089.805245	-0.001907
1089.967308	-0.002875
1090.129352	-0.005363
1090.291378	-0.004853
1090.453386	-0.006460
1090.615376	-0.004931
1090.777347	-0.005957
1090.939301	-0.006964
1091.101236	-0.005762
1091.263153	-0.008386
1091.425051	-0.009272
1091.586932	-0.007524
1091.748794	-0.009871
1091.910638	-0.008524
1092.072463	-0.009997
1092.234271	-0.009315
1092.396060	-0.011011
1092.557831	-0.012334
1092.719584	-0.010057
1092.881319	-0.008414
1093.043035	-0.011210
1093.204733	-0.012044
1093.366413	-0.014142
1093.528075	-0.012019
1093.689718	-0.016021
1093.851343	-0.016053
1094.012950	-0.013745
1094.174539	-0.012295
1094.336110	-0.013405
1094.497662	-0.011748
1094.659196	-0.011954
1094.820712	-0.010187
1094.982210	-0.011220
1095.143689	-0.008343
1095.305151	-0.006563
1095.466594	-0.007121
1095.628018	-0.008720
1095.789425	-0.006213
1095.950813	-0.002398
1096.112183	0.000366
1096.273535	0.002130
1096.434869	0.003135
1096.596184	0.005609
1096.757482	0.005730
1096.918761	0.004867
1097.080021	0.003355
1097.241264	0.003766
1097.402488	-0.001268
1097.563694	-0.003855
1097.724882	-0.004643
1097.886052	-0.006752
1098.047203	-0.011622
1098.208336	-0.013175
1098.369451	-0.015489
1098.530548	-0.014472
1098.691627	-0.015777
1098.852687	-0.015731
1099.013729	-0.012446
1099.174753	-0.014389
1099.335758	-0.014911
1099.496746	-0.012880
1099.657715	-0.013740
1099.818666	-0.015064
1099.979599	-0.012803
1100.140513	-0.013695
1100.301409	-0.011283
1100.462287	-0.012532
1100.623147	-0.010402
1100.783989	-0.013215
1100.944812	-0.010174
1101.105617	-0.006598
1101.266404	-0.002594
1101.427173	-0.004133
1101.587923	-0.004064
1101.748656	-0.005175
1101.909370	-0.004738
1102.070066	-0.006083
1102.230743	-0.001065
1102.391403	-0.000585
1102.552044	-0.003911
1102.712667	-0.005837
1102.873271	-0.005164
1103.033858	-0.005921
1103.194426	-0.005707
1103.354976	-0.005930
1103.515508	-0.002284
1103.676021	-0.004897
1103.836517	-0.008019
1103.996994	-0.007072
1104.157453	-0.007737
1104.317893	-0.005783
1104.478316	-0.006863
1104.638720	-0.007104
1104.799106	-0.005334
1104.959474	-0.009101
1105.119823	-0.009971
1105.280155	-0.009005
1105.440468	-0.009339
1105.600763	-0.003999
1105.761039	-0.003240
1105.921298	-0.001742
1106.081538	-0.001608
1106.241760	-0.002335
1106.401964	-0.000899
1106.562149	0.003640
1106.722316	0.002113
1106.882465	0.007183
1107.042596	0.004357
1107.202709	0.001968
1107.362803	-0.001300
1107.522879	0.000309
1107.682937	-0.003092
1107.842977	-0.004346
1108.002999	-0.006595
1108.163002	-0.005243
1108.322987	-0.011346
1108.482954	-0.014698
1108.642902	-0.016304
1108.802833	-0.012524
1108.962745	-0.014666
1109.122639	-0.012366
1109.282515	-0.011693
1109.442372	-0.011443
1109.602211	-0.012179
1109.762032	-0.010571
1109.921835	-0.006280
1110.081620	-0.003551
1110.241386	-0.003736
1110.401134	-0.003746
1110.560864	-0.004247
1110.720576	-0.004180
1110.880269	-0.004800
1111.039945	-0.006055
1111.199602	-0.004164
1111.359240	-0.007452
1111.518861	-0.008299
1111.678463	-0.008178
1111.838047	-0.006053
1111.997613	-0.005121
1112.157161	-0.006943
1112.316690	-0.007558
1112.476202	-0.007863
1112.635695	-0.012291
1112.795169	-0.010312
1112.954626	-0.007726
1113.114064	-0.009299
1113.273484	-0.012398
1113.432886	-0.010704
1113.592270	-0.010178
1113.751635	-0.007118
1113.910983	-0.004607
1114.070312	0.000230
1114.229622	-0.001855
1114.388915	-0.006328
1114.548189	-0.004697
1114.707445	-0.002132
1114.866683	-0.004433
1115.025903	-0.002916
1115.185104	-0.009464
1115.344287	-0.013240
1115.503452	-0.010033
1115.662599	-0.007330
1115.821727	-0.006888
1115.980838	-0.005177
1116.139930	-0.002730
1116.299004	-0.001225
1116.458059	-0.001437
1116.617097	0.000958
1116.776116	0.005606
1116.935117	-0.001834
1117.094099	-0.002995
1117.253064	-0.000042
1117.412010	-0.002610
1117.570938	-0.004852
1117.729848	-0.008734
1117.888740	-0.008866
1118.047613	-0.007080
1118.206468	-0.011050
1118.365305	-0.006958
1118.524124	-0.006252
1118.682924	-0.005870
1118.841707	-0.005834
1119.000471	-0.008764
1119.159216	-0.009284
1119.317944	-0.009602
1119.476653	-0.012318
1119.635344	-0.007130
1119.794017	-0.006076
1119.952672	-0.004917
1120.111308	-0.005752
1120.269927	-0.002019
1120.428527	0.002598
1120.587108	0.009875
1120.745672	0.011532
1120.904217	0.013765
1121.062744	0.009250
1121.221253	0.008037
1121.379744	0.004531
1121.538216	0.000371
1121.696671	0.000086
1121.855107	-0.003314
1122.013524	-0.008874
1122.171924	-0.007975
1122.330305	-0.010194
1122.488668	-0.007593
1122.647013	-0.007706
1122.805340	-0.008195
1122.963648	-0.005406
1123.121938	-0.009132
1123.280210	-0.006774
1123.438464	-0.005592
1123.596700	-0.007518
1123.754917	-0.003970
1123.913116	-0.000411
1124.071297	-0.002640
1124.229459	0.000576
1124.387604	-0.000196
1124.545730	0.004774
1124.703838	0.001455
1124.861928	0.003675
1125.019999	0.008640
1125.178052	0.005706
1125.336088	-0.000745
1125.494104	-0.000648
1125.652103	-0.003885
1125.810083	-0.005435
1125.968045	-0.010816
1126.125989	-0.008623
1126.283915	-0.010445
1126.441823	-0.018030
1126.599712	-0.017032
1126.757583	-0.016153
1126.915436	-0.012965
1127.073270	-0.009848
1127.231087	-0.007932
1127.388885	-0.001812
1127.546665	-0.001386
1127.704426	-0.005439
1127.862170	-0.002572
1128.019895	-0.000493
1128.177602	0.002383
1128.335291	0.001418
1128.492961	-0.004039
1128.650614	-0.001946
1128.808248	-0.007781
1128.965864	-0.005855
1129.123461	-0.001563
1129.281041	0.000713
1129.438602	0.001910
1129.596145	0.000301
1129.753670	-0.001090
1129.911176	0.002253
1130.068665	-0.003390
1130.226135	-0.000440
1130.383587	-0.001980
1130.541020	-0.003936
1130.698436	-0.007553
1130.855833	-0.007836
1131.013212	-0.009331
1131.170573	-0.017021
1131.327915	-0.015774
1131.485239	-0.014135
1131.642545	-0.012448
1131.799833	-0.011450
1131.957103	-0.009796
1132.114354	-0.010270
1132.271588	-0.011946
1132.428803	-0.013394
1132.585999	-0.005405
1132.743178	-0.003672
1132.900338	-0.001577
1133.057480	-0.003319
1133.214604	-0.004356
1133.371710	-0.004960
1133.528797	-0.002258
1133.685866	-0.001504
1133.842917	0.000923
1133.999950	0.004378
1134.156964	-0.000294
1134.313960	-0.001102
1134.470938	-0.005026
1134.627898	-0.007966
1134.784840	-0.007178
1134.941763	-0.007804
1135.098668	-0.008056
1135.255555	-0.009113
1135.412424	-0.012517
1135.569274	-0.008030
1135.726107	-0.005182
1135.882921	-0.003627
1136.039716	-0.003464
1136.196494	-0.007525
1136.353253	-0.007480
1136.509995	-0.010047
1136.666717	-0.012783
1136.823422	-0.011712
1136.980109	-0.013573
1137.136777	-0.016398
1137.293427	-0.015562
1137.450059	-0.014129
1137.606672	-0.007042
1137.763267	-0.008875
1137.919844	-0.009944
1138.076403	-0.009762
1138.232944	-0.011131
1138.389466	-0.012120
1138.545971	-0.014719
1138.702457	-0.013722
1138.858924	-0.016233
1139.015374	-0.020321
1139.171805	-0.022929
1139.328218	-0.016473
1139.484613	-0.007846
1139.640990	-0.003909
1139.797348	0.000701
1139.953688	0.002331
1140.110010	0.005279
1140.266314	0.004583
1140.422600	0.003482
1140.578867	0.010582
1140.735116	0.004356
1140.891347	-0.000335
1141.047559	-0.006627
1141.203754	-0.002724
1141.359930	-0.001170
1141.516088	-0.004922
1141.672228	-0.001141
1141.828349	0.000910
1141.984452	-0.002894
1142.140537	-0.000418
1142.296604	-0.004282
1142.452653	0.000623
1142.608683	-0.009046
1142.764695	-0.009210
1142.920689	-0.009851
1143.076665	-0.009595
1143.232622	-0.010675
1143.388562	-0.011647
1143.544483	-0.010779
1143.700385	-0.004089
1143.856270	-0.001903
1144.012136	-0.002115
1144.167985	-0.007037
1144.323814	-0.008655
1144.479626	-0.007792
1144.635420	-0.005341
1144.791195	-0.005300
1144.946952	-0.004284
1145.102691	-0.006206
1145.258411	-0.012000
1145.414113	-0.011959
1145.569798	-0.007059
1145.725463	0.000055
1145.881111	-0.007075
1146.036741	-0.007816
1146.192352	-0.004630
1146.347945	-0.002394
1146.503519	-0.008498
1146.659076	-0.006553
1146.814614	-0.002440
1146.970134	-0.004166
1147.125636	-0.011126
1147.281120	-0.004583
1147.436585	-0.003069
1147.592032	-0.000921
1147.747461	-0.008388
1147.902872	-0.000848
1148.058265	-0.004473
1148.213639	-0.003139
1148.368995	-0.003851
1148.524333	-0.003061
1148.679653	-0.007756
1148.834954	-0.007314
1148.990237	-0.006478
1149.145502	0.001133
1149.300749	-0.001069
1149.455977	0.009505
1149.611188	0.003107
1149.766380	0.002553
1149.921553	0.008110
1150.076709	0.014607
1150.231846	0.011606
1150.386966	0.010506
1150.542066	0.002361
1150.697149	0.001508
1150.852214	-0.009304
1151.007260	-0.004974
1151.162288	-0.005120
1151.317298	-0.007643
1151.472289	-0.010449
1151.627263	-0.011220
1151.782218	-0.013813
1151.937155	-0.014239
1152.092073	-0.010428
1152.246974	-0.008812
1152.401856	-0.008619
1152.556720	-0.005098
1152.711566	-0.008510
1152.866393	-0.011392
1153.021203	-0.011312
1153.175994	-0.014737
1153.330767	-0.009604
1153.485521	-0.015579
1153.640258	-0.017024
1153.794976	-0.019956
1153.949676	-0.020366
1154.104358	-0.022271
1154.259021	-0.019725
1154.413667	-0.017725
1154.568294	-0.016574
1154.722903	-0.014714
1154.877493	-0.012083
1155.032066	-0.005512
1155.186620	-0.004093
1155.341156	-0.006699
1155.495674	-0.000407
1155.650173	-0.004628
1155.804654	-0.006105
1155.959118	0.001586
1156.113562	0.001451
1156.267989	0.000799
1156.422397	-0.000354
1156.576788	-0.002960
1156.731160	-0.001953
1156.885513	-0.005942
1157.039849	-0.006521
1157.194166	-0.007300
1157.348465	-0.006832
1157.502746	-0.005518
1157.657009	-0.009460
1157.811253	-0.006381
1157.965479	-0.002391
1158.119687	0.002586
1158.273877	-0.003659
1158.428048	-0.005243
1158.582201	-0.004003
1158.736337	-0.003287
1158.890453	-0.003967
1159.044552	-0.002050
1159.198632	-0.005445
1159.352694	-0.008713
1159.506738	-0.006079
1159.660764	0.001916
1159.814771	0.002422
1159.968761	-0.000628
1160.122732	-0.002900
1160.276685	-0.000436
1160.430619	0.003267
1160.584535	0.000610
1160.738434	0.000200
1160.892313	-0.013062
1161.046175	-0.015854
1161.200019	-0.008805
1161.353844	-0.005902
1161.507651	-0.013131
1161.661440	-0.017140
1161.815210	-0.016898
1161.968962	-0.009875
1162.122697	-0.010356
1162.276412	-0.001814
1162.430110	0.002867
1162.583789	-0.002740
1162.737451	-0.001183
1162.891094	0.003079
1163.044718	0.001006
1163.198325	-0.008448
1163.351913	-0.018103
1163.505483	-0.014099
1163.659035	-0.008893
1163.812569	-0.009737
1163.966084	-0.002194
1164.119581	0.003006
1164.273060	0.001363
1164.426521	-0.002173
1164.579964	0.003941
1164.733388	0.001776
1164.886794	-0.002703
1165.040182	-0.006700
1165.193551	-0.008174
1165.346903	-0.013960
1165.500236	-0.019851
1165.653551	-0.027163
1165.806848	-0.023376
1165.960126	-0.020246
1166.113386	-0.013731
1166.266628	-0.018466
1166.419852	-0.023907
1166.573058	-0.021817
1166.726245	-0.017369
1166.879414	-0.016186
1167.032565	-0.011819
1167.185698	-0.009004
1167.338812	-0.009617
1167.491909	-0.008973
1167.644987	-0.003420
1167.798046	0.001199
1167.951088	0.005001
1168.104111	0.004936
1168.257117	0.000125
1168.410103	-0.000459
1168.563072	0.005972
1168.716023	0.013628
1168.868955	0.012045
1169.021869	0.010078
1169.174765	0.016297
1169.327642	0.010006
1169.480501	0.012694
1169.633343	0.014188
1169.786165	0.019216
1169.938970	0.013955
1170.091757	0.010150
1170.244525	0.007989
1170.397275	0.014524
1170.550007	0.010296
1170.702720	0.000660
1170.855415	-0.002183
1171.008092	0.000669
1171.160751	0.002023
1171.313392	-0.000639
1171.466014	0.005584
1171.618619	0.016071
1171.771205	0.016071
1171.923772	0.016071
