sample name	sample
index	449
start time	 03-11-2021  11:07:48 AM
880	0.014923
Peak Time (s)	91.036
Peak Height 	0.01492
calc peak height	90,93
Baseline Time (s)	8.538
Baseline Value 	-0.004639
subtract baseline	10,4
Abs	-0.013313
Peak Time (s)	92.037
Peak Height 	-0.01331
calc peak height	90,93
Baseline Time (s)	8.538
Baseline Value 	0.005137
subtract baseline	10,3
PK_550	-0.003205
Peak Time (s)	90.035
Peak Height 	-0.003205
calc peak height	90,93
Baseline Time (s)	9.535
Baseline Value 	2.6469E-4
subtract baseline	10,2
PK_880	-0.014623
Peak Time (s)	90.035
Peak Height 	-0.01462
calc peak height	90,93
Baseline Time (s)	10.537
Baseline Value 	0.001154
subtract baseline	10,1


Time (s)	A880-A510	A880-A775	A880-A975	A880	I510	I775	I975	I880	
0.035500	-0.002081	0.000197	-0.008383	0.006851	6995.631158	45312.812073	3880.838641	23991.261854
0.536000	-0.004325	-0.000766	-0.006198	0.005103	6990.832807	45389.556375	3891.015421	24076.732707
1.035500	-0.000876	-0.000177	-0.002998	0.003833	7036.680540	45572.046144	3902.692296	24139.069578
1.539000	-0.004277	0.000722	-0.002453	0.006417	6978.617357	45406.606784	3897.350226	24012.441236
2.036500	0.001065	0.000466	-0.002160	0.001230	7081.294297	45892.528701	3911.765002	24267.376991
2.537000	-0.000220	0.000556	-0.004458	0.000735	7073.495173	45950.475022	3907.000472	24291.846200
3.037500	0.002038	-0.000362	-0.001404	-0.001267	7115.676453	46058.298441	3920.408639	24391.213099
3.538000	-0.003416	-0.000277	-0.007905	0.005132	6999.346130	45434.648087	3886.512438	24075.305447
4.035000	0.000446	0.000271	-0.001946	0.000769	7079.728197	45918.878995	3913.553238	24290.189116
4.535500	-0.000255	-0.000037	0.001552	0.000524	7075.235190	45912.706739	3923.517394	24302.336304
5.036000	-0.001776	-0.000067	-0.001703	0.000522	7060.293481	45909.836559	3914.852138	24302.406662
5.536500	-0.002187	-0.000217	-0.001474	0.004383	7018.541215	45514.067889	3905.253188	24112.051760
6.036000	0.001212	0.000508	-0.002237	0.000247	7092.457791	45994.212202	3914.165274	24316.029937
6.536500	-0.000182	0.000265	-0.004055	0.000420	7076.980099	45952.886356	3908.896982	24307.463821
7.036500	0.001549	0.000685	-0.002430	0.000564	7092.652707	45980.258640	3912.812133	24300.317686
7.537000	-0.001387	0.000031	-0.002436	-0.000147	7070.693516	45986.005429	3914.681049	24335.566014
8.037500	0.000263	0.000057	-0.004856	0.000075	7084.774875	45966.513858	3907.693498	24324.549403
8.538000	0.000490	-0.000090	0.000000	0.000000	7087.757960	45959.362879	3920.772125	24328.278834
9.035500	-0.001006	-0.000640	-0.000909	-0.000280	7075.761835	45932.583787	3919.095624	24342.167601
9.535000	-0.001199	0.000000	0.002291	0.000159	7069.540866	45952.553376	3926.474014	24320.415335
10.036000	0.000202	-0.000594	0.002099	-0.000547	7090.319343	45963.672499	3927.852923	24355.422872
10.536500	0.000000	0.000694	0.004517	0.000244	7080.510679	46013.029701	3932.226993	24316.179985
11.036500	-0.000874	0.000801	-0.001308	0.000483	7069.540322	45999.801665	3916.003239	24304.328214
11.536500	0.000182	0.000004	-0.000378	-0.000065	7085.358982	45975.118083	3919.938083	24331.511386
12.037500	0.000609	0.000499	-0.000653	0.000519	7083.812596	45966.290614	3917.651355	24302.561845
12.537500	-0.000241	0.000222	-0.003679	0.001335	7067.392488	45857.976634	3907.475245	24262.209049
13.038000	0.003018	0.000767	-0.000450	-0.000373	7116.531466	46081.602844	3920.566644	24346.778478
13.535000	0.001719	0.000186	0.003080	-0.000259	7102.492796	46012.494663	3929.713887	24341.113693
14.035500	-0.000702	0.000112	-0.003440	0.003006	7046.466575	45681.960276	3903.704327	24179.768724
14.537500	-0.000975	0.000284	-0.003120	0.002018	7053.472793	45796.475515	3907.148941	24228.464570
15.036000	0.000682	0.000225	-0.005363	-0.000987	7099.433177	46088.828110	3909.159561	24377.288206
15.536500	0.003397	0.000925	0.002356	-0.000067	7117.257721	46066.845554	3927.252833	24331.598318
16.036500	0.001804	-0.000313	0.002685	-0.001092	7111.615078	46045.688609	3930.891807	24382.508611
16.538000	0.000685	0.001025	0.001436	0.001287	7076.984743	45942.357001	3921.170778	24264.569085
17.036500	0.003196	0.000658	-0.001373	-0.002078	7135.308506	46240.737251	3922.653900	24431.564664
17.537500	-0.000022	0.000766	-0.001235	0.001388	7069.020002	45906.539813	3913.795091	24259.552871
18.037500	-0.000275	0.000152	-0.002867	0.001367	7066.732638	45847.770537	3909.532290	24260.586679
18.535500	-0.001519	0.000120	-0.000743	0.001554	7052.681862	45826.138594	3914.661443	24251.358066
19.036000	0.000453	0.000522	-0.001190	0.001288	7074.678703	45892.311134	3914.181351	24264.498757
19.536000	-0.001887	0.000618	-0.002971	0.001800	7046.665840	45851.100352	3908.113790	24239.206242
20.036000	-0.003452	0.000160	-0.002534	0.001192	7037.309163	45865.934583	3910.875292	24269.237206
20.536500	-0.000606	0.000403	-0.002853	0.001695	7060.265763	45840.263580	3908.705238	24244.416329
21.037000	-0.001045	0.000521	0.003707	0.001531	7057.566283	45868.206902	3926.591670	24252.512410
21.537000	-0.000718	0.000748	0.000899	0.001919	7056.965180	45852.254694	3918.055482	24233.344070
22.037500	-0.000358	0.000243	0.000349	0.001661	7063.027992	45827.695331	3917.277557	24246.072176
22.537500	-0.000850	0.000645	0.004155	0.001713	7057.691089	45862.431934	3927.304079	24243.512225
23.035000	0.000801	0.000260	-0.002963	0.001681	7074.234175	45827.447899	3908.450233	24245.086402
23.535500	-0.001281	0.000195	-0.000673	0.001531	7055.239787	45835.801396	3914.908030	24252.487985
24.035500	0.000966	0.000577	0.000889	0.001722	7075.463704	45854.793085	3918.551738	24243.058336
24.536000	-0.001123	0.000310	-0.000471	0.001506	7057.047692	45849.725440	3915.512096	24253.749294
25.036500	-0.001181	0.000085	0.002470	0.001237	7059.108667	45854.124269	3924.066617	24267.035276
25.537000	-0.000256	0.000654	0.004069	0.002055	7060.163982	45829.512282	3926.157624	24226.654168
26.037000	-0.000702	0.000680	-0.000216	0.001554	7060.702731	45881.612296	3916.060785	24251.385890
26.537000	-0.001787	-0.000903	-0.001091	0.001358	7051.979867	45744.402125	3914.258055	24261.058256
27.034500	0.002483	0.000829	0.002593	-0.000483	7112.299978	46098.708222	3929.004782	24352.222048
27.535000	-0.000995	0.000595	0.003787	0.002222	7051.271350	45807.076757	3924.953487	24218.391320
28.035000	0.000839	0.000385	0.000033	-0.000321	7094.386845	46038.471620	3921.716541	24344.206826
28.535500	0.003015	0.001731	0.002249	0.000757	7105.271823	46065.016867	3924.756785	24290.756074
29.036000	0.000281	0.000242	0.002614	-0.000841	7094.011390	46075.906117	3930.024561	24370.013629
29.536000	-0.000917	0.000745	-0.000999	0.002963	7044.776065	45748.614826	3910.251310	24181.858548
30.036500	0.000017	0.000159	0.003257	-0.000661	7089.615718	46049.749552	3931.271233	24361.068793
30.537000	0.000731	0.000977	0.000932	0.004537	7045.499899	45616.343319	3911.195055	24104.495988
31.037000	-0.001753	0.000464	-0.000930	0.001204	7053.818800	45894.863478	3915.092407	24268.649703
31.537000	0.000268	0.000467	-0.003662	0.001835	7067.478952	45832.728974	3906.200238	24237.483376
32.037500	0.002012	0.001475	0.007899	0.000558	7097.297843	46059.426781	3940.520123	24300.615271
32.538000	0.000903	0.000852	0.003842	0.002413	7068.030647	45813.624362	3924.590741	24208.959661
33.035500	0.003416	0.001578	0.000804	-0.000301	7119.770338	46155.164402	3923.721153	24343.183842
33.535500	-0.000343	-0.000231	-0.002599	0.001369	7066.044872	45809.688794	3910.234182	24260.493942
34.036000	0.000492	0.000753	-0.003309	0.002695	7061.231501	45775.976253	3904.867462	24195.093182
34.536000	0.001080	0.000552	-0.000900	0.002775	7066.223138	45748.220999	3911.011281	24191.141609
35.036500	0.000625	0.000378	-0.001115	0.002636	7063.105860	45744.722506	3910.809690	24197.964350
35.537000	0.001469	0.001237	0.003006	0.003273	7065.145144	45766.708633	3920.060249	24166.627613
36.036500	-0.000232	0.000625	0.001823	0.002745	7053.626502	45758.402268	3918.315960	24192.616374
36.537000	0.000176	0.000096	-0.000473	0.002557	7059.470781	45724.659039	3912.717991	24201.865806
37.035000	-0.000576	0.001263	0.000805	0.003119	7046.593061	45784.381294	3914.615534	24174.180857
37.535000	-0.000046	0.000947	0.001026	0.003353	7049.490422	45730.194906	3914.583757	24162.694301
38.035500	-0.000796	0.000845	0.001024	0.003007	7045.538339	45754.261179	3915.494142	24179.707332
38.535500	-0.000142	0.000460	0.002910	0.002940	7052.596534	45722.779960	3920.692563	24182.992828
39.036500	-0.001270	0.000050	0.002236	0.002149	7049.297532	45760.450958	3921.003392	24221.985566
39.541500	-0.001721	0.000548	0.002993	0.002717	7039.325918	45753.476384	3921.507600	24193.981372
40.036500	-0.000297	0.001067	0.005445	0.003231	7048.228085	45754.004848	3926.693025	24168.668732
40.537000	0.001717	0.000670	0.001267	0.003227	7068.041764	45715.212267	3915.556645	24168.877674
41.037500	-0.000257	0.000405	0.000136	0.002752	7053.310288	45735.940174	3913.813803	24192.262141
41.537500	-0.001497	-0.000109	-0.000051	0.002514	7043.509084	45708.750849	3913.951444	24204.015219
42.035000	-0.000855	0.000164	-0.001325	0.002358	7051.315471	45750.992339	3910.987767	24211.678047
42.535000	-0.000702	0.000075	-0.000772	0.002394	7052.463625	45738.701351	3912.359463	24209.920346
43.035500	-0.000793	0.000980	0.000560	0.002693	7048.637632	45798.612920	3915.097899	24195.180686
43.536000	0.003072	0.000866	0.006426	0.000394	7109.438290	46015.174358	3936.974017	24308.751029
44.036000	0.001153	0.000481	0.000057	0.000102	7093.307616	46005.923565	3920.651319	24323.197824
44.536500	0.000869	0.000306	0.004319	0.000602	7085.563187	45938.949274	3930.729826	24298.472449
45.037000	0.001462	0.000702	0.002246	-0.000230	7099.651167	46060.899967	3927.394158	24339.667781
45.537000	-0.000339	0.000273	0.000405	0.001187	7067.875455	45877.626885	3918.689379	24269.508837
46.040000	0.001076	0.000895	0.003598	0.000283	7090.756361	46029.134566	3929.648216	24314.253019
46.534500	-0.002357	-0.000515	-0.005974	0.003245	7027.964691	45596.724947	3896.439618	24168.003623
47.035000	-0.002163	0.000025	-0.000318	0.003064	7031.627883	45667.740734	3911.786571	24176.923102
47.535500	-0.000155	0.001048	-0.000285	0.001906	7062.617803	45883.188717	3914.940186	24233.967369
48.036000	0.001774	-0.000612	0.001282	-0.000673	7107.157003	45974.399938	3926.000979	24361.693567
48.538500	-0.001720	0.000989	0.000848	0.004240	7024.477047	45646.808095	3911.759908	24119.082566
49.036500	0.001721	0.000542	0.000731	-0.001633	7116.157296	46184.695370	3927.093710	24409.375212
49.536500	-0.000104	-0.000188	-0.002015	0.001118	7070.879044	45838.843459	3912.445411	24272.938929
50.036500	-0.001858	-0.000949	0.005549	0.002668	7038.464333	45610.760027	3928.480881	24196.392427
50.537000	-0.039640	-0.016047	-0.002055	0.151761	5554.577329	32151.184153	3575.261523	17977.936073
51.037500	-0.035088	-0.000254	-0.007990	0.272096	4908.769087	25884.045838	3370.155378	14303.745251
51.535000	-0.026869	-0.006724	-0.017065	0.080873	6140.824126	38093.505041	3686.887500	20669.758961
52.035000	-0.031704	-0.052707	-0.036507	-0.204021	9171.254179	63938.012722	4466.024338	37239.928512
52.535500	-0.037640	-0.181206	-0.026974	-0.343729	11471.385313	65535.000000	5164.670760	50309.964192
53.035500	-0.038696	-0.156475	-0.017354	-0.318998	10971.190498	65535.000000	5082.521849	47679.882272
53.535500	-0.046190	-0.166675	-0.021099	-0.329198	11022.295835	65535.000000	5117.265019	48746.530656
54.036000	-0.040228	-0.135126	-0.009757	-0.297649	10551.574941	65535.000000	5010.203204	45526.843378
54.536500	-0.033151	-0.113342	-0.020472	-0.275865	10293.308958	65535.000000	4848.128041	43436.308420
55.037000	-0.018172	-0.124076	-0.016399	-0.286599	10750.651772	65535.000000	4920.468391	44453.271366
55.540000	-0.013989	-0.105699	-0.018763	-0.268222	10494.851024	65535.000000	4819.824317	42727.371488
56.035000	-0.008052	-0.069432	-0.011695	-0.230406	9949.896105	65311.852688	4679.185082	39397.406855
56.535000	-0.013250	-0.045749	-0.017780	-0.196410	9332.449945	63846.147792	4510.191480	36641.518553
57.035000	-0.002580	-0.021512	-0.014323	-0.154634	8880.573385	61432.162927	4362.579102	33537.480003
57.535500	-0.010744	-0.011246	-0.014701	-0.102275	8088.935356	56021.378585	4179.589587	30045.930809
58.036000	-0.012946	-0.010690	-0.016090	-0.090093	7916.466706	54617.068588	4135.989776	29292.198354
58.536000	-0.015825	-0.008956	-0.014730	-0.066104	7609.220593	52031.490455	4066.247052	27868.324769
59.036500	-0.017353	-0.009329	-0.017714	-0.053600	7456.163930	50594.864583	4020.564049	27156.764240
59.536500	-0.024105	-0.009695	-0.020634	-0.045593	7300.421819	49683.275001	3989.301381	26711.728749
60.037500	-0.023695	-0.008407	-0.023820	-0.032261	7168.340280	48402.505229	3943.509345	25988.704043
60.534500	-0.018859	-0.006943	-0.017456	-0.027131	7165.384715	48019.650019	3946.870627	25716.376415
61.035000	-0.020782	-0.006996	-0.016543	-0.022634	7101.251013	47548.921515	3937.134123	25480.250650
61.535500	-0.011908	-0.004350	-0.020155	-0.025926	7223.588218	48164.212953	3936.267771	25652.847211
62.035500	-0.013190	-0.004083	-0.019246	-0.023378	7184.696503	47926.784172	3931.845915	25519.114245
62.536000	-0.011657	-0.003794	-0.018352	-0.021917	7185.424092	47805.371539	3930.320276	25442.793527
63.039000	-0.010171	-0.003938	-0.019282	-0.021454	7195.781239	47742.578271	3926.578071	25418.667989
63.537000	-0.011815	-0.003548	-0.018276	-0.017438	7138.793581	47369.414226	3918.538431	25210.439958
64.037000	-0.010571	-0.003718	-0.018016	-0.015985	7136.709137	47203.322988	3915.366416	25135.562088
64.537000	-0.011556	-0.003179	-0.015031	-0.013164	7098.827281	46970.968499	3915.802406	24990.968448
65.040000	-0.013113	-0.002905	-0.021594	-0.010477	7056.965624	46726.542054	3891.493568	24854.031168
65.535000	-0.013877	-0.003315	-0.019979	-0.008791	7033.000055	46515.355972	3891.309863	24768.593705
66.035500	-0.014052	-0.003260	-0.013240	-0.007344	7017.196909	46375.656446	3905.150026	24695.498473
66.535500	-0.011842	-0.002657	-0.016386	-0.003084	6997.319692	46010.781516	3885.829395	24481.753079
67.035500	-0.014489	-0.003394	-0.015824	-0.003703	6977.730278	45998.930332	3888.886233	24512.649774
67.536000	-0.013697	-0.002731	-0.018077	-0.001368	6962.896428	45833.195548	3877.046172	24396.196348
68.036500	-0.012204	-0.002834	-0.013538	0.000022	6963.892107	45685.740479	3885.159056	24327.186065
68.536500	-0.012085	-0.001793	-0.014398	0.004856	6918.873843	45313.277055	3870.533600	24088.851383
69.037000	-0.013059	-0.001950	-0.017206	0.004661	6911.492270	45317.015509	3863.886400	24098.440064
69.542500	-0.015155	-0.001018	-0.014410	0.006066	6878.431296	45270.766709	3867.421540	24029.626145
70.035000	-0.012824	-0.001710	-0.014036	0.005862	6902.339700	45223.096927	3868.890908	24039.582867
70.535000	-0.013574	-0.001605	-0.016750	0.007976	6875.342526	45027.620712	3856.659095	23936.422915
71.035500	-0.013427	-0.001292	-0.015807	0.007230	6883.741123	45130.627287	3860.922344	23972.784497
71.535500	-0.011953	-0.001872	-0.015952	0.007287	6897.105615	45068.690556	3860.412489	23970.021866
72.036000	-0.012189	-0.001092	-0.020581	0.007828	6889.763519	45091.832983	3847.416058	23943.617419
72.536000	-0.012938	-0.001101	-0.016961	0.008427	6877.079876	45032.750705	3854.993181	23914.504156
73.036500	-0.012570	-0.000992	-0.020996	0.008910	6875.995311	44996.475401	3843.682874	23891.021561
73.539500	-0.011751	-0.000867	-0.013021	0.009015	6882.718022	44998.425269	3863.457467	23885.927467
74.037000	-0.012359	-0.000952	-0.022043	0.008619	6880.718957	45028.562320	3841.802304	23905.149019
74.537000	-0.013249	-0.000790	-0.016841	0.011198	6848.207602	44794.533759	3848.341160	23780.166449
75.034500	-0.014448	-0.001259	-0.018229	0.010431	6844.184173	44823.278301	3846.788703	23817.254508
75.535000	-0.011678	-0.000436	-0.016356	0.010769	6866.914383	44870.147925	3850.629336	23800.892089
76.035500	-0.013143	-0.001171	-0.015216	0.010185	6858.668557	44855.572021	3854.958168	23829.170107
76.536000	-0.014189	-0.001153	-0.017507	0.012658	6825.876168	44618.865926	3843.038683	23709.731513
77.035500	-0.011957	-0.001717	-0.020566	0.011548	6857.016882	44671.446376	3838.200822	23763.291575
77.536500	-0.011354	-0.001354	-0.016816	0.010900	6868.737555	44768.956213	3849.151327	23794.600245
78.036500	-0.013444	-0.002240	-0.016674	0.009857	6858.923949	44784.071111	3852.120117	23845.082817
78.537000	-0.014260	-0.001394	-0.014098	0.012391	6827.695189	44621.400710	3852.227169	23722.629273
79.040000	-0.013010	-0.001257	-0.020125	0.012988	6833.766105	44577.209352	3835.728064	23693.867471
79.537000	-0.012591	-0.000915	-0.022237	0.010934	6856.823843	44807.987328	3835.585086	23792.940305
80.035000	-0.012816	-0.001404	-0.011783	0.010946	6854.610690	44759.585247	3861.701163	23792.342034
80.535000	-0.013183	-0.001424	-0.015265	0.011831	6842.920700	44672.370443	3850.702580	23749.592649
81.035500	-0.014045	-0.001412	-0.015040	0.010728	6845.172589	44779.834075	3854.035924	23802.889352
81.535500	-0.013722	-0.002282	-0.019194	0.010156	6853.534031	44751.157428	3845.068617	23830.602996
82.036000	-0.013747	-0.002350	-0.017396	0.009805	6856.578382	44778.430341	3850.441207	23847.604144
82.536500	-0.013442	-0.002239	-0.022390	0.010369	6854.145460	44734.687211	3836.602231	23820.253577
83.036500	-0.013105	-0.001951	-0.013232	0.009947	6861.249803	44803.233217	3860.564194	23840.695829
83.537000	-0.013316	-0.002262	-0.018200	0.009518	6863.296351	44814.713426	3849.146972	23861.526814
84.037500	-0.012513	-0.002930	-0.018753	0.009641	6869.670930	44738.288299	3847.454376	23855.540949
84.534500	-0.011378	-0.002525	-0.013346	0.010079	6876.209151	44735.112476	3859.940057	23834.295364
85.034500	-0.014872	-0.001788	-0.021006	0.013262	6813.952278	44499.944955	3832.875948	23680.696702
85.535500	-0.014148	-0.002959	-0.016972	0.009938	6851.589166	44706.933422	3851.168712	23841.159464
86.035500	-0.014430	-0.004463	-0.015306	0.009007	6857.651138	44651.666851	3857.698927	23886.299565
86.535500	-0.014682	-0.002920	-0.015951	0.010155	6844.569361	44689.740227	3853.185339	23830.623274
87.036000	-0.016966	-0.003345	-0.019091	0.014137	6786.567989	44267.309781	3835.443761	23638.644703
87.539500	-0.015360	-0.003184	-0.015804	0.010197	6837.861077	44660.170916	3853.449209	23828.576496
88.076000	-0.012964	-0.003524	-0.012383	0.010144	6860.722417	44632.571707	3862.212739	23831.140631
88.539500	-0.017843	-0.003560	-0.019729	0.011567	6802.156059	44492.501334	3840.227761	23762.343256
89.037000	-0.019597	-0.003610	-0.015840	0.013843	6765.144089	44270.154290	3844.238930	23652.756519
89.534500	-0.015481	-0.003933	-0.016382	0.010842	6830.741764	44526.300649	3850.382972	23797.387485
90.035000	-0.014623	-0.003205	-0.016434	0.010972	6837.519911	44583.761078	3849.926910	23791.120250
90.538500	-0.015896	-0.003605	-0.015730	0.012140	6814.848992	44433.280608	3848.764912	23734.689499
91.036000	-0.017600	-0.003524	-0.022481	0.014923	6773.537103	44175.443991	3825.172839	23600.947482
91.539000	-0.016212	-0.003349	-0.015121	0.011392	6818.857499	44529.601460	3852.166542	23770.817324
92.036500	-0.015327	-0.004267	-0.013313	0.010808	6832.489341	44497.524942	3858.185405	23799.051037
92.536500	-0.016231	-0.004544	-0.017505	0.010649	6825.568402	44486.210389	3848.053416	23806.705984
93.037500	-0.020192	-0.004311	-0.017765	0.015161	6747.695346	44078.047002	3836.191252	23589.575109
93.537500	-0.016785	-0.004092	-0.014449	0.011546	6812.127525	44443.532867	3853.467163	23763.374871
94.037500	-0.015803	-0.004452	-0.014588	0.011353	6823.007908	44427.521845	3853.600450	23772.665661
94.535000	-0.017432	-0.003775	-0.011595	0.013986	6783.672407	44240.835286	3854.506772	23645.911880
95.035000	-0.021317	-0.005174	-0.018204	0.016301	6727.131400	43888.296645	3832.290147	23535.027378
95.535500	-0.017048	-0.004450	-0.013661	0.011387	6811.160502	44424.459494	3855.847431	23771.026449
