sample name	sample
index	676
start time	 03-22-2021  11:32:07 AM
880	0.340593
Peak Time (s)	181.535
Peak Height 	0.3406
calc peak height	180,183
Baseline Time (s)	10.536
Baseline Value 	-0.002401
subtract baseline	10,4
Abs	0.206154
Peak Time (s)	182.535
Peak Height 	0.2062
calc peak height	180,183
Baseline Time (s)	9.04
Baseline Value 	0.004585
subtract baseline	10,3
PK_550	0.120279
Peak Time (s)	180.537
Peak Height 	0.1203
calc peak height	180,183
Baseline Time (s)	11.537
Baseline Value 	0.001092
subtract baseline	10,2
PK_880	0.199827
Peak Time (s)	180.537
Peak Height 	0.1998
calc peak height	180,183
Baseline Time (s)	8.54
Baseline Value 	0.003801
subtract baseline	10,1


Time (s)	A880-A510	A880-A775	A880-A975	A880	I510	I775	I975	I880	
0.037500	-0.003959	-0.000436	-0.002235	-0.000621	7357.521487	45830.001543	3952.802423	24137.681896
0.535500	-0.003024	-0.000662	-0.002432	0.004613	7312.776501	45293.053423	3938.259455	23882.174548
1.036000	-0.003701	-0.000569	-0.002541	0.002118	7331.643267	45546.754941	3944.623421	24003.569164
1.539000	-0.000491	-0.001574	-0.003249	-0.001774	7406.123593	45831.563316	3953.178079	24194.402594
2.036500	-0.001059	-0.001341	0.002327	-0.001559	7397.847875	45833.235063	3967.715039	24183.779290
2.536500	-0.006183	-0.001129	-0.005720	0.004271	7283.687077	45280.845364	3930.443560	23898.765158
3.037000	0.000861	-0.000645	-0.000476	-0.002596	7429.157814	46005.118298	3962.904823	24234.878783
3.537000	-0.001315	-0.000303	0.003987	-0.000715	7386.253342	45852.515749	3969.944980	24142.275030
4.040000	-0.001872	-0.000500	0.001500	-0.000948	7382.852163	45856.135239	3963.800559	24153.763999
4.535000	-0.002260	0.000067	-0.000824	-0.001113	7380.493502	45928.607733	3957.940441	24161.854719
5.035500	-0.000031	-0.001095	-0.004504	-0.001593	7409.066657	45860.979073	3949.311694	24185.462150
5.535000	-0.002048	-0.001132	0.000238	-0.001399	7385.735640	45838.146664	3961.593461	24175.917295
6.035500	-0.000750	-0.000829	-0.002084	-0.001058	7395.827070	45834.421540	3954.386589	24159.158054
6.536500	-0.001575	-0.000821	-0.001515	-0.000807	7384.481357	45810.354789	3955.244833	24146.817084
7.036500	0.000116	-0.000427	0.000729	-0.000432	7398.360834	45812.278107	3960.302307	24128.404433
7.536000	-0.002235	-0.000757	0.002523	-0.000702	7376.443739	45806.340741	3965.915528	24141.673025
8.037000	-0.001391	-0.000321	-0.001318	-0.000266	7380.734517	45806.311810	3954.315668	24120.252430
8.540000	0.000000	-0.000158	0.001149	-0.000424	7397.042073	45838.049837	3961.419980	24127.985258
9.039500	-0.001708	0.000123	0.000000	-0.000487	7379.718778	45872.194217	3958.477114	24131.110997
9.538000	-0.002471	-0.000764	0.000077	-0.000102	7367.666920	45746.225887	3957.642160	24112.190161
10.035500	-0.000219	0.000148	-0.001292	0.000276	7387.362759	45799.121811	3952.925415	24093.670904
10.535500	0.000765	0.000036	-0.002985	0.000000	7400.647358	45815.329837	3949.113564	24107.198190
11.036000	0.000003	-0.000070	-0.002068	0.000345	7388.973475	45770.729163	3950.650702	24090.279704
11.536500	0.000786	0.000000	0.001294	0.000201	7398.746566	45791.887829	3960.118310	24097.361676
12.036500	-0.000205	-0.000443	0.000123	-0.000447	7395.117614	45812.099852	3958.699430	24129.111236
12.537000	-0.001423	-0.000162	-0.001077	-0.000006	7377.661262	45796.349373	3954.266230	24107.495989
13.040000	0.001520	-0.000213	0.003174	-0.001716	7426.811307	45960.650321	3970.458879	24191.500952
13.537000	0.000101	0.000023	0.001955	0.000092	7392.666362	45804.884603	3962.209025	24102.696477
14.042500	-0.000711	-0.000493	-0.002263	0.000957	7375.021022	45668.501067	3948.479219	24060.294850
14.535500	-0.002804	-0.000007	-0.001303	0.003431	7327.314592	45472.934983	3944.422209	23939.580869
15.038000	0.000593	0.000485	0.000748	0.001459	7383.458750	45715.465631	3955.236639	24035.767862
15.535500	0.001917	0.000146	-0.001430	0.000482	7407.726502	45778.459034	3951.998661	24083.558909
16.036000	-0.001102	0.000563	-0.000562	0.001400	7366.274540	45728.986383	3951.864617	24038.643958
16.536500	-0.000723	-0.000033	0.001007	0.003538	7347.869101	45459.901735	3950.332436	23934.370423
17.037000	-0.000105	-0.000197	0.002284	0.000190	7389.466126	45773.454982	3962.837207	24097.892988
17.539500	0.003537	0.000661	0.006808	-0.001718	7448.305466	46047.650397	3980.445878	24191.604043
18.037500	-0.000870	-0.000741	0.003051	0.001737	7365.177129	45567.259403	3960.718312	24022.175268
18.537500	-0.001356	0.000611	0.005732	0.002884	7348.096281	45587.452657	3964.886679	23966.218860
19.035000	0.000689	0.000183	-0.003643	0.002900	7369.325216	45543.749133	3939.594418	23965.434780
19.535500	0.000888	0.000207	0.007594	0.003421	7365.941182	45494.944803	3968.499195	23940.061017
20.035500	0.000952	0.000356	-0.002087	0.003072	7370.281714	45543.851087	3943.287924	23957.065058
20.535500	-0.000625	0.001080	0.001385	0.003480	7349.502545	45574.989567	3951.507138	23937.221467
21.036000	-0.001555	0.000844	0.003614	0.003202	7342.704436	45579.112784	3958.272442	23950.733866
21.536000	-0.000202	0.000377	0.002922	0.003074	7358.177928	45545.808462	3956.749213	23956.987598
22.039500	0.000236	0.000305	0.003355	0.003411	7359.220990	45505.504974	3957.007523	23940.551361
22.537000	-0.000979	0.000488	0.001068	0.003010	7350.713645	45562.953500	3951.918117	23960.087681
23.037000	0.002377	0.001177	0.000529	0.004194	7373.461000	45514.303566	3947.286339	23902.480507
23.537500	0.001265	0.000318	0.000530	0.003511	7368.956135	45497.025006	3949.121826	23935.692169
24.038000	0.001477	0.000846	0.000996	0.003912	7366.973571	45509.429245	3949.296512	23916.173719
24.535500	0.000851	0.000350	0.004522	0.003359	7366.209667	45515.024439	3960.307265	23943.082349
25.035500	0.000284	0.000181	0.004801	0.003472	7359.087784	45487.348636	3960.757388	23937.574463
25.536000	0.000147	0.001882	0.003834	0.004394	7348.022119	45563.947825	3955.645518	23892.795417
26.036000	0.001005	0.000260	0.000922	0.003642	7364.858593	45478.380798	3949.822444	23929.303885
26.539000	-0.001669	0.000086	0.008708	0.003457	7338.855073	45479.552132	3971.447844	23938.326480
27.036500	0.001311	0.001487	0.005315	0.005118	7352.610633	45453.982240	3957.690169	23857.651647
27.537000	0.002997	0.000991	0.001104	0.003771	7384.419251	45537.582243	3949.965490	23923.032282
28.037000	0.002802	0.000981	0.006973	0.000982	7411.805071	45811.642598	3973.475299	24059.094994
28.537500	0.002440	0.000543	0.001216	0.002659	7390.256464	45602.823355	3953.259914	23977.166313
29.054000	0.003005	0.000291	0.003860	0.002617	7396.672745	45582.297029	3960.526276	23979.257550
29.535000	0.001400	0.001312	0.001987	0.003235	7373.274433	45621.901416	3953.788841	23949.124281
30.035500	0.000102	0.000807	0.008843	0.004079	7350.839538	45489.304766	3970.115447	23908.099719
30.536000	0.000892	0.000676	0.008514	0.005189	7347.498489	45367.520663	3966.184958	23854.196436
31.054000	0.001454	0.001088	0.002022	0.003405	7372.055774	45583.131923	3953.425579	23940.876051
31.536500	0.000670	0.000869	0.002133	0.006485	7331.675185	45259.734910	3945.444690	23791.497159
32.037000	0.001253	0.001878	0.001178	0.006432	7338.296757	45363.554296	3943.031956	23794.063213
32.544500	0.000057	0.001341	-0.002205	0.005268	7337.964090	45424.986073	3937.117374	23850.380048
33.037500	0.001924	0.000619	0.004341	0.003259	7378.522945	45551.388971	3960.088478	23947.959802
33.538000	0.002587	0.000861	0.004039	0.003615	7381.748576	45540.161027	3958.306784	23930.632306
34.035500	0.002404	0.001055	0.002032	0.004548	7370.026816	45467.589290	3950.373612	23885.295201
34.535500	0.000630	0.000919	0.003473	0.005887	7337.481864	45323.048786	3950.647776	23820.407017
35.036000	0.003127	0.001729	0.004074	0.006576	7356.365725	45334.901197	3950.411327	23787.120429
35.539000	0.001736	0.001955	0.007694	0.007241	7334.910549	45291.958719	3958.384693	23755.018110
36.036500	0.001864	0.000528	0.007271	0.006257	7346.491495	45248.647025	3959.904101	23802.509196
36.536500	0.003366	0.001968	0.005902	0.007708	7347.034395	45247.638656	3952.284840	23732.505075
37.037000	0.001660	0.001338	0.005545	0.006826	7338.435150	45272.209792	3953.696954	23775.027385
37.537000	-0.000770	0.001014	0.008315	0.006308	7318.564652	45291.143547	3962.597832	23800.056271
38.034500	0.002091	0.001600	0.003876	0.006891	7342.260600	45291.561634	3949.033623	23771.918792
38.535000	0.001737	0.001909	0.002513	0.007407	7333.195186	45271.299641	3943.996357	23747.025298
39.035500	0.000082	0.001288	0.004469	0.006491	7325.497547	45299.996338	3951.701741	23791.192502
39.536000	0.003272	0.002130	0.004444	0.007459	7348.651188	45287.784855	3949.034226	23744.518680
40.038500	0.001566	0.001856	0.006623	0.007448	7330.989198	45262.108505	3954.929425	23745.034320
40.536000	0.001637	0.001316	0.003736	0.006621	7340.334312	45290.053603	3949.379689	23784.926527
41.039000	0.001141	0.001687	0.004697	0.006875	7332.516512	45301.483385	3951.282344	23772.656610
41.537000	0.002343	0.001422	0.006849	0.006933	7344.434127	45269.981548	3956.928925	23769.853576
42.037000	0.003001	0.000967	0.005655	0.007029	7350.305531	45216.228463	3953.447061	23765.243960
42.537000	0.001330	0.000691	0.004151	0.006706	7336.253718	45220.855993	3950.268504	23780.841487
43.035000	0.001621	0.001140	0.000361	0.006825	7338.041810	45252.935990	3939.802843	23775.066971
43.535000	0.001339	0.000690	0.003465	0.006758	7335.799012	45215.595683	3948.284101	23778.311979
44.035000	-0.001684	0.000880	0.001478	0.006844	7303.552141	45225.742362	3942.735260	23774.166356
44.538500	0.004225	0.001816	0.010176	0.003989	7395.065784	45597.286297	3974.013471	23912.461440
45.036500	0.003309	0.002899	0.006733	0.004797	7376.913119	45624.386907	3962.404814	23873.213322
45.536500	0.002912	0.001298	0.006795	0.004850	7372.183593	45461.800845	3962.430962	23870.651592
46.036500	0.001974	0.002142	0.006160	0.007611	7333.531806	45274.167973	3953.239997	23737.183996
46.537000	0.002344	0.001786	0.003126	0.006204	7352.055727	45376.861160	3948.861193	23805.069927
47.037000	0.001988	0.002005	0.006150	0.005507	7355.620695	45466.637043	3958.898232	23838.804690
47.535000	0.003558	0.001675	0.007287	0.004916	7378.281980	45492.374753	3963.588984	23867.467019
48.062500	0.000921	0.002299	0.007369	0.007886	7319.731037	45262.577258	3955.760988	23723.904422
48.535500	0.002589	0.001684	0.007720	0.008326	7332.496847	45159.701550	3955.520271	23702.738580
49.038500	0.000449	0.001759	0.004963	0.007505	7318.789757	45247.007615	3950.302157	23742.279449
49.536500	0.004978	0.002336	0.007156	0.005783	7384.100418	45472.110270	3960.878349	23825.471302
50.036500	0.003131	0.001752	0.008685	0.006687	7355.245487	45326.322095	3962.576797	23781.768542
50.536500	0.001761	0.001568	0.004202	0.005881	7349.349280	45387.213157	3952.627290	23820.715555
51.037000	0.003376	0.001861	0.010223	0.003493	7391.348391	45650.610124	3975.503805	23936.592509
51.537000	0.004879	0.002856	0.006023	0.009906	7339.880545	45119.888147	3946.703085	23626.846570
52.037500	0.008368	0.002519	0.009638	0.007110	7405.855207	45359.943870	3964.015507	23761.317957
52.535000	-0.050694	-0.015567	0.005442	0.167953	5581.591104	31005.018521	3590.484658	17275.843213
53.035000	-0.041115	-0.023408	-0.021869	-0.104887	8116.721484	54677.813677	4204.596477	29925.732834
53.538000	-0.042271	-0.152118	-0.009616	-0.316197	11416.862295	65535.000000	5162.018721	46921.005459
54.035500	-0.040799	-0.156073	-0.010434	-0.320152	11525.030589	65535.000000	5179.271858	47324.554982
54.536000	-0.053547	-0.140697	-0.015592	-0.304775	10978.805477	65535.000000	5068.584376	45775.992648
55.036500	-0.046691	-0.107045	-0.007623	-0.271123	10490.290970	65535.000000	4937.310705	42572.220845
55.536500	-0.019010	-0.105986	-0.014851	-0.270064	10975.543680	65535.000000	4896.585474	42475.402020
56.037000	-0.015931	-0.109523	-0.011257	-0.273602	11100.838969	65535.000000	4931.585904	42799.832536
56.536500	-0.004960	-0.106866	-0.012337	-0.270944	11260.979864	65535.000000	4913.171216	42555.842851
57.037000	-0.004642	-0.101277	-0.007261	-0.265356	11159.087185	65535.000000	4910.656991	42047.649894
57.535000	-0.009221	-0.053005	-0.006492	-0.208046	10050.774774	64243.918826	4650.873475	37196.567711
58.037500	-0.006016	-0.031972	-0.002655	-0.173806	9551.683201	62405.070868	4524.549606	34589.414000
58.535500	-0.005970	-0.016404	-0.003449	-0.131660	8929.231916	58869.644072	4360.549392	31650.073482
59.036000	-0.001538	-0.007734	0.002515	-0.090478	8433.074464	54828.936998	4237.635434	29040.746718
59.536000	0.001531	-0.002892	0.006987	-0.061841	8111.831628	52057.598351	4158.880561	27366.739204
60.036500	0.003573	0.000609	0.014445	-0.037373	7845.220014	49738.340778	4106.016523	26021.321338
60.537000	0.007036	0.004094	0.018492	-0.010999	7586.697700	47331.009208	4039.691301	24653.504535
61.037500	0.007858	0.006448	0.019905	0.014158	7326.634782	45055.750217	3972.804892	23424.019996
61.537500	0.023521	0.014307	0.024500	0.037931	7243.153718	43537.101478	3921.385055	22325.789958
62.035000	0.019874	0.013552	0.025610	0.056589	7021.433042	41758.446982	3876.288232	21505.016629
62.538000	0.017709	0.014576	0.031434	0.058138	6985.619078	41711.426350	3887.107930	21438.464894
63.035500	0.036300	0.020881	0.032219	0.067300	7077.169630	41456.602461	3866.007171	21049.535492
63.536000	0.037693	0.021072	0.035313	0.069662	7067.661665	41264.042259	3867.832880	20950.563727
64.036000	0.042175	0.022828	0.038261	0.070262	7105.854942	41366.406092	3873.715549	20925.511049
64.536000	0.045275	0.025200	0.037487	0.072697	7112.427649	41360.905015	3865.682829	20824.218352
65.044500	0.044985	0.026314	0.046382	0.072684	7109.687951	41460.971298	3888.129361	20824.761311
65.537000	0.045235	0.026246	0.044250	0.073000	7109.037785	41426.842848	3881.915138	20811.665316
66.037000	0.048169	0.027696	0.044832	0.076867	7099.814709	41212.669068	3873.630719	20652.050225
66.537500	0.050504	0.028569	0.046442	0.077308	7118.551185	41250.896931	3876.571485	20633.945088
67.038000	0.050510	0.028535	0.049441	0.078729	7104.546062	41122.441626	3880.552531	20575.704180
67.535500	0.052060	0.029874	0.049385	0.081359	7093.896565	41008.868160	3873.783009	20468.429859
68.035500	0.052594	0.031012	0.053445	0.085629	7057.244683	40734.657987	3873.256939	20295.653233
68.536000	0.055505	0.032684	0.054766	0.086662	7075.627592	40790.411073	3873.979556	20254.095373
69.036000	0.058562	0.033169	0.053774	0.089613	7076.668431	40575.589296	3864.115326	20135.955657
69.536500	0.059154	0.034115	0.055645	0.092558	7053.638113	40402.368576	3861.443766	20018.838962
70.036000	0.058629	0.034283	0.054603	0.098133	6994.505534	39937.679959	3845.128348	19799.301096
70.537000	0.062397	0.036219	0.060667	0.099070	7021.849259	40023.125568	3857.749123	19762.696370
71.037500	0.066343	0.036966	0.055494	0.101530	7036.268276	39876.732243	3839.016462	19666.912521
71.537500	0.067272	0.038115	0.061022	0.104412	7017.323099	39729.288069	3845.472228	19555.397977
72.035000	0.065696	0.038827	0.059168	0.109814	6950.332303	39333.219196	3827.861010	19348.391792
72.535000	0.070319	0.039831	0.066911	0.109634	6996.321542	39432.740022	3847.105384	19355.229633
73.036000	0.070407	0.040874	0.068165	0.112106	6973.432830	39312.612651	3844.125095	19261.301333
73.536000	0.074258	0.041936	0.067032	0.114457	6987.822547	39204.558848	3835.642029	19172.474206
74.036500	0.070882	0.042942	0.070863	0.120259	6900.551163	38805.336747	3830.874573	18955.324948
74.536500	0.075284	0.043713	0.069451	0.119169	6952.556771	38959.708144	3830.096493	18995.895537
75.037000	0.078794	0.044585	0.072712	0.120998	6968.595989	38880.195543	3833.557184	18927.855471
75.537500	0.077110	0.044669	0.073601	0.122805	6935.344991	38737.566894	3831.338897	18860.929652
76.040500	0.076363	0.045912	0.074422	0.129425	6866.018163	38295.918988	3817.425162	18618.055955
76.535000	0.080907	0.046750	0.079789	0.127646	6925.445661	38510.210634	3834.595587	18682.966433
77.035500	0.080999	0.047649	0.078815	0.129599	6907.863960	38423.764933	3827.528766	18611.730032
77.535000	0.083699	0.049124	0.079979	0.132172	6909.068242	38333.976470	3824.145021	18518.396283
78.036000	0.084050	0.048944	0.085670	0.133659	6898.362468	38197.982915	3834.274774	18464.672546
78.536500	0.086909	0.048658	0.079917	0.135270	6910.119555	38043.896451	3816.593220	18406.716025
79.036000	0.086627	0.051522	0.089054	0.138300	6879.007349	38030.514512	3831.236853	18298.265645
79.537000	0.088138	0.051967	0.087741	0.140474	6872.806390	37890.664307	3822.848997	18220.903474
80.036500	0.084620	0.051826	0.081110	0.146086	6788.377623	37429.545412	3793.932188	18023.006182
80.540000	0.088860	0.052315	0.086682	0.144466	6842.361940	37597.886301	3810.820858	18079.882031
81.035500	0.090950	0.053124	0.093908	0.146538	6842.520343	37496.920542	3823.094672	18007.162777
81.535000	0.092493	0.054667	0.092215	0.148698	6836.808183	37447.764043	3813.905807	17931.762554
82.035500	0.092190	0.055335	0.097723	0.155155	6774.685108	36989.706474	3811.654452	17708.573861
82.535500	0.094375	0.054963	0.095953	0.152805	6816.255848	37145.505866	3813.029608	17789.426285
83.036000	0.094269	0.056040	0.096652	0.154824	6796.722068	37071.212265	3809.902813	17719.941812
83.536500	0.098055	0.057440	0.102704	0.157460	6807.269587	36973.903992	3818.012926	17629.668553
84.036500	0.097206	0.057554	0.105470	0.164727	6733.343673	36416.471643	3807.338013	17383.720106
84.537000	0.098818	0.058468	0.096990	0.161518	6777.097377	36736.681133	3794.974877	17491.830513
85.040000	0.100294	0.058162	0.104416	0.162833	6778.567427	36610.422889	3809.323690	17447.440320
85.534500	0.101822	0.060413	0.106288	0.165859	6764.910782	36550.206301	3806.595859	17345.772913
86.036000	0.098716	0.060370	0.106379	0.172667	6675.754120	36022.775064	3790.879549	17119.658367
86.535500	0.102447	0.061087	0.106560	0.169371	6738.746339	36330.729620	3798.988010	17228.703680
87.035500	0.104871	0.062012	0.109676	0.171703	6739.574573	36222.434537	3800.822360	17151.466553
87.536000	0.106325	0.062678	0.111980	0.173739	6734.318699	36117.357262	3801.451679	17084.384139
88.036500	0.104475	0.062029	0.104204	0.180252	6659.554423	35573.202334	3768.471628	16871.870007
88.536000	0.106326	0.062369	0.116075	0.176257	6711.660131	35901.479033	3805.156460	17001.830953
89.036500	0.110046	0.065068	0.118554	0.180050	6711.011250	35818.276483	3802.069343	16878.406437
89.540000	0.109424	0.065475	0.114048	0.181308	6694.172405	35753.718762	3788.625337	16837.698562
90.036500	0.105753	0.065590	0.118672	0.188183	6601.089401	35245.555724	3783.423611	16617.341391
90.534500	0.109628	0.066740	0.121138	0.184818	6664.751401	35584.088307	3796.952739	16724.761599
91.038000	0.113007	0.067247	0.122119	0.186921	6676.076757	35464.010302	3794.335489	16657.523003
91.535000	0.113933	0.067839	0.118789	0.188799	6667.625985	35367.585537	3782.276038	16597.778635
92.035500	0.111078	0.068814	0.115975	0.197574	6565.807320	34788.739856	3755.949884	16321.923185
92.536000	0.114902	0.069292	0.120276	0.192766	6641.120821	35179.912143	3776.582567	16472.394639
93.035500	0.118186	0.070620	0.126104	0.195786	6643.440449	35054.175662	3783.029244	16377.673598
93.536500	0.117857	0.070704	0.123388	0.197144	6628.602745	34959.897623	3773.688915	16335.329368
94.039500	0.116475	0.069947	0.123984	0.205329	6545.496197	34305.515981	3756.520297	16082.766464
94.537000	0.120456	0.071056	0.126411	0.200955	6617.970688	34705.131303	3771.892951	16217.134698
95.040500	0.120349	0.073131	0.122766	0.203630	6593.676849	34661.110399	3757.597018	16134.775324
95.538000	0.121977	0.072922	0.131068	0.204779	6597.847910	34561.803241	3773.790493	16099.569621
96.035500	0.121129	0.073570	0.131470	0.213035	6519.360213	34011.111327	3756.025246	15849.270611
96.535500	0.127842	0.075105	0.130556	0.210102	6602.571803	34333.372638	3760.561677	15937.645812
97.038500	0.124567	0.074322	0.134185	0.210538	6570.348747	34245.094569	3767.778688	15924.474769
97.536000	0.126652	0.075281	0.138966	0.212270	6573.400658	34189.292447	3774.720329	15872.269355
98.036500	0.122498	0.075273	0.133737	0.220142	6470.729252	33625.735963	3745.237790	15637.583940
98.539000	0.127572	0.076821	0.140953	0.216498	6544.879382	33995.924212	3769.614846	15745.705834
99.037000	0.128518	0.076950	0.139739	0.218003	6540.073866	33897.387292	3763.454279	15700.935035
99.537000	0.129550	0.078223	0.138283	0.220610	6526.587236	33802.177697	3754.319585	15623.769320
100.037500	0.126821	0.078863	0.140142	0.228088	6440.355703	33318.622508	3741.827295	15404.980851
100.535000	0.131310	0.079249	0.142779	0.223901	6513.528928	33641.148153	3757.020374	15527.024306
101.036000	0.129286	0.078971	0.140524	0.224664	6489.865887	33567.479130	3750.271974	15504.702043
101.535500	0.132529	0.080940	0.142677	0.227605	6492.416549	33498.719053	3748.517994	15418.994302
102.035500	0.135902	0.080958	0.143722	0.228884	6510.191338	33409.849439	3747.996348	15381.899957
102.536000	0.138049	0.081896	0.147268	0.231044	6510.088667	33324.034595	3751.083173	15319.525395
103.039500	0.135811	0.082862	0.141737	0.232939	6475.081593	33258.872402	3734.662269	15265.042041
103.537000	0.136744	0.083051	0.146007	0.234064	6473.462429	33193.371919	3741.582205	15232.810257
104.039500	0.133374	0.082645	0.148285	0.241003	6387.631202	32684.538656	3731.345692	15035.874763
104.534500	0.138636	0.083755	0.148373	0.237169	6463.256718	33026.136886	3739.950632	15144.294791
105.040500	0.140014	0.084802	0.153102	0.239331	6456.676648	32948.785586	3745.627200	15083.044587
105.534500	0.136859	0.083559	0.153463	0.239604	6428.042227	32843.895172	3745.823144	15075.324064
106.038500	0.136915	0.085059	0.151239	0.248235	6357.383842	32355.377661	3722.042631	14833.909759
106.535500	0.141162	0.085578	0.157777	0.243655	6430.131562	32703.822968	3746.405193	14961.413869
107.035500	0.141515	0.086039	0.154666	0.245443	6418.214491	32612.757336	3735.594671	14911.494856
107.539000	0.143046	0.087042	0.156724	0.247334	6415.223155	32551.954311	3735.960188	14858.885251
108.036500	0.138243	0.086567	0.154254	0.254095	6320.608291	32061.161094	3715.910312	14672.742869
108.537000	0.147441	0.089378	0.162043	0.251646	6415.907215	32417.076352	3738.173362	14739.823450
109.037500	0.145740	0.088089	0.153395	0.251571	6402.446228	32334.581839	3719.493083	14741.884573
109.537000	0.145069	0.088088	0.159209	0.252559	6388.766510	32267.468515	3729.963633	14714.758705
110.036000	0.141773	0.088219	0.155985	0.260556	6297.025192	31739.471039	3705.799339	14497.520384
110.535500	0.145256	0.088632	0.157993	0.255338	6367.504225	32116.481426	3721.288375	14638.820312
111.036000	0.150183	0.091281	0.161309	0.258724	6380.133470	32066.908083	3721.138185	14546.931091
111.535500	0.149127	0.090632	0.163733	0.259239	6367.260937	31988.739596	3725.273776	14533.033151
112.038500	0.146354	0.090455	0.156035	0.265789	6291.796741	31540.782160	3694.844118	14357.496714
112.536500	0.149848	0.091936	0.162205	0.262481	6346.688246	31858.936075	3714.973934	14445.803030
113.036500	0.149529	0.092037	0.160294	0.263180	6338.418753	31819.004258	3709.387378	14427.095918
113.537000	0.151992	0.093126	0.168949	0.265078	6343.015914	31765.158302	3723.921101	14376.438850
114.037000	0.149526	0.092580	0.166128	0.271306	6273.075681	31317.584365	3704.509546	14211.713389
114.535000	0.151370	0.094720	0.167760	0.268692	6308.757971	31630.951869	3713.566622	14280.560456
115.038000	0.151769	0.093439	0.163530	0.268732	6311.644956	31543.507119	3704.457629	14279.486429
115.535000	0.153707	0.093937	0.165146	0.270185	6315.560971	31480.487752	3704.804814	14241.191052
116.035500	0.152770	0.093184	0.168153	0.276210	6259.868011	31037.099837	3698.415992	14083.641505
116.539000	0.155484	0.094393	0.167862	0.272521	6311.047756	31356.772293	3705.610315	14179.842093
117.036000	0.153853	0.095438	0.171463	0.273720	6288.340521	31346.726305	3710.731429	14148.501506
117.536500	0.154715	0.095227	0.166620	0.275014	6284.882769	31248.103910	3697.707491	14114.750711
118.036500	0.152908	0.094936	0.167259	0.281814	6216.782013	30788.208736	3684.814738	13939.080928
118.537000	0.157865	0.097736	0.174786	0.278727	6280.385117	31169.461707	3707.139328	14018.487830
119.037500	0.158902	0.096359	0.171740	0.278682	6289.038168	31082.814551	3700.771318	14019.660764
119.535000	0.157809	0.096935	0.169296	0.279591	6273.052755	31061.153275	3693.710436	13996.211829
120.035500	0.156789	0.095365	0.173002	0.284031	6229.845014	30673.430299	3692.171490	13882.408514
120.535500	0.158555	0.097459	0.180109	0.282306	6257.408507	30919.136770	3710.858845	13926.479553
121.041500	0.160808	0.098458	0.176915	0.283544	6265.463716	30903.705996	3701.433463	13894.829167
121.536000	0.159434	0.097725	0.176391	0.283734	6253.064516	30844.185231	3699.923901	13889.984771
122.039000	0.160167	0.097340	0.177607	0.285712	6243.217758	30692.243862	3698.315687	13839.617467
122.537000	0.160462	0.099993	0.180426	0.287578	6230.831009	30742.723894	3700.327202	13792.308370
123.037000	0.161071	0.100298	0.180645	0.288647	6227.215595	30693.671546	3698.531325	13765.300718
123.537000	0.162818	0.099978	0.178338	0.289314	6235.718098	30630.504613	3692.280368	13748.492116
124.035500	0.159509	0.098940	0.182507	0.290664	6199.209402	30478.169400	3698.206896	13714.546637
124.535500	0.162693	0.100856	0.179583	0.291409	6218.276174	30552.797902	3690.504458	13695.853243
125.035500	0.162845	0.100904	0.182819	0.292326	6212.282286	30497.415168	3695.364404	13672.876427
125.538500	0.162132	0.100160	0.191682	0.292182	6207.830041	30459.178443	3714.493309	13676.473347
126.036000	0.163754	0.102042	0.178961	0.295439	6195.077719	30371.887227	3680.826773	13595.260703
126.536000	0.165129	0.101159	0.181472	0.294652	6211.947593	30365.880464	3687.676011	13614.839131
127.036500	0.164821	0.101911	0.181910	0.296462	6195.420713	30298.920456	3684.821572	13569.891033
127.537000	0.165760	0.103092	0.185040	0.298237	6188.915843	30261.360695	3687.641601	13525.990191
128.037500	0.165781	0.102813	0.182677	0.298248	6189.002753	30243.110497	3682.706740	13525.733215
128.537500	0.163238	0.101797	0.181515	0.298372	6168.339891	30171.296199	3680.045319	13522.664507
129.035000	0.165901	0.103083	0.189014	0.299579	6179.596717	30176.194946	3693.141986	13492.911790
129.535500	0.166606	0.103692	0.181626	0.301032	6173.808665	30123.199778	3674.793329	13457.242002
130.037500	0.164580	0.103324	0.187486	0.304247	6133.504808	29899.054405	3680.242469	13378.676003
130.535500	0.165087	0.103603	0.182701	0.302201	6153.080387	30044.254478	3674.598590	13428.594925
131.036000	0.168167	0.103537	0.182652	0.302883	6171.567844	29997.503874	3673.100217	13411.941328
131.536000	0.164875	0.102966	0.187931	0.302416	6149.801395	29991.014221	3684.960797	13423.355302
132.036500	0.168757	0.104487	0.185408	0.307440	6141.039943	29772.910293	3669.413390	13301.239473
132.537000	0.166859	0.105295	0.184276	0.305871	6138.515763	29920.668697	3670.305063	13339.218583
133.037500	0.166996	0.104133	0.190654	0.306006	6138.538788	29840.007760	3683.162423	13335.964792
133.534500	0.167450	0.103668	0.190635	0.306128	6141.081742	29803.535928	3682.868050	13333.001489
134.035000	0.168254	0.103894	0.185466	0.310160	6116.440364	29568.317630	3663.993548	13235.719443
134.537500	0.169690	0.106807	0.193944	0.309320	6133.795922	29800.239969	3683.111109	13255.918796
135.036000	0.167142	0.105288	0.188924	0.308691	6119.157878	29745.047757	3674.051020	13271.064541
135.535500	0.171314	0.105018	0.193088	0.309480	6145.003439	29679.551541	3681.006794	13252.069620
136.036500	0.170344	0.107448	0.190068	0.313237	6108.947819	29597.717951	3667.095245	13162.107847
136.536500	0.171235	0.105745	0.189558	0.311031	6132.526175	29628.752244	3670.557434	13214.844841
137.037000	0.171413	0.106258	0.186713	0.311979	6126.646124	29601.936658	3662.834855	13192.151595
137.537000	0.172706	0.106659	0.188477	0.312638	6131.484743	29586.038778	3665.076432	13176.404386
138.037500	0.170352	0.106539	0.190322	0.315377	6092.810772	29410.584209	3663.262204	13111.203785
138.535000	0.171866	0.106665	0.191049	0.313706	6116.940772	29520.685421	3668.138090	13150.926728
139.038000	0.168747	0.105973	0.192096	0.312879	6099.562683	29529.011122	3671.968275	13170.655197
139.535500	0.171985	0.107452	0.192543	0.315339	6105.453505	29468.783767	3667.855285	13112.110984
140.035500	0.171348	0.105917	0.188266	0.317030	6087.858315	29271.799466	3655.771718	13072.065458
140.536000	0.174363	0.107196	0.195027	0.316342	6115.887582	29391.768211	3670.879073	13088.339198
141.036500	0.172706	0.107291	0.190821	0.316222	6104.219924	29404.859357	3662.560846	13091.177425
141.536500	0.173735	0.107362	0.193185	0.317087	6105.464424	29356.356842	3665.601762	13070.710779
142.037000	0.170625	0.106714	0.192674	0.319783	6061.761265	29153.070958	3659.105646	13007.198209
142.536500	0.174430	0.107594	0.189080	0.317881	6104.718999	29322.086430	3655.697716	13051.968801
143.034000	0.173484	0.108114	0.195957	0.318636	6091.856052	29307.779876	3668.093007	13034.175570
143.538000	0.175662	0.109307	0.193268	0.320364	6095.251401	29275.155832	3659.132242	12993.553877
144.035500	0.174954	0.109030	0.193205	0.321998	6077.603097	29159.146972	3655.712210	12955.301576
144.535500	0.173973	0.109349	0.195091	0.321605	6073.194628	29202.385424	3660.307770	12964.505374
145.036000	0.176269	0.108549	0.191601	0.321527	6091.053016	29158.606185	3653.439304	12966.330157
145.535500	0.174207	0.109208	0.193667	0.322650	6067.105333	29130.430647	3655.331510	12940.080448
146.036500	0.174012	0.109100	0.198277	0.324665	6050.598413	29002.334139	3660.562844	12893.180836
146.536500	0.175249	0.109946	0.198600	0.323621	6067.640129	29116.364585	3663.330353	12917.460356
147.037000	0.177874	0.110292	0.200841	0.325075	6076.425348	29049.430028	3664.927223	12883.662452
147.537000	0.179880	0.110753	0.192472	0.325437	6088.801127	29055.453728	3647.366183	12875.280968
148.038000	0.175224	0.109303	0.197072	0.326405	6046.671084	28909.917856	3654.629550	12852.862960
148.535000	0.180513	0.110315	0.198591	0.325894	6090.126361	29001.509298	3658.715858	12864.689879
149.035500	0.181860	0.111367	0.194213	0.326970	6092.169400	29000.034977	3647.781069	12839.800807
149.535500	0.178852	0.110816	0.193848	0.327206	6067.778967	28952.665325	3646.583077	12834.343429
150.036000	0.179406	0.110256	0.193838	0.328537	6061.965569	28839.313052	3643.919779	12803.672921
150.536500	0.178488	0.111605	0.196626	0.328869	6052.628903	28900.192762	3648.804823	12796.027178
151.036500	0.180637	0.112511	0.198583	0.329283	6065.588740	28929.688994	3651.886604	12786.496971
151.536500	0.180021	0.110394	0.192036	0.328698	6065.357064	28837.890203	3640.033771	12799.954715
152.037000	0.178534	0.111620	0.199633	0.330658	6039.660074	28794.011061	3651.238592	12754.972294
152.539500	0.180684	0.112844	0.197014	0.330604	6056.073512	28870.471180	3646.122212	12756.209690
153.035000	0.182651	0.113333	0.192276	0.331332	6065.328209	28856.169606	3635.320313	12739.545354
153.535500	0.183287	0.113154	0.199946	0.331283	6070.458289	28848.338569	3650.612665	12740.646334
154.036000	0.181799	0.112099	0.200442	0.331095	6060.726948	28796.544160	3651.981504	12744.960862
154.536000	0.185115	0.113469	0.205534	0.332799	6072.799953	28776.590391	3658.790617	12706.043355
155.036000	0.182287	0.112154	0.200343	0.331512	6061.257002	28774.911668	3650.949401	12735.419046
155.536000	0.181429	0.111644	0.194643	0.331136	6057.655818	28766.895198	3640.368338	12744.017623
156.037000	0.186411	0.113959	0.198395	0.334229	6071.797011	28720.531645	3641.671059	12673.502491
156.537000	0.184012	0.114001	0.197050	0.333780	6057.197307	28749.748383	3639.899435	12683.702563
157.040000	0.185365	0.113157	0.201915	0.333087	6072.514916	28740.746121	3650.942188	12699.469927
157.534500	0.184873	0.113918	0.196856	0.334003	6061.972041	28731.516935	3639.077408	12678.638401
158.035500	0.183354	0.113094	0.200164	0.333848	6051.787576	28691.691960	3645.934307	12682.163221
158.535000	0.184383	0.115220	0.202679	0.335004	6050.838242	28749.496611	3648.641929	12655.917179
159.036000	0.185475	0.113179	0.199461	0.333715	6068.634573	28704.652844	3644.802501	12685.189931
159.536000	0.188175	0.113944	0.198713	0.334338	6084.229857	28713.126989	3642.082640	12671.017472
160.036500	0.186389	0.114338	0.200897	0.335727	6060.420122	28653.958413	3643.661022	12639.539751
160.536500	0.188837	0.116285	0.201185	0.336362	6073.995638	28731.993342	3642.972506	12625.166835
161.037000	0.187956	0.114592	0.197967	0.335220	6075.955325	28699.182858	3638.868536	12651.013704
161.540000	0.187158	0.115758	0.201583	0.336571	6059.854445	28688.157871	3643.346819	12620.440836
162.037500	0.190101	0.115161	0.199046	0.335817	6087.599860	28697.534147	3639.820320	12637.499953
162.535000	0.189133	0.116155	0.199279	0.336105	6078.151778	28739.626697	3639.711219	12630.985450
163.035000	0.190142	0.117238	0.203277	0.337005	6078.963460	28750.481249	3645.846551	12610.637982
163.535000	0.190101	0.116066	0.202783	0.336508	6082.396112	28710.279770	3645.852558	12621.859801
164.036000	0.190480	0.116113	0.200116	0.336847	6082.697207	28692.868769	3639.899279	12614.209697
164.536000	0.190934	0.116800	0.199315	0.337102	6084.201200	28718.609151	3637.817584	12608.458369
165.036500	0.191501	0.117301	0.207853	0.336991	6089.301635	28755.065895	3655.020836	12610.955875
165.536000	0.193347	0.116502	0.203463	0.337303	6100.892858	28688.940231	3645.626335	12603.925610
166.039500	0.192055	0.117057	0.201704	0.337752	6087.748530	28695.237640	3641.249493	12593.802815
166.537500	0.193964	0.117099	0.202524	0.337368	6105.072072	28720.536461	3643.629917	12602.438395
167.037500	0.192615	0.116794	0.203064	0.336930	6098.179790	28728.506128	3645.572990	12612.336636
167.534500	0.194231	0.117911	0.201564	0.337894	6103.108086	28737.582878	3640.689598	12590.585875
168.035500	0.192318	0.116600	0.199512	0.336677	6097.844010	28732.029652	3639.042395	12618.045399
168.535500	0.193544	0.117945	0.204194	0.338304	6094.808059	28715.219955	3645.087338	12581.357019
169.035500	0.194465	0.118269	0.205349	0.338393	6101.099286	28729.198876	3647.206456	12579.351782
169.536500	0.192779	0.117043	0.206374	0.336960	6099.191379	28741.539651	3652.114635	12611.652663
170.036500	0.191585	0.118124	0.202064	0.337930	6082.860947	28748.156288	3641.606817	12589.771772
170.539500	0.196037	0.118118	0.204863	0.338077	6115.417460	28739.028286	3646.869411	12586.462363
171.037000	0.193801	0.118018	0.202582	0.337706	6101.277305	28755.196524	3643.075358	12594.818429
171.537000	0.194732	0.118636	0.200802	0.338151	6104.961248	28765.548063	3638.678823	12584.811749
172.035000	0.194509	0.117361	0.195340	0.337528	6107.987664	28726.669457	3629.191764	12598.843339
172.535000	0.193738	0.117508	0.195901	0.337175	6104.827006	28756.450201	3630.976918	12606.811245
173.038500	0.194415	0.118169	0.202261	0.337764	6105.485373	28760.702380	3642.325009	12593.511065
173.535500	0.196228	0.118520	0.203828	0.337906	6118.183098	28773.222709	3645.152027	12590.332535
174.036000	0.193001	0.119446	0.202248	0.338869	6086.453534	28770.999298	3640.115588	12568.652765
174.536500	0.196991	0.118413	0.199834	0.338272	6121.192320	28744.982992	3636.534246	12582.076155
175.039500	0.195627	0.118083	0.201963	0.338305	6110.578347	28723.385163	3640.665929	12581.338008
175.534000	0.195931	0.119254	0.202554	0.339062	6107.139272	28748.003723	3640.338506	12564.306685
176.037500	0.194511	0.118502	0.200998	0.338530	6100.417598	28734.964488	3638.318642	12576.282446
176.534500	0.196201	0.118675	0.199281	0.337816	6118.657667	28787.841625	3636.343638	12592.346555
177.035000	0.196840	0.119129	0.203602	0.338929	6115.055198	28748.526218	3642.675654	12567.316554
177.535500	0.194614	0.119697	0.200984	0.339854	6091.188346	28727.258347	3635.685848	12546.546273
178.036000	0.195067	0.120240	0.201939	0.339847	6094.660476	28760.024281	3637.577538	12546.686477
178.536000	0.197446	0.119606	0.199701	0.339462	6115.602791	28745.174027	3633.936309	12555.334354
179.036000	0.195000	0.119214	0.200667	0.339262	6098.578368	28733.708192	3636.225895	12559.824915
179.539500	0.194393	0.119207	0.203573	0.341153	6079.737987	28620.838973	3638.223295	12517.442182
180.037000	0.196239	0.119219	0.201954	0.339266	6107.929659	28733.825930	3638.751930	12559.741046
180.537000	0.199827	0.120279	0.203197	0.340033	6129.393234	28751.253924	3639.690563	12542.526778
181.037000	0.197261	0.119960	0.205131	0.339657	6112.718128	28754.697503	3644.262385	12550.959641
181.535000	0.194860	0.118910	0.198383	0.340593	6087.475499	28636.473711	3629.150744	12529.990346
182.035000	0.198598	0.120232	0.205170	0.340297	6118.010712	28732.703888	3643.070779	12536.601557
182.535000	0.197365	0.120151	0.206154	0.340161	6109.687019	28736.058075	3645.292973	12539.667883
183.036000	0.196643	0.120085	0.202095	0.340091	6104.737576	28736.219648	3637.404126	12541.227747
183.536000	0.197431	0.119819	0.205249	0.342299	6094.002997	28589.182465	3639.268842	12491.870520
184.039500	0.195837	0.120554	0.204506	0.340653	6094.390557	28730.683250	3641.051363	12528.635514
184.539500	0.196021	0.118283	0.203910	0.338870	6109.278361	28701.612576	3643.401662	12568.634687
185.114500	0.195302	0.120142	0.202236	0.340348	6092.655678	28724.321278	3637.177008	12535.472028
185.534000	0.191929	0.119290	0.205020	0.341954	6055.281890	28578.283144	3639.498526	12499.565266
186.062000	0.195226	0.120459	0.205158	0.340541	6090.628697	28731.741936	3642.563937	12531.155276
186.535000	0.197393	0.119478	0.204454	0.340367	6108.337081	28683.664833	3641.514482	12535.049155
187.034500	0.197551	0.120243	0.201107	0.341104	6103.938444	28685.298585	3633.474240	12518.540543
187.536000	0.194673	0.118623	0.203841	0.342618	6070.842044	28499.552170	3635.868796	12484.762015
188.036500	0.197710	0.121003	0.209185	0.341386	6103.018508	28713.825652	3648.888448	12512.255558
188.539000	0.198295	0.120323	0.202321	0.340553	6113.767515	28722.911685	3636.940267	12530.876518
