sample name	sample
index	1277
start time	 04-29-2021  02:30:55 PM


Wavelength (nm)	Absorbance
494.344910	-0.571704
494.563924	-0.571704
494.782919	-0.571704
495.001897	0.140746
495.220856	-0.104233
495.439797	-0.109929
495.658719	-0.037891
495.877624	-0.037327
496.096510	-0.022920
496.315378	0.056462
496.534227	0.132626
496.753059	0.140672
496.971872	0.231285
497.190667	0.040973
497.409444	0.033301
497.628203	0.029362
497.846943	0.028659
498.065665	0.026432
498.284369	0.023196
498.503055	0.023202
498.721723	0.022419
498.940372	0.021247
499.159003	0.020298
499.377616	0.019794
499.596210	0.019390
499.814787	0.019507
500.033345	0.020119
500.251885	0.021287
500.470406	0.020589
500.688910	0.020594
500.907395	0.020425
501.125862	0.021473
501.344311	0.021132
501.562742	0.022238
501.781154	0.021452
501.999548	0.020600
502.217924	0.019730
502.436282	0.019204
502.654621	0.019390
502.872942	0.019627
503.091245	0.018321
503.309530	0.019232
503.527797	0.017611
503.746045	0.017438
503.964275	0.016777
504.182487	0.017547
504.400681	0.018538
504.618856	0.019334
504.837013	0.019601
505.055152	0.021090
505.273273	0.020600
505.491376	0.020561
505.709460	0.021707
505.927526	0.023053
506.145574	0.022487
506.363604	0.022308
506.581615	0.021099
506.799608	0.020270
507.017583	0.019222
507.235540	0.018765
507.453478	0.018333
507.671399	0.017721
507.889301	0.016791
508.107185	0.016798
508.325050	0.016850
508.542898	0.015354
508.760727	0.016204
508.978538	0.017078
509.196330	0.017310
509.414105	0.017592
509.631861	0.016966
509.849599	0.017124
510.067319	0.017406
510.285021	0.016836
510.502704	0.018565
510.720369	0.018058
510.938016	0.017664
511.155645	0.017194
511.373255	0.018086
511.590848	0.019021
511.808422	0.018854
512.025977	0.018738
512.243515	0.018555
512.461034	0.018088
512.678536	0.017670
512.896018	0.018501
513.113483	0.019117
513.330930	0.018659
513.548358	0.017971
513.765768	0.018398
513.983160	0.018432
514.200533	0.019404
514.417889	0.020068
514.635226	0.020996
514.852545	0.020459
515.069845	0.019417
515.287128	0.019839
515.504392	0.020044
515.721638	0.019868
515.938866	0.020535
516.156075	0.020349
516.373267	0.020292
516.590440	0.020454
516.807594	0.020675
517.024731	0.021466
517.241850	0.021257
517.458950	0.021375
517.676032	0.021611
517.893095	0.021671
518.110141	0.020901
518.327168	0.021528
518.544177	0.021330
518.761168	0.021079
518.978141	0.021638
519.195095	0.021998
519.412031	0.022374
519.628949	0.022482
519.845849	0.022604
520.062731	0.022793
520.279594	0.021572
520.496439	0.021829
520.713266	0.021195
520.930074	0.021425
521.146865	0.020856
521.363637	0.020786
521.580391	0.020726
521.797127	0.020190
522.013844	0.020669
522.230543	0.021222
522.447224	0.020879
522.663887	0.021706
522.880532	0.021608
523.097158	0.022267
523.313766	0.021627
523.530356	0.021767
523.746928	0.022147
523.963481	0.022617
524.180017	0.022743
524.396534	0.023566
524.613032	0.023883
524.829513	0.024013
525.045975	0.024155
525.262420	0.024599
525.478845	0.024198
525.695253	0.024310
525.911643	0.024367
526.128014	0.024564
526.344367	0.024424
526.560702	0.024517
526.777018	0.023877
526.993316	0.023571
527.209597	0.023816
527.425858	0.024093
527.642102	0.023533
527.858328	0.023525
528.074535	0.023643
528.290724	0.023189
528.506894	0.023292
528.723047	0.024063
528.939181	0.024252
529.155297	0.024026
529.371395	0.024434
529.587475	0.024766
529.803536	0.024402
530.019579	0.024892
530.235604	0.025169
530.451611	0.025852
530.667600	0.025956
530.883570	0.026171
531.099522	0.027120
531.315456	0.027424
531.531372	0.027865
531.747269	0.028262
531.963148	0.027769
532.179009	0.027855
532.394852	0.026965
532.610676	0.026965
532.826482	0.026984
533.042271	0.026760
533.258040	0.026387
533.473792	0.026049
533.689525	0.025955
533.905240	0.026419
534.120937	0.026766
534.336616	0.026893
534.552277	0.027045
534.767919	0.027233
534.983543	0.027177
535.199149	0.027539
535.414736	0.027791
535.630306	0.028409
535.845857	0.028357
536.061390	0.028347
536.276904	0.028477
536.492401	0.028391
536.707879	0.028981
536.923339	0.028987
537.138781	0.029104
537.354204	0.028817
537.569610	0.028548
537.784997	0.028421
538.000366	0.028466
538.215716	0.028187
538.431049	0.028458
538.646363	0.028249
538.861659	0.028502
539.076937	0.028464
539.292196	0.029007
539.507438	0.029235
539.722661	0.029247
539.937866	0.029211
540.153052	0.029424
540.368221	0.029375
540.583371	0.029432
540.798503	0.029704
541.013617	0.029666
541.228712	0.030124
541.443789	0.029928
541.658848	0.030410
541.873889	0.030942
542.088912	0.031009
542.303916	0.031079
542.518902	0.031065
542.733870	0.031125
542.948820	0.031394
543.163752	0.031409
543.378665	0.031443
543.593560	0.031610
543.808437	0.031056
544.023295	0.031527
544.238136	0.031749
544.452958	0.032008
544.667762	0.032173
544.882548	0.031790
545.097315	0.031879
545.312064	0.032117
545.526795	0.032081
545.741508	0.032340
545.956203	0.032239
546.170879	0.032189
546.385537	0.032197
546.600177	0.031864
546.814799	0.032496
547.029402	0.032421
547.243988	0.032487
547.458555	0.032425
547.673103	0.032580
547.887634	0.032911
548.102146	0.033279
548.316640	0.033297
548.531116	0.033634
548.745574	0.033980
548.960013	0.034027
549.174435	0.034156
549.388838	0.034474
549.603222	0.034510
549.817589	0.034149
550.031937	0.033824
550.246267	0.033856
550.460579	0.033876
550.674873	0.033719
550.889148	0.033667
551.103405	0.033656
551.317644	0.033652
551.531865	0.033917
551.746068	0.034166
551.960252	0.034653
552.174418	0.035235
552.388566	0.035021
552.602696	0.035088
552.816807	0.035275
553.030900	0.035300
553.244975	0.035137
553.459032	0.035207
553.673070	0.035162
553.887091	0.035357
554.101093	0.034881
554.315077	0.034823
554.529042	0.034882
554.742990	0.034828
554.956919	0.035236
555.170830	0.035760
555.384722	0.035646
555.598597	0.035706
555.812453	0.035399
556.026291	0.035266
556.240111	0.036041
556.453913	0.036210
556.667696	0.036487
556.881461	0.035695
557.095208	0.035420
557.308937	0.035689
557.522647	0.036242
557.736339	0.036462
557.950013	0.036447
558.163669	0.035986
558.377307	0.035863
558.590926	0.036042
558.804527	0.036898
559.018110	0.036985
559.231675	0.037106
559.445221	0.036675
559.658749	0.036504
559.872259	0.036627
560.085751	0.036854
560.299225	0.036957
560.512680	0.037155
560.726117	0.036977
560.939536	0.036809
561.152937	0.036669
561.366319	0.037008
561.579683	0.037031
561.793029	0.037213
562.006357	0.037038
562.219667	0.037154
562.432958	0.036801
562.646231	0.036874
562.859486	0.036985
563.072723	0.037084
563.285941	0.037115
563.499141	0.037072
563.712323	0.037017
563.925487	0.037237
564.138632	0.037198
564.351760	0.036977
564.564869	0.037313
564.777960	0.037643
564.991032	0.038007
565.204087	0.037979
565.417123	0.037881
565.630141	0.038249
565.843140	0.038234
566.056122	0.038201
566.269085	0.038512
566.482030	0.038517
566.694957	0.038225
566.907866	0.037921
567.120756	0.038013
567.333628	0.038477
567.546482	0.038360
567.759318	0.038326
567.972135	0.038232
568.184935	0.038437
568.397716	0.038180
568.610478	0.038478
568.823223	0.038489
569.035949	0.038611
569.248657	0.038608
569.461347	0.038800
569.674019	0.038746
569.886672	0.038872
570.099308	0.038938
570.311925	0.039049
570.524523	0.038879
570.737104	0.039139
570.949666	0.038849
571.162210	0.038732
571.374736	0.038466
571.587244	0.038697
571.799733	0.038928
572.012205	0.038717
572.224658	0.038914
572.437092	0.038980
572.649509	0.038765
572.861907	0.038989
573.074287	0.039312
573.286649	0.039411
573.498993	0.039926
573.711318	0.039720
573.923625	0.039776
574.135914	0.040100
574.348185	0.040295
574.560438	0.040506
574.772672	0.040312
574.984888	0.040148
575.197086	0.039972
575.409266	0.039352
575.621427	0.039517
575.833570	0.039892
576.045695	0.039306
576.257802	0.039272
576.469890	0.039117
576.681961	0.039340
576.894013	0.039528
577.106046	0.039784
577.318062	0.040113
577.530059	0.040227
577.742039	0.040128
577.954000	0.040669
578.165942	0.040844
578.377867	0.041123
578.589773	0.041236
578.801661	0.041488
579.013531	0.041938
579.225382	0.042226
579.437216	0.042530
579.649031	0.042324
579.860828	0.042642
580.072606	0.042551
580.284367	0.042566
580.496109	0.042730
580.707833	0.042709
580.919539	0.042256
581.131227	0.041988
581.342896	0.042032
581.554547	0.042330
581.766180	0.042368
581.977795	0.042739
582.189391	0.042580
582.400969	0.042597
582.612529	0.042347
582.824071	0.042465
583.035595	0.042789
583.247100	0.042891
583.458587	0.042924
583.670056	0.042695
583.881506	0.042542
584.092939	0.042842
584.304353	0.042988
584.515749	0.043481
584.727127	0.043670
584.938486	0.043752
585.149828	0.043645
585.361151	0.043703
585.572456	0.043574
585.783742	0.043778
585.995011	0.044037
586.206261	0.043996
586.417493	0.043581
586.628706	0.044034
586.839902	0.044098
587.051079	0.043982
587.262238	0.044416
587.473379	0.044783
587.684502	0.044754
587.895606	0.044665
588.106692	0.044880
588.317760	0.045217
588.528810	0.045112
588.739841	0.045413
588.950855	0.045624
589.161850	0.045376
589.372827	0.045593
589.583785	0.046023
589.794726	0.046301
590.005648	0.046473
590.216552	0.046800
590.427437	0.047098
590.638305	0.047048
590.849154	0.047399
591.059985	0.047687
591.270798	0.047716
591.481592	0.047333
591.692369	0.047163
591.903127	0.047030
592.113867	0.046974
592.324588	0.046723
592.535292	0.046750
592.745977	0.046547
592.956644	0.046532
593.167293	0.046672
593.377923	0.047239
593.588536	0.047650
593.799130	0.048154
594.009706	0.048098
594.220263	0.048435
594.430803	0.048336
594.641324	0.048726
594.851827	0.048806
595.062312	0.048566
595.272778	0.048314
595.483227	0.048106
595.693657	0.047853
595.904069	0.047920
596.114462	0.047724
596.324838	0.047855
596.535195	0.047869
596.745534	0.048068
596.955855	0.048027
597.166157	0.048267
597.376441	0.048710
597.586707	0.048641
597.796955	0.048722
598.007185	0.048951
598.217396	0.048961
598.427589	0.048680
598.637764	0.048550
598.847921	0.048707
599.058060	0.048599
599.268180	0.048349
599.478282	0.048491
599.688366	0.048489
599.898431	0.048499
600.108479	0.048747
600.318508	0.049356
600.528519	0.049321
600.738511	0.049503
600.948486	0.049239
601.158442	0.049352
601.368380	0.049510
601.578300	0.049307
601.788202	0.049384
601.998085	0.049404
602.207950	0.048855
602.417797	0.049052
602.627626	0.048894
602.837436	0.049219
603.047228	0.049017
603.257002	0.048589
603.466758	0.049094
603.676496	0.048946
603.886215	0.048770
604.095916	0.049131
604.305599	0.048918
604.515264	0.048968
604.724910	0.049117
604.934538	0.049283
605.144148	0.049708
605.353740	0.049633
605.563314	0.049807
605.772869	0.050129
605.982406	0.050328
606.191925	0.050635
606.401425	0.050880
606.610908	0.050628
606.820372	0.050594
607.029818	0.050571
607.239246	0.050549
607.448655	0.050766
607.658047	0.050538
607.867420	0.050344
608.076775	0.050328
608.286111	0.050451
608.495430	0.050546
608.704730	0.050895
608.914012	0.050825
609.123275	0.050918
609.332521	0.050888
609.541748	0.051048
609.750957	0.051380
609.960148	0.051529
610.169321	0.051448
610.378475	0.051812
610.587611	0.052137
610.796729	0.052395
611.005829	0.052526
611.214910	0.052548
611.423974	0.052627
611.633019	0.052344
611.842045	0.052457
612.051054	0.052359
612.260044	0.052452
612.469017	0.052236
612.677970	0.052327
612.886906	0.052325
613.095824	0.052393
613.304723	0.052450
613.513604	0.052636
613.722467	0.052484
613.931311	0.052851
614.140138	0.052732
614.348946	0.052744
614.557736	0.052666
614.766507	0.052869
614.975261	0.052904
615.183996	0.053144
615.392713	0.053441
615.601412	0.053457
615.810092	0.053485
616.018754	0.053772
616.227399	0.053744
616.436024	0.053627
616.644632	0.053488
616.853222	0.053503
617.061793	0.053352
617.270346	0.052992
617.478880	0.053256
617.687397	0.053004
617.895895	0.052951
618.104375	0.053022
618.312837	0.053179
618.521281	0.053047
618.729706	0.053037
618.938113	0.052995
619.146502	0.053233
619.354873	0.053015
619.563226	0.053164
619.771560	0.052944
619.979876	0.052834
620.188174	0.053015
620.396453	0.053423
620.604715	0.053590
620.812958	0.053788
621.021183	0.053806
621.229390	0.054053
621.437578	0.054389
621.645748	0.054716
621.853900	0.054674
622.062034	0.054544
622.270150	0.054388
622.478247	0.054192
622.686326	0.054181
622.894387	0.054253
623.102430	0.054323
623.310454	0.054174
623.518461	0.054084
623.726449	0.054349
623.934418	0.054646
624.142370	0.054767
624.350303	0.054903
624.558218	0.054982
624.766115	0.055027
624.973994	0.055181
625.181855	0.055214
625.389697	0.055383
625.597521	0.055300
625.805327	0.055305
626.013114	0.055329
626.220883	0.055546
626.428634	0.055503
626.636367	0.055555
626.844082	0.055529
627.051778	0.055507
627.259457	0.055692
627.467117	0.056025
627.674758	0.056030
627.882382	0.056164
628.089987	0.056099
628.297574	0.056281
628.505143	0.056246
628.712694	0.056204
628.920226	0.056185
629.127740	0.056006
629.335236	0.055786
629.542714	0.056013
629.750174	0.056033
629.957615	0.056386
630.165038	0.056532
630.372443	0.056571
630.579829	0.056690
630.787198	0.056814
630.994548	0.056897
631.201880	0.056930
631.409194	0.056935
631.616489	0.057098
631.823766	0.056877
632.031025	0.056747
632.238266	0.056784
632.445489	0.056891
632.652693	0.057068
632.859879	0.056959
633.067047	0.057157
633.274197	0.057075
633.481329	0.057097
633.688442	0.057262
633.895537	0.057396
634.102614	0.057439
634.309672	0.057419
634.516713	0.057453
634.723735	0.057709
634.930739	0.057759
635.137724	0.057718
635.344692	0.057639
635.551641	0.057779
635.758572	0.057925
635.965485	0.057882
636.172379	0.058030
636.379256	0.058117
636.586114	0.057967
636.792954	0.057909
636.999775	0.058253
637.206579	0.058519
637.413364	0.058609
637.620131	0.058695
637.826880	0.058983
638.033610	0.059064
638.240323	0.058991
638.447017	0.059271
638.653692	0.059564
638.860350	0.059403
639.066990	0.059437
639.273611	0.059437
639.480214	0.059299
639.686798	0.059589
639.893365	0.059634
640.099913	0.060033
640.306443	0.060248
640.512955	0.060234
640.719449	0.060574
640.925924	0.060621
641.132381	0.060637
641.338820	0.060886
641.545241	0.061041
641.751644	0.061031
641.958028	0.061097
642.164394	0.061225
642.370742	0.061311
642.577071	0.061299
642.783383	0.061511
642.989676	0.061682
643.195951	0.061847
643.402207	0.061642
643.608446	0.061793
643.814666	0.061613
644.020868	0.061498
644.227052	0.061480
644.433218	0.061435
644.639365	0.061470
644.845494	0.061545
645.051605	0.061723
645.257698	0.061721
645.463772	0.061515
645.669828	0.061602
645.875866	0.061702
646.081886	0.061633
646.287888	0.061724
646.493871	0.061674
646.699836	0.061614
646.905783	0.061473
647.111712	0.061710
647.317622	0.061845
647.523514	0.062011
647.729388	0.062132
647.935244	0.062664
648.141082	0.062784
648.346901	0.062863
648.552702	0.063138
648.758485	0.063138
648.964250	0.063060
649.169996	0.063475
649.375724	0.063615
649.581434	0.063453
649.787126	0.063316
649.992800	0.063489
650.198455	0.063674
650.404092	0.063498
650.609711	0.063471
650.815311	0.063744
651.020894	0.063677
651.226458	0.063719
651.432004	0.064015
651.637532	0.064195
651.843041	0.064162
652.048532	0.064127
652.254006	0.064281
652.459460	0.064651
652.664897	0.064646
652.870315	0.064684
653.075716	0.064897
653.281097	0.064830
653.486461	0.064746
653.691807	0.065094
653.897134	0.065349
654.102443	0.065548
654.307734	0.065450
654.513006	0.065533
654.718261	0.065670
654.923497	0.065645
655.128715	0.065793
655.333915	0.066042
655.539096	0.065814
655.744259	0.065730
655.949404	0.065687
656.154531	0.065815
656.359640	0.065743
656.564730	0.065828
656.769802	0.065819
656.974856	0.065833
657.179892	0.065919
657.384909	0.066246
657.589908	0.066289
657.794889	0.066493
657.999852	0.066720
658.204797	0.066923
658.409723	0.067072
658.614631	0.067228
658.819521	0.067519
659.024393	0.067612
659.229246	0.067681
659.434081	0.067906
659.638898	0.068087
659.843697	0.067983
660.048478	0.068202
660.253240	0.068284
660.457984	0.068651
660.662710	0.068653
660.867417	0.068774
661.072107	0.068783
661.276778	0.068859
661.481431	0.068806
661.686066	0.069050
661.890682	0.069130
662.095281	0.069203
662.299861	0.069189
662.504422	0.069257
662.708966	0.069417
662.913491	0.069446
663.117999	0.069377
663.322488	0.069626
663.526958	0.069788
663.731411	0.069579
663.935845	0.069883
664.140261	0.069830
664.344659	0.070094
664.549038	0.070111
664.753400	0.070447
664.957743	0.070705
665.162068	0.070511
665.366375	0.070571
665.570663	0.070795
665.774933	0.070730
665.979185	0.070866
666.183419	0.070829
666.387635	0.070774
666.591832	0.070729
666.796011	0.070734
667.000172	0.071043
667.204315	0.070884
667.408439	0.070976
667.612545	0.071281
667.816634	0.071417
668.020703	0.071417
668.224755	0.071531
668.428788	0.071428
668.632803	0.071405
668.836800	0.071457
669.040779	0.071705
669.244739	0.071730
669.448681	0.071559
669.652605	0.071452
669.856511	0.071774
670.060399	0.071975
670.264268	0.072283
670.468119	0.072482
670.671952	0.072525
670.875767	0.072767
671.079563	0.073071
671.283341	0.073238
671.487101	0.073373
671.690843	0.073318
671.894567	0.073360
672.098272	0.073404
672.301959	0.073491
672.505628	0.073493
672.709278	0.073421
672.912911	0.073395
673.116525	0.073365
673.320121	0.073440
673.523699	0.073574
673.727258	0.073504
673.930799	0.073498
674.134322	0.073743
674.337827	0.073880
674.541314	0.074098
674.744782	0.074244
674.948232	0.074380
675.151664	0.074412
675.355078	0.074519
675.558474	0.074937
675.761851	0.075015
675.965210	0.075042
676.168551	0.075239
676.371873	0.075291
676.575178	0.075370
676.778464	0.075415
676.981732	0.075723
677.184981	0.075868
677.388213	0.075712
677.591426	0.075877
677.794621	0.075679
677.997798	0.075761
678.200956	0.075823
678.404097	0.075882
678.607219	0.076056
678.810323	0.076177
679.013408	0.076251
679.216476	0.076408
679.419525	0.076734
679.622556	0.077131
679.825569	0.077150
680.028563	0.077259
680.231540	0.077551
680.434498	0.077683
680.637438	0.077653
680.840359	0.077789
681.043263	0.078010
681.246148	0.077781
681.449015	0.077823
681.651864	0.078022
681.854694	0.078120
682.057506	0.078157
682.260301	0.078065
682.463076	0.078104
682.665834	0.077965
682.868573	0.078091
683.071295	0.078275
683.273998	0.078247
683.476682	0.078227
683.679349	0.078349
683.881997	0.078279
684.084627	0.078430
684.287239	0.078572
684.489833	0.078831
684.692408	0.078680
684.894965	0.078686
685.097504	0.078970
685.300025	0.079021
685.502527	0.078996
685.705012	0.078975
685.907478	0.078850
686.109925	0.078959
686.312355	0.078883
686.514766	0.078985
686.717159	0.079163
686.919534	0.079009
687.121891	0.079110
687.324230	0.079214
687.526550	0.079499
687.728852	0.079588
687.931136	0.079588
688.133401	0.079645
688.335649	0.079760
688.537878	0.079513
688.740089	0.079661
688.942281	0.079609
689.144456	0.079733
689.346612	0.079757
689.548750	0.079821
689.750870	0.079811
689.952971	0.079697
690.155055	0.079656
690.357120	0.079859
690.559167	0.079825
690.761195	0.080051
690.963206	0.079986
691.165198	0.079915
691.367172	0.080203
691.569128	0.080139
691.771065	0.080428
691.972984	0.080441
692.174885	0.080542
692.376768	0.080612
692.578633	0.080601
692.780479	0.080668
692.982308	0.080677
693.184118	0.080747
693.385909	0.080898
693.587683	0.080922
693.789438	0.081007
693.991175	0.081148
694.192894	0.081389
694.394595	0.081369
694.596277	0.081367
694.797941	0.081571
694.999587	0.081574
695.201215	0.081688
695.402824	0.081803
695.604416	0.082027
695.805989	0.082210
696.007543	0.082321
696.209080	0.082578
696.410598	0.082886
696.612099	0.082947
696.813580	0.083102
697.015044	0.083301
697.216490	0.083498
697.417917	0.083601
697.619326	0.083392
697.820717	0.083449
698.022089	0.083511
698.223444	0.083647
698.424780	0.083776
698.626098	0.083865
698.827397	0.083919
699.028679	0.083817
699.229942	0.083864
699.431187	0.084063
699.632414	0.084178
699.833622	0.084320
700.034813	0.084300
700.235985	0.084367
700.437139	0.084509
700.638274	0.084735
700.839392	0.084998
701.040491	0.085185
701.241572	0.085636
701.442635	0.085654
701.643679	0.085562
701.844706	0.085566
702.045714	0.085578
702.246704	0.085657
702.447675	0.085595
702.648629	0.085591
702.849564	0.085524
703.050481	0.085284
703.251380	0.085296
703.452260	0.085404
703.653122	0.085438
703.853966	0.085387
704.054792	0.085240
704.255600	0.084985
704.456389	0.085037
704.657160	0.085093
704.857913	0.084918
705.058648	0.084808
705.259365	0.084772
705.460063	0.084747
705.660743	0.084877
705.861405	0.085030
706.062048	0.085384
706.262674	0.085148
706.463281	0.085050
706.663870	0.085046
706.864441	0.085056
707.064993	0.085169
707.265527	0.085044
707.466043	0.084952
707.666541	0.084644
707.867021	0.084392
708.067482	0.084630
708.267925	0.084670
708.468350	0.084782
708.668757	0.084828
708.869145	0.084485
709.069516	0.084503
709.269868	0.084584
709.470201	0.084680
709.670517	0.084796
709.870814	0.084600
710.071093	0.084470
710.271354	0.084534
710.471597	0.084609
710.671821	0.084916
710.872028	0.084898
711.072216	0.084978
711.272385	0.085139
711.472537	0.085041
711.672670	0.085325
711.872785	0.085388
712.072882	0.085534
712.272961	0.085445
712.473021	0.085496
712.673063	0.085792
712.873087	0.085728
713.073093	0.085924
713.273081	0.085998
713.473050	0.085877
713.673001	0.085803
713.872934	0.085724
714.072849	0.085822
714.272745	0.085728
714.472623	0.085493
714.672483	0.085450
714.872325	0.085128
715.072148	0.085198
715.271954	0.084940
715.471741	0.084869
715.671509	0.084602
715.871260	0.084292
716.070992	0.084175
716.270707	0.083980
716.470403	0.083951
716.670080	0.083881
716.869740	0.083703
717.069381	0.083879
717.269004	0.083965
717.468609	0.083935
717.668195	0.084142
717.867764	0.084310
718.067314	0.084503
718.266846	0.084314
718.466360	0.084290
718.665855	0.084300
718.865332	0.084155
719.064791	0.084175
719.264232	0.084292
719.463655	0.084198
719.663059	0.084086
719.862445	0.083932
720.061813	0.084013
720.261163	0.083865
720.460494	0.083810
720.659807	0.083792
720.859102	0.083614
721.058379	0.083314
721.257638	0.083189
721.456878	0.083012
721.656100	0.083037
721.855304	0.083009
722.054490	0.082882
722.253657	0.083011
722.452806	0.082991
722.651937	0.083180
722.851050	0.083481
723.050145	0.083524
723.249221	0.083493
723.448279	0.083278
723.647319	0.083150
723.846340	0.083192
724.045344	0.083094
724.244329	0.082985
724.443296	0.082805
724.642245	0.082645
724.841175	0.082484
725.040088	0.082425
725.238982	0.082530
725.437857	0.082683
725.636715	0.082833
725.835554	0.082762
726.034376	0.082830
726.233179	0.082784
726.431963	0.082601
726.630730	0.082494
726.829478	0.082474
727.028208	0.082637
727.226920	0.082267
727.425614	0.082207
727.624289	0.081957
727.822946	0.081806
728.021585	0.081692
728.220206	0.081702
728.418808	0.081695
728.617392	0.081590
728.815958	0.081411
729.014506	0.081507
729.213036	0.081204
729.411547	0.081270
729.610040	0.081185
729.808515	0.081119
730.006972	0.081042
730.205410	0.081078
730.403831	0.081057
730.602233	0.081083
730.800616	0.081034
730.998982	0.081126
731.197329	0.081065
731.395658	0.081230
731.593969	0.081045
731.792262	0.081114
731.990536	0.081108
732.188793	0.081058
732.387031	0.080818
732.585250	0.080754
732.783452	0.080692
732.981635	0.080697
733.179800	0.080578
733.377947	0.080611
733.576076	0.080200
733.774186	0.079913
733.972278	0.079748
734.170352	0.079532
734.368408	0.079438
734.566446	0.079230
734.764465	0.079040
734.962466	0.078767
735.160449	0.078479
735.358413	0.078598
735.556360	0.078458
735.754288	0.078401
735.952198	0.078350
736.150090	0.078164
736.347963	0.078036
736.545818	0.077841
736.743655	0.077751
736.941474	0.077891
737.139275	0.077757
737.337057	0.077798
737.534821	0.077708
737.732567	0.077482
737.930295	0.077326
738.128005	0.077401
738.325696	0.077306
738.523369	0.077205
738.721024	0.076917
738.918660	0.076778
739.116279	0.076589
739.313879	0.076425
739.511461	0.076334
739.709024	0.076429
739.906570	0.076036
740.104097	0.075941
740.301606	0.075546
740.499097	0.075422
740.696569	0.075279
740.894024	0.075383
741.091460	0.075199
741.288878	0.075129
741.486277	0.074787
741.683659	0.074738
741.881022	0.074482
742.078367	0.074678
742.275694	0.074664
742.473002	0.074436
742.670293	0.074288
742.867565	0.074296
743.064819	0.074359
743.262054	0.074448
743.459272	0.074553
743.656471	0.074814
743.853652	0.074577
744.050815	0.074529
744.247959	0.074575
744.445085	0.074305
744.642194	0.074271
744.839283	0.074116
745.036355	0.073954
745.233408	0.073785
745.430444	0.073538
745.627461	0.073321
745.824459	0.073198
746.021440	0.073036
746.218402	0.072875
746.415346	0.072765
746.612272	0.072723
746.809180	0.072656
747.006069	0.072493
747.202940	0.072398
747.399793	0.072582
747.596628	0.072819
747.793444	0.072923
747.990243	0.073079
748.187023	0.073081
748.383784	0.073003
748.580528	0.073082
748.777253	0.073130
748.973960	0.073036
749.170649	0.073080
749.367320	0.072813
749.563973	0.072813
749.760607	0.072798
749.957223	0.072753
750.153821	0.072634
750.350400	0.072556
750.546962	0.072514
750.743505	0.072425
750.940030	0.072357
751.136536	0.072173
751.333025	0.072160
751.529495	0.071866
751.725947	0.071677
751.922381	0.071747
752.118796	0.071471
752.315194	0.071294
752.511573	0.071048
752.707934	0.070731
752.904276	0.070540
753.100601	0.070192
753.296907	0.070298
753.493195	0.070278
753.689465	0.070150
753.885716	0.070092
754.081949	0.070060
754.278164	0.070231
754.474361	0.070132
754.670540	0.070037
754.866700	0.070077
755.062843	0.070007
755.258967	0.069868
755.455072	0.069604
755.651160	0.069568
755.847229	0.069544
756.043280	0.069406
756.239313	0.069455
756.435328	0.069549
756.631324	0.069364
756.827302	0.068911
757.023262	0.068833
757.219204	0.068766
757.415127	0.068634
757.611033	0.068818
757.806920	0.068594
758.002788	0.068437
758.198639	0.068113
758.394471	0.068110
758.590286	0.068434
758.786081	0.068290
758.981859	0.068086
759.177619	0.068038
759.373360	0.067588
759.569083	0.067737
759.764788	0.067926
759.960474	0.068272
760.156143	0.068118
760.351793	0.067951
760.547425	0.068144
760.743038	0.068397
760.938634	0.068452
761.134211	0.068523
761.329770	0.068454
761.525311	0.068527
761.720833	0.068397
761.916338	0.068468
762.111824	0.068658
762.307292	0.068470
762.502741	0.068502
762.698173	0.068536
762.893586	0.068506
763.088981	0.068601
763.284358	0.068437
763.479716	0.068373
763.675057	0.068553
763.870379	0.068227
764.065683	0.068247
764.260968	0.068040
764.456236	0.067747
764.651485	0.067517
764.846716	0.067382
765.041929	0.067262
765.237123	0.067196
765.432299	0.066997
765.627457	0.067107
765.822597	0.066988
766.017719	0.066913
766.212822	0.067051
766.407907	0.067357
766.602974	0.067528
766.798023	0.067542
766.993054	0.067601
767.188066	0.067659
767.383060	0.067537
767.578036	0.067525
767.772993	0.067714
767.967933	0.067628
768.162854	0.067518
768.357757	0.067246
768.552642	0.067135
768.747508	0.067216
768.942356	0.067084
769.137186	0.067156
769.331998	0.067174
769.526792	0.067223
769.721567	0.067429
769.916324	0.067520
770.111063	0.067558
770.305784	0.067697
770.500486	0.067677
770.695171	0.067585
770.889837	0.067519
771.084484	0.067425
771.279114	0.067137
771.473725	0.066954
771.668318	0.066749
771.862893	0.066751
772.057450	0.066565
772.251988	0.066307
772.446509	0.066323
772.641011	0.066238
772.835494	0.066145
773.029960	0.066336
773.224407	0.066365
773.418836	0.066454
773.613247	0.066421
773.807640	0.066247
774.002014	0.066228
774.196370	0.066361
774.390708	0.066420
774.585028	0.066462
774.779330	0.066617
774.973613	0.066414
775.167878	0.066307
775.362125	0.066276
775.556354	0.066473
775.750564	0.066397
775.944756	0.066257
776.138930	0.066410
776.333086	0.066278
776.527223	0.066133
776.721343	0.066409
776.915444	0.066361
777.109526	0.066408
777.303591	0.066573
777.497637	0.066828
777.691666	0.067092
777.885676	0.066978
778.079667	0.067137
778.273641	0.066900
778.467596	0.066996
778.661533	0.067206
778.855452	0.067297
779.049352	0.067187
779.243235	0.067243
779.437099	0.067193
779.630945	0.067406
779.824773	0.067851
780.018582	0.067980
780.212373	0.067941
780.406146	0.068069
780.599901	0.068086
780.793638	0.068150
780.987356	0.068030
781.181056	0.068030
781.374738	0.068047
781.568402	0.067944
781.762047	0.068152
781.955674	0.068130
782.149283	0.067926
782.342874	0.067874
782.536447	0.067948
782.730001	0.068029
782.923537	0.067956
783.117055	0.067770
783.310555	0.067590
783.504036	0.067554
783.697499	0.067587
783.890944	0.067622
784.084371	0.067765
784.277780	0.067747
784.471170	0.067805
784.664542	0.067834
784.857896	0.067739
785.051231	0.067904
785.244549	0.067986
785.437848	0.068040
785.631129	0.068135
785.824392	0.067925
786.017636	0.068047
786.210863	0.067868
786.404071	0.067994
786.597260	0.068255
786.790432	0.068015
786.983585	0.067893
787.176721	0.067934
787.369838	0.067950
787.562936	0.068313
787.756017	0.068062
787.949079	0.068406
788.142123	0.068319
788.335149	0.068592
788.528156	0.068742
788.721146	0.068800
788.914117	0.068767
789.107070	0.068827
789.300005	0.068732
789.492921	0.068897
789.685819	0.068935
789.878699	0.069236
790.071561	0.069015
790.264405	0.069189
790.457230	0.069281
790.650037	0.069215
790.842826	0.069097
791.035597	0.069073
791.228349	0.069094
791.421084	0.069134
791.613800	0.069030
791.806497	0.069167
791.999177	0.069163
792.191838	0.069133
792.384481	0.069166
792.577106	0.069469
792.769713	0.069502
792.962301	0.069593
793.154871	0.069585
793.347423	0.069630
793.539957	0.069623
793.732473	0.069634
793.924970	0.069708
794.117449	0.070041
794.309910	0.070073
794.502353	0.070288
794.694777	0.070499
794.887183	0.070486
795.079571	0.070523
795.271941	0.070492
795.464293	0.070549
795.656626	0.070718
795.848941	0.070653
796.041238	0.070775
796.233516	0.070792
796.425777	0.070656
796.618019	0.070842
796.810243	0.070842
797.002449	0.071054
797.194636	0.071200
797.386805	0.071450
797.578956	0.071772
797.771089	0.071762
797.963204	0.071863
798.155300	0.072230
798.347378	0.072242
798.539438	0.072397
798.731480	0.072344
798.923503	0.072440
799.115509	0.072508
799.307496	0.072417
799.499465	0.072709
799.691415	0.072725
799.883348	0.072818
800.075262	0.073051
800.267158	0.073272
800.459035	0.073609
800.650895	0.073720
800.842736	0.073631
801.034559	0.073779
801.226364	0.073834
801.418150	0.074003
801.609919	0.073816
801.801669	0.073857
801.993401	0.073735
802.185114	0.073560
802.376810	0.073680
802.568487	0.073587
802.760146	0.073589
802.951787	0.073428
803.143409	0.073310
803.335014	0.073469
803.526600	0.073235
803.718168	0.073502
803.909717	0.073763
804.101249	0.073704
804.292762	0.074086
804.484257	0.074084
804.675734	0.074115
804.867192	0.074302
805.058632	0.074325
805.250054	0.074650
805.441458	0.074564
805.632844	0.074331
805.824211	0.074616
806.015561	0.074387
806.206891	0.074657
806.398204	0.074799
806.589499	0.074929
806.780775	0.075214
806.972033	0.075284
807.163273	0.075826
807.354495	0.076279
807.545698	0.076269
807.736883	0.076588
807.928050	0.076572
808.119199	0.076886
808.310329	0.077141
808.501441	0.077173
808.692535	0.077427
808.883611	0.077160
809.074669	0.077082
809.265708	0.077097
809.456729	0.077285
809.647732	0.077460
809.838717	0.077546
810.029683	0.077757
810.220632	0.077893
810.411562	0.077902
810.602474	0.078475
810.793367	0.078694
810.984242	0.078878
811.175100	0.079088
811.365938	0.079261
811.556759	0.079507
811.747562	0.079459
811.938346	0.079740
812.129112	0.079959
812.319860	0.079936
812.510589	0.080195
812.701300	0.080534
812.891994	0.080621
813.082668	0.080799
813.273325	0.080912
813.463964	0.081106
813.654584	0.081000
813.845186	0.080932
814.035769	0.080817
814.226335	0.081161
814.416882	0.081352
814.607411	0.081603
814.797922	0.081630
814.988415	0.081801
815.178889	0.081962
815.369345	0.082060
815.559783	0.082572
815.750203	0.083062
815.940605	0.083050
816.130988	0.082987
816.321353	0.082852
816.511700	0.083106
816.702028	0.083050
816.892339	0.083089
817.082631	0.083222
817.272905	0.083246
817.463161	0.083061
817.653398	0.083173
817.843617	0.083264
818.033819	0.083554
818.224001	0.083589
818.414166	0.083808
818.604312	0.084138
818.794440	0.084430
818.984550	0.084528
819.174642	0.084733
819.364716	0.084851
819.554771	0.084866
819.744808	0.084744
819.934827	0.084999
820.124827	0.085138
820.314810	0.084934
820.504774	0.085037
820.694720	0.085162
820.884647	0.085532
821.074557	0.085507
821.264448	0.085758
821.454321	0.085892
821.644176	0.085923
821.834012	0.086088
822.023831	0.086448
822.213631	0.086609
822.403413	0.086636
822.593176	0.086629
822.782922	0.086761
822.972649	0.087188
823.162358	0.087516
823.352049	0.087724
823.541721	0.087810
823.731376	0.088058
823.921012	0.088132
824.110629	0.088612
824.300229	0.088825
824.489811	0.089375
824.679374	0.089411
824.868919	0.089604
825.058445	0.089832
825.247954	0.090064
825.437444	0.090010
825.626916	0.090598
825.816370	0.090608
826.005806	0.090562
826.195223	0.090219
826.384622	0.090341
826.574003	0.090537
826.763366	0.090591
826.952711	0.090883
827.142037	0.091143
827.331345	0.090954
827.520635	0.091127
827.709906	0.091530
827.899160	0.092177
828.088395	0.092377
828.277612	0.092659
828.466810	0.092852
828.655991	0.092810
828.845153	0.093159
829.034297	0.093451
829.223423	0.093690
829.412531	0.093705
829.601620	0.093724
829.790691	0.093944
829.979744	0.094105
830.168779	0.094469
830.357795	0.094836
830.546793	0.094749
830.735773	0.095025
830.924735	0.095289
831.113679	0.095815
831.302604	0.096191
831.491511	0.096808
831.680400	0.097055
831.869271	0.097475
832.058123	0.097672
832.246957	0.098075
832.435773	0.098530
832.624571	0.098738
832.813351	0.098804
833.002112	0.098881
833.190855	0.098867
833.379580	0.099008
833.568287	0.098955
833.756975	0.099039
833.945645	0.099367
834.134297	0.099241
834.322931	0.099639
834.511547	0.099839
834.700144	0.100245
834.888723	0.100438
835.077284	0.100849
835.265826	0.101063
835.454351	0.101499
835.642857	0.101540
835.831345	0.101897
836.019815	0.101890
836.208266	0.101930
836.396699	0.101906
836.585114	0.101955
836.773511	0.102172
836.961890	0.102375
837.150250	0.102544
837.338592	0.102760
837.526916	0.102900
837.715222	0.103337
837.903510	0.103560
838.091779	0.103970
838.280030	0.104477
838.468263	0.104391
838.656477	0.104585
838.844674	0.104708
839.032852	0.105043
839.221012	0.105143
839.409153	0.105322
839.597277	0.105807
839.785382	0.105837
839.973469	0.105717
840.161538	0.106093
840.349589	0.106415
840.537621	0.106742
840.725635	0.106843
840.913631	0.107269
841.101609	0.107510
841.289568	0.107601
841.477509	0.107722
841.665432	0.108094
841.853337	0.108338
842.041224	0.108794
842.229092	0.108912
842.416942	0.109204
842.604774	0.109386
842.792588	0.109734
842.980383	0.109887
843.168160	0.110319
843.355919	0.110543
843.543660	0.110833
843.731382	0.110864
843.919087	0.111195
844.106773	0.111670
844.294441	0.112202
844.482090	0.112289
844.669722	0.112772
844.857335	0.113148
845.044930	0.113584
845.232507	0.113829
845.420065	0.114055
845.607605	0.114395
845.795127	0.114539
845.982631	0.114370
846.170117	0.114449
846.357584	0.114271
846.545033	0.114283
846.732464	0.114507
846.919877	0.114817
847.107272	0.114902
847.294648	0.115164
847.482006	0.115432
847.669346	0.115891
847.856667	0.116117
848.043971	0.116753
848.231256	0.117158
848.418523	0.117049
848.605771	0.116970
848.793002	0.117280
848.980214	0.117515
849.167408	0.117637
849.354584	0.117840
849.541742	0.118124
849.728881	0.118287
849.916002	0.118527
850.103105	0.118781
850.290190	0.119083
850.477256	0.119241
850.664304	0.119102
850.851334	0.119226
851.038346	0.119298
851.225340	0.119146
851.412315	0.119466
851.599272	0.119444
851.786211	0.119583
851.973132	0.119702
852.160034	0.119786
852.346918	0.120303
852.533784	0.120095
852.720632	0.120224
852.907462	0.120398
853.094273	0.120077
853.281066	0.120129
853.467841	0.120364
853.654598	0.120678
853.841336	0.120808
854.028056	0.120564
854.214758	0.121194
854.401442	0.121295
854.588107	0.121720
854.774755	0.122187
854.961384	0.122529
855.147995	0.122895
855.334587	0.123359
855.521162	0.123862
855.707718	0.124176
855.894256	0.124396
856.080775	0.124919
856.267277	0.125217
856.453760	0.125732
856.640225	0.126198
856.826672	0.126081
857.013101	0.126295
857.199511	0.126479
857.385903	0.126460
857.572277	0.126373
857.758633	0.126159
857.944970	0.126038
858.131290	0.126094
858.317591	0.125939
858.503873	0.126317
858.690138	0.126257
858.876384	0.126406
859.062612	0.126744
859.248822	0.127091
859.435014	0.127668
859.621188	0.128080
859.807343	0.127965
859.993480	0.128239
860.179599	0.128597
860.365699	0.128864
860.551781	0.129139
860.737846	0.129517
860.923891	0.129940
861.109919	0.129813
861.295929	0.129564
861.481920	0.129834
861.667893	0.130022
861.853848	0.130154
862.039784	0.130241
862.225702	0.130052
862.411603	0.130132
862.597484	0.129816
862.783348	0.129967
862.969193	0.130509
863.155021	0.130710
863.340830	0.131085
863.526620	0.130984
863.712393	0.131142
863.898147	0.131660
864.083883	0.131804
864.269601	0.132062
864.455301	0.132528
864.640982	0.132817
864.826645	0.133192
865.012290	0.133428
865.197917	0.134051
865.383526	0.134457
865.569116	0.134677
865.754688	0.134919
865.940242	0.135325
866.125777	0.135623
866.311295	0.135925
866.496794	0.135970
866.682275	0.135601
866.867737	0.135739
867.053182	0.135786
867.238608	0.135663
867.424016	0.135840
867.609406	0.135929
867.794778	0.135898
867.980131	0.135781
868.165466	0.136168
868.350783	0.136546
868.536082	0.136229
868.721362	0.136242
868.906625	0.136222
869.091869	0.136366
869.277094	0.136647
869.462302	0.136681
869.647491	0.137212
869.832662	0.137019
870.017815	0.137288
870.202950	0.137621
870.388066	0.137690
870.573165	0.138354
870.758245	0.138474
870.943306	0.138529
871.128350	0.138958
871.313375	0.139086
871.498382	0.139520
871.683371	0.139856
871.868342	0.139952
872.053294	0.140499
872.238229	0.140424
872.423144	0.140644
872.608042	0.140844
872.792922	0.140783
872.977783	0.140884
873.162626	0.140777
873.347451	0.140861
873.532258	0.141142
873.717046	0.140910
873.901816	0.141103
874.086568	0.141080
874.271302	0.141407
874.456017	0.141312
874.640715	0.141193
874.825394	0.141341
875.010055	0.141100
875.194697	0.141216
875.379322	0.141307
875.563928	0.141274
875.748516	0.141456
875.933085	0.141287
876.117637	0.141475
876.302170	0.141752
876.486685	0.141839
876.671182	0.142072
876.855661	0.142098
877.040121	0.142428
877.224563	0.142831
877.408987	0.143148
877.593393	0.143388
877.777780	0.143712
877.962150	0.143804
878.146501	0.143966
878.330833	0.144020
878.515148	0.144171
878.699444	0.144049
878.883722	0.143976
879.067982	0.143903
879.252224	0.144165
879.436447	0.144098
879.620653	0.144084
879.804840	0.143986
879.989008	0.144154
880.173159	0.144345
880.357291	0.144532
880.541405	0.144389
880.725501	0.144451
880.909579	0.144512
881.093638	0.144664
881.277680	0.144804
881.461703	0.144894
881.645707	0.145454
881.829694	0.145619
882.013662	0.145736
882.197612	0.145820
882.381544	0.145982
882.565458	0.146028
882.749353	0.146312
882.933230	0.146271
883.117089	0.146364
883.300930	0.146007
883.484753	0.146006
883.668557	0.145890
883.852343	0.146267
884.036111	0.146398
884.219861	0.146253
884.403592	0.146095
884.587305	0.146231
884.771000	0.146525
884.954677	0.146393
885.138335	0.146240
885.321976	0.146441
885.505598	0.146343
885.689201	0.146236
885.872787	0.146493
886.056354	0.146702
886.239904	0.146824
886.423434	0.146740
886.606947	0.146958
886.790442	0.146760
886.973918	0.147232
887.157376	0.147103
887.340816	0.147448
887.524237	0.147513
887.707641	0.147477
887.891026	0.147117
888.074393	0.147360
888.257741	0.147412
888.441072	0.148152
888.624384	0.147569
888.807678	0.147924
888.990954	0.147766
889.174211	0.147472
889.357451	0.147140
889.540672	0.147608
889.723875	0.147419
889.907059	0.147394
890.090226	0.147235
890.273374	0.147156
890.456504	0.147191
890.639616	0.147211
890.822709	0.147582
891.005785	0.147804
891.188842	0.147571
891.371881	0.147715
891.554901	0.147903
891.737904	0.148088
891.920888	0.148334
892.103854	0.148354
892.286802	0.147983
892.469731	0.147633
892.652643	0.147365
892.835536	0.147525
893.018410	0.147285
893.201267	0.146939
893.384106	0.146597
893.566926	0.146292
893.749728	0.145992
893.932511	0.146050
894.115277	0.145899
894.298024	0.146167
894.480753	0.145951
894.663464	0.145894
894.846157	0.145804
895.028831	0.145626
895.211487	0.145941
895.394125	0.145773
895.576745	0.145768
895.759346	0.145661
895.941930	0.145771
896.124495	0.145500
896.307041	0.145523
896.489570	0.145364
896.672080	0.145476
896.854573	0.145286
897.037046	0.145517
897.219502	0.145389
897.401940	0.145589
897.584359	0.145065
897.766760	0.145018
897.949143	0.144776
898.131507	0.144934
898.313854	0.144466
898.496182	0.144346
898.678492	0.144202
898.860783	0.144277
899.043057	0.144353
899.225312	0.144382
899.407549	0.144502
899.589768	0.144593
899.771968	0.144613
899.954151	0.144622
900.136315	0.144445
900.318461	0.144459
900.500588	0.144278
900.682698	0.144257
900.864789	0.144534
901.046862	0.144554
901.228917	0.144435
901.410953	0.144161
901.592971	0.144226
901.774972	0.144063
901.956953	0.143636
902.138917	0.143648
902.320862	0.143057
902.502790	0.142649
902.684699	0.142477
902.866589	0.142137
903.048462	0.141356
903.230316	0.141245
903.412152	0.141439
903.593970	0.141677
903.775770	0.141347
903.957551	0.141561
904.139314	0.141613
904.321059	0.141498
904.502786	0.141784
904.684494	0.142837
904.866185	0.142773
905.047857	0.142727
905.229510	0.142406
905.411146	0.142257
905.592763	0.142165
905.774363	0.141978
905.955943	0.141846
906.137506	0.141625
906.319051	0.140682
906.500577	0.139963
906.682085	0.139442
906.863575	0.139232
907.045046	0.139534
907.226500	0.139275
907.407935	0.138710
907.589352	0.138490
907.770750	0.137953
907.952131	0.138160
908.133493	0.138229
908.314837	0.137848
908.496163	0.137704
908.677470	0.136964
908.858760	0.136464
909.040031	0.136071
909.221284	0.135551
909.402518	0.135384
909.583735	0.135064
909.764933	0.135279
909.946113	0.135578
910.127275	0.135138
910.308418	0.134947
910.489544	0.134959
910.670651	0.134793
910.851740	0.134899
911.032810	0.134701
911.213863	0.134258
911.394897	0.133488
911.575913	0.133007
911.756911	0.132671
911.937890	0.132262
912.118851	0.131672
912.299794	0.131715
912.480719	0.131438
912.661626	0.130873
912.842514	0.130594
913.023384	0.130403
913.204236	0.129878
913.385070	0.129723
913.565886	0.129600
913.746683	0.129176
913.927462	0.128857
914.108223	0.128042
914.288965	0.127283
914.469690	0.126865
914.650396	0.126457
914.831084	0.126166
915.011754	0.125644
915.192405	0.125023
915.373038	0.125112
915.553653	0.124846
915.734250	0.124911
915.914829	0.124872
916.095389	0.124218
916.275931	0.123683
916.456455	0.123170
916.636961	0.123188
916.817448	0.123221
916.997917	0.122908
917.178368	0.122579
917.358801	0.121814
917.539216	0.121140
917.719612	0.121025
917.899990	0.120772
918.080350	0.120445
918.260692	0.119458
918.441015	0.118967
918.621320	0.118170
918.801607	0.117683
918.981876	0.117236
919.162127	0.117288
919.342359	0.117489
919.522573	0.117123
919.702769	0.116670
919.882947	0.116361
920.063106	0.115710
920.243247	0.115204
920.423370	0.114460
920.603475	0.114188
920.783562	0.114132
920.963630	0.113651
921.143680	0.113213
921.323712	0.112859
921.503725	0.112631
921.683721	0.112659
921.863698	0.112391
922.043657	0.111941
922.223598	0.112108
922.403520	0.111656
922.583424	0.111210
922.763311	0.111348
922.943178	0.110806
923.123028	0.110347
923.302859	0.109551
923.482673	0.109024
923.662467	0.109175
923.842244	0.108141
924.022003	0.107867
924.201743	0.107420
924.381465	0.106899
924.561169	0.107093
924.740854	0.106587
924.920522	0.105979
925.100171	0.105345
925.279802	0.104792
925.459414	0.104352
925.639009	0.103583
925.818585	0.102765
925.998143	0.102470
926.177683	0.101876
926.357205	0.101308
926.536708	0.101661
926.716193	0.101278
926.895660	0.100633
927.075109	0.100033
927.254539	0.099216
927.433951	0.099071
927.613345	0.097708
927.792721	0.097518
927.972079	0.097428
928.151418	0.096979
928.330739	0.096795
928.510042	0.096030
928.689327	0.095798
928.868593	0.095806
929.047841	0.095339
929.227071	0.094940
929.406283	0.093950
929.585476	0.093623
929.764652	0.092803
929.943809	0.092165
930.122948	0.092169
930.302068	0.091816
930.481171	0.090967
930.660255	0.089831
930.839321	0.089703
931.018369	0.089231
931.197398	0.088200
931.376409	0.087548
931.555402	0.087477
931.734377	0.087117
931.913334	0.086294
932.092272	0.086530
932.271192	0.087145
932.450094	0.086067
932.628978	0.085536
932.807844	0.085611
932.986691	0.085037
933.165520	0.084162
933.344331	0.083551
933.523123	0.083528
933.701898	0.082574
933.880654	0.081159
934.059392	0.080892
934.238111	0.080254
934.416813	0.079292
934.595496	0.079014
934.774161	0.078430
934.952808	0.077239
935.131437	0.076826
935.310047	0.076096
935.488639	0.075881
935.667213	0.075947
935.845769	0.076211
936.024306	0.075721
936.202825	0.075198
936.381326	0.074590
936.559809	0.074792
936.738274	0.073776
936.916720	0.073159
937.095148	0.072546
937.273558	0.071925
937.451950	0.070954
937.630323	0.070605
937.808678	0.070420
937.987015	0.069821
938.165334	0.068720
938.343635	0.068321
938.521917	0.067640
938.700181	0.067331
938.878427	0.066629
939.056655	0.065825
939.234864	0.064998
939.413055	0.064303
939.591228	0.064647
939.769383	0.064609
939.947519	0.064101
940.125638	0.063536
940.303738	0.062376
940.481820	0.061448
940.659883	0.060749
940.837929	0.060252
941.015956	0.058817
941.193965	0.058359
941.371955	0.058211
941.549928	0.057722
941.727882	0.057760
941.905818	0.055783
942.083736	0.055510
942.261636	0.055528
942.439517	0.054984
942.617380	0.054751
942.795225	0.052508
942.973052	0.051602
943.150860	0.050997
943.328651	0.049752
943.506423	0.051241
943.684176	0.050718
943.861912	0.050869
944.039629	0.050312
944.217328	0.049619
944.395009	0.050680
944.572672	0.049973
944.750317	0.049973
944.927943	0.050332
945.105551	0.049696
945.283141	0.048825
945.460712	0.047088
945.638265	0.045904
945.815801	0.045401
945.993317	0.044060
946.170816	0.043733
946.348297	0.042647
946.525759	0.042820
946.703203	0.041993
946.880629	0.041374
947.058036	0.040999
947.235425	0.040542
947.412797	0.039651
947.590149	0.038799
947.767484	0.039116
947.944800	0.038485
948.122099	0.037790
948.299379	0.037661
948.476640	0.037676
948.653884	0.036174
948.831109	0.036886
949.008316	0.037243
949.185505	0.037852
949.362676	0.036911
949.539828	0.035903
949.716962	0.034227
949.894078	0.033698
950.071176	0.033504
950.248256	0.033109
950.425317	0.032252
950.602360	0.032280
950.779385	0.031676
950.956391	0.031093
951.133380	0.030585
951.310350	0.030410
951.487302	0.028110
951.664235	0.028149
951.841151	0.028433
952.018048	0.028313
952.194927	0.027852
952.371788	0.026369
952.548631	0.025512
952.725455	0.025481
952.902261	0.025340
953.079049	0.027453
953.255819	0.025067
953.432570	0.026237
953.609303	0.026657
953.786018	0.024334
953.962715	0.024080
954.139394	0.023298
954.316054	0.023723
954.492696	0.023651
954.669320	0.023047
954.845926	0.023650
955.022513	0.022217
955.199083	0.021730
955.375634	0.022190
955.552166	0.022657
955.728681	0.021518
955.905177	0.022473
956.081655	0.021712
956.258115	0.020531
956.434557	0.021435
956.610980	0.019808
956.787385	0.017886
956.963772	0.017484
957.140141	0.017784
957.316492	0.017581
957.492824	0.017832
957.669138	0.017136
957.845434	0.018016
958.021712	0.015961
958.197971	0.015769
958.374212	0.015919
958.550435	0.018205
958.726640	0.018324
958.902826	0.019921
959.078995	0.016761
959.255145	0.016130
959.431277	0.014611
959.607390	0.015891
959.783486	0.017525
959.959563	0.017283
960.135622	0.016442
960.311662	0.016110
960.487685	0.014628
960.663689	0.014730
960.839675	0.014527
961.015643	0.015538
961.191593	0.014264
961.367524	0.014380
961.543437	0.014682
961.719332	0.014636
961.895209	0.016673
962.071067	0.017895
962.246907	0.017509
962.422730	0.018522
962.598533	0.017998
962.774319	0.018411
962.950086	0.017775
963.125835	0.020019
963.301566	0.017910
963.477279	0.015090
963.652973	0.015472
963.828650	0.015783
964.004308	0.016765
964.179947	0.016188
964.355569	0.015602
964.531172	0.015881
964.706757	0.012841
964.882324	0.015471
965.057873	0.017572
965.233403	0.017850
965.408916	0.019286
965.584410	0.018787
965.759885	0.021157
965.935343	0.023154
966.110782	0.022424
966.286203	0.024435
966.461606	0.024917
966.636991	0.024000
966.812357	0.022864
966.987705	0.020900
967.163035	0.020830
967.338347	0.018053
967.513641	0.017606
967.688916	0.018382
967.864173	0.017530
968.039412	0.016578
968.214632	0.015915
968.389835	0.014227
968.565019	0.014469
968.740185	0.013293
968.915333	0.012741
969.090462	0.013376
969.265573	0.011663
969.440667	0.011768
969.615741	0.009946
969.790798	0.012104
969.965836	0.013223
970.140856	0.014840
970.315858	0.016429
970.490842	0.017877
970.665808	0.015999
970.840755	0.017242
971.015684	0.016459
971.190595	0.018808
971.365487	0.017131
971.540362	0.017301
971.715218	0.016885
971.890056	0.016186
972.064875	0.014644
972.239677	0.015095
972.414460	0.015474
972.589225	0.015527
972.763972	0.014625
972.938700	0.013729
973.113411	0.015291
973.288103	0.013954
973.462777	0.013069
973.637432	0.014892
973.812070	0.013844
973.986689	0.013509
974.161290	0.013927
974.335873	0.013103
974.510437	0.013003
974.684984	0.011651
974.859512	0.012351
975.034022	0.011682
975.208513	0.011914
975.382987	0.012186
975.557442	0.011467
975.731879	0.010175
975.906298	0.011067
976.080698	0.009842
976.255080	0.009581
976.429445	0.009878
976.603790	0.014041
976.778118	0.012197
976.952427	0.013397
977.126719	0.015075
977.300992	0.017093
977.475246	0.016729
977.649483	0.017544
977.823701	0.016401
977.997901	0.015816
978.172083	0.012017
978.346247	0.012386
978.520392	0.012761
978.694519	0.011062
978.868628	0.010280
979.042719	0.009072
979.216791	0.009903
979.390845	0.010881
979.564882	0.011981
979.738899	0.013628
979.912899	0.014457
980.086880	0.013512
980.260843	0.014977
980.434788	0.013544
980.608715	0.014052
980.782623	0.014369
980.956514	0.013751
981.130386	0.013534
981.304240	0.013285
981.478075	0.014843
981.651892	0.015356
981.825692	0.014277
981.999472	0.016359
982.173235	0.017784
982.346980	0.015707
982.520706	0.018678
982.694414	0.017865
982.868104	0.017695
983.041775	0.015795
983.215428	0.015202
983.389064	0.016822
983.562680	0.016218
983.736279	0.016288
983.909860	0.018045
984.083422	0.016729
984.256966	0.016176
984.430491	0.012596
984.603999	0.013375
984.777488	0.014245
984.950959	0.013020
985.124412	0.013143
985.297847	0.011381
985.471263	0.011005
985.644661	0.009729
985.818041	0.011039
985.991403	0.015086
986.164747	0.015750
986.338072	0.015533
986.511379	0.016154
986.684668	0.016415
986.857938	0.016720
987.031191	0.015947
987.204425	0.014441
987.377641	0.014042
987.550839	0.014223
987.724018	0.013543
987.897179	0.011961
988.070322	0.010149
988.243447	0.009604
988.416554	0.010167
988.589642	0.011598
988.762712	0.013215
988.935764	0.012507
989.108798	0.012139
989.281813	0.010908
989.454811	0.011123
989.627790	0.013235
989.800751	0.012008
989.973693	0.012209
990.146617	0.011353
990.319524	0.011032
990.492412	0.010589
990.665281	0.010434
990.838133	0.010678
991.010966	0.011352
991.183781	0.011380
991.356578	0.012085
991.529356	0.011887
991.702117	0.010829
991.874859	0.011410
992.047583	0.011853
992.220288	0.010801
992.392976	0.012357
992.565645	0.011880
992.738296	0.009603
992.910929	0.009824
993.083543	0.011106
993.256139	0.011997
993.428718	0.014408
993.601277	0.014321
993.773819	0.014695
993.946342	0.015010
994.118848	0.015237
994.291335	0.016061
994.463803	0.016228
994.636254	0.015488
994.808686	0.015983
994.981100	0.013026
995.153496	0.014774
995.325874	0.014424
995.498233	0.013982
995.670574	0.015263
995.842897	0.017037
996.015202	0.015601
996.187488	0.014062
996.359757	0.012793
996.532007	0.013671
996.704239	0.012783
996.876452	0.012657
997.048648	0.012031
997.220825	0.011903
997.392984	0.010106
997.565124	0.012220
997.737247	0.013703
997.909351	0.013941
998.081437	0.013964
998.253505	0.013109
998.425554	0.014078
998.597586	0.013852
998.769599	0.013734
998.941594	0.015270
999.113571	0.014661
999.285529	0.015832
999.457469	0.015822
999.629391	0.015515
999.801295	0.017090
999.973181	0.016281
1000.145048	0.015835
1000.316897	0.017242
1000.488728	0.014019
1000.660541	0.013515
1000.832335	0.012026
1001.004111	0.013493
1001.175869	0.015194
1001.347609	0.013605
1001.519331	0.016178
1001.691034	0.017363
1001.862719	0.015142
1002.034386	0.017539
1002.206035	0.017116
1002.377665	0.016833
1002.549277	0.014497
1002.720871	0.012811
1002.892447	0.012761
1003.064004	0.010161
1003.235544	0.009499
1003.407065	0.010608
1003.578568	0.009223
1003.750052	0.009547
1003.921519	0.009898
1004.092967	0.011366
1004.264397	0.014018
1004.435809	0.013592
1004.607202	0.014178
1004.778577	0.015655
1004.949934	0.013426
1005.121273	0.014272
1005.292594	0.013716
1005.463896	0.012582
1005.635180	0.011533
1005.806446	0.007495
1005.977694	0.009159
1006.148923	0.008623
1006.320135	0.007408
1006.491328	0.008904
1006.662503	0.007598
1006.833659	0.008307
1007.004798	0.008927
1007.175918	0.009480
1007.347020	0.009772
1007.518103	0.006905
1007.689169	0.006730
1007.860216	0.007120
1008.031245	0.006734
1008.202256	0.009810
1008.373248	0.009825
1008.544223	0.010390
1008.715179	0.011846
1008.886117	0.012073
1009.057036	0.013002
1009.227938	0.013887
1009.398821	0.011796
1009.569686	0.012148
1009.740533	0.010289
1009.911361	0.010636
1010.082172	0.010649
1010.252964	0.011656
1010.423738	0.012395
1010.594493	0.012734
1010.765231	0.012350
1010.935950	0.013141
1011.106651	0.013533
1011.277334	0.012635
1011.447998	0.011740
1011.618645	0.012524
1011.789273	0.011576
1011.959882	0.011985
1012.130474	0.012360
1012.301048	0.012239
1012.471603	0.011858
1012.642140	0.010748
1012.812658	0.011817
1012.983159	0.012696
1013.153641	0.009232
1013.324105	0.008730
1013.494551	0.007797
1013.664979	0.007521
1013.835388	0.006798
1014.005779	0.008358
1014.176152	0.008231
1014.346507	0.007535
1014.516843	0.006774
1014.687162	0.009059
1014.857462	0.009036
1015.027744	0.008778
1015.198007	0.008408
1015.368252	0.008486
1015.538480	0.007180
1015.708689	0.009143
1015.878879	0.009393
1016.049052	0.011487
1016.219206	0.011846
1016.389342	0.011975
1016.559460	0.013710
1016.729559	0.015857
1016.899641	0.017636
1017.069704	0.018096
1017.239749	0.015455
1017.409775	0.014510
1017.579784	0.014131
1017.749774	0.012618
1017.919746	0.010259
1018.089700	0.009109
1018.259635	0.007152
1018.429553	0.005836
1018.599452	0.005976
1018.769333	0.008034
1018.939195	0.008950
1019.109040	0.009396
1019.278866	0.010820
1019.448674	0.011913
1019.618464	0.012657
1019.788235	0.013441
1019.957989	0.013271
1020.127724	0.012858
1020.297441	0.011724
1020.467139	0.010482
1020.636820	0.008356
1020.806482	0.007028
1020.976126	0.007760
1021.145752	0.007760
1021.315359	0.006208
1021.484948	0.006425
1021.654519	0.006955
1021.824072	0.005772
1021.993607	0.007889
1022.163123	0.009839
1022.332621	0.012207
1022.502101	0.013019
1022.671563	0.012003
1022.841007	0.013123
1023.010432	0.013859
1023.179839	0.013896
1023.349228	0.015456
1023.518598	0.014479
1023.687951	0.014129
1023.857285	0.013669
1024.026601	0.012121
1024.195899	0.011538
1024.365178	0.012296
1024.534439	0.010915
1024.703682	0.010457
1024.872907	0.009422
1025.042114	0.008748
1025.211302	0.007192
1025.380472	0.005144
1025.549624	0.005893
1025.718758	0.007354
1025.887873	0.006285
1026.056970	0.005563
1026.226049	0.005312
1026.395110	0.006342
1026.564153	0.006174
1026.733177	0.007132
1026.902183	0.007083
1027.071171	0.007477
1027.240141	0.007255
1027.409092	0.008025
1027.578026	0.009798
1027.746940	0.009263
1027.915837	0.009835
1028.084716	0.010333
1028.253576	0.009866
1028.422418	0.011200
1028.591242	0.010555
1028.760048	0.010134
1028.928835	0.007848
1029.097604	0.008477
1029.266355	0.009623
1029.435088	0.009364
1029.603803	0.010659
1029.772499	0.011336
1029.941177	0.010283
1030.109837	0.011627
1030.278478	0.009993
1030.447102	0.012310
1030.615707	0.010070
1030.784294	0.010448
1030.952863	0.010001
1031.121413	0.009150
1031.289945	0.008262
1031.458460	0.008925
1031.626955	0.008494
1031.795433	0.009649
1031.963892	0.008091
1032.132334	0.009619
1032.300756	0.006108
1032.469161	0.004987
1032.637548	0.004917
1032.805916	0.005764
1032.974266	0.005052
1033.142598	0.003277
1033.310911	0.004120
1033.479207	0.006693
1033.647484	0.004615
1033.815743	0.007875
1033.983983	0.009694
1034.152206	0.009513
1034.320410	0.008650
1034.488596	0.008874
1034.656764	0.008202
1034.824914	0.007740
1034.993045	0.007009
1035.161158	0.009143
1035.329253	0.010192
1035.497330	0.007491
1035.665388	0.007020
1035.833428	0.008143
1036.001450	0.008064
1036.169454	0.009420
1036.337440	0.009102
1036.505407	0.009241
1036.673356	0.007561
1036.841287	0.005096
1037.009200	0.006378
1037.177094	0.006589
1037.344970	0.005225
1037.512828	0.005590
1037.680668	0.006138
1037.848489	0.006461
1038.016293	0.004905
1038.184078	0.007173
1038.351845	0.009419
1038.519593	0.009000
1038.687324	0.009727
1038.855036	0.008575
1039.022730	0.009437
1039.190406	0.010042
1039.358063	0.010149
1039.525702	0.011036
1039.693323	0.009621
1039.860926	0.007735
1040.028511	0.008657
1040.196077	0.008712
1040.363625	0.010538
1040.531155	0.009038
1040.698667	0.008124
1040.866161	0.008530
1041.033636	0.008099
1041.201093	0.009436
1041.368532	0.008697
1041.535952	0.007720
1041.703355	0.006556
1041.870739	0.006579
1042.038105	0.007974
1042.205452	0.006595
1042.372782	0.006244
1042.540093	0.004958
1042.707386	0.003556
1042.874661	0.004623
1043.041918	0.005244
1043.209156	0.007427
1043.376376	0.008132
1043.543578	0.004782
1043.710762	0.005926
1043.877927	0.005530
1044.045074	0.007756
1044.212203	0.007512
1044.379314	0.008471
1044.546407	0.007058
1044.713481	0.004229
1044.880537	0.003063
1045.047575	0.004259
1045.214595	0.004786
1045.381596	0.005622
1045.548579	0.004651
1045.715544	0.004343
1045.882491	0.003592
1046.049420	0.005003
1046.216330	0.006460
1046.383222	0.006711
1046.550096	0.010168
1046.716951	0.009294
1046.883789	0.007288
1047.050608	0.008420
1047.217409	0.008787
1047.384192	0.008842
1047.550956	0.010533
1047.717703	0.010784
1047.884431	0.010288
1048.051140	0.009141
1048.217832	0.008927
1048.384505	0.010250
1048.551161	0.008530
1048.717798	0.008749
1048.884416	0.009400
1049.051017	0.007456
1049.217599	0.006134
1049.384163	0.006997
1049.550709	0.006067
1049.717237	0.006885
1049.883746	0.006216
1050.050237	0.005035
1050.216710	0.004668
1050.383165	0.004531
1050.549601	0.006248
1050.716019	0.006832
1050.882420	0.006484
1051.048801	0.007409
1051.215165	0.007081
1051.381510	0.006640
1051.547837	0.008103
1051.714146	0.007348
1051.880437	0.005660
1052.046709	0.004043
1052.212964	0.003753
1052.379200	0.002162
1052.545417	-0.000057
1052.711617	-0.000307
1052.877798	0.001012
1053.043961	0.001626
1053.210106	0.002132
1053.376233	0.003156
1053.542341	0.003201
1053.708432	0.004241
1053.874504	0.005988
1054.040557	0.007074
1054.206593	0.004827
1054.372610	0.003235
1054.538609	0.005027
1054.704590	0.004451
1054.870553	0.003964
1055.036497	0.004345
1055.202424	0.003149
1055.368331	0.001499
1055.534221	0.002660
1055.700093	0.004705
1055.865946	0.006793
1056.031781	0.006023
1056.197598	0.007398
1056.363397	0.007850
1056.529177	0.006757
1056.694939	0.007113
1056.860683	0.008629
1057.026409	0.008879
1057.192116	0.010637
1057.357806	0.009550
1057.523477	0.007027
1057.689130	0.008741
1057.854764	0.008775
1058.020381	0.010643
1058.185979	0.011542
1058.351559	0.009883
1058.517120	0.009704
1058.682664	0.008239
1058.848189	0.009695
1059.013696	0.011571
1059.179185	0.009941
1059.344656	0.010628
1059.510108	0.009830
1059.675542	0.008082
1059.840958	0.007323
1060.006356	0.006240
1060.171735	0.004722
1060.337096	0.005022
1060.502439	0.003269
1060.667764	0.003501
1060.833071	0.001517
1060.998359	0.003908
1061.163629	0.003599
1061.328881	0.005398
1061.494115	0.005124
1061.659330	0.006686
1061.824527	0.005072
1061.989706	0.007062
1062.154867	0.006543
1062.320010	0.006506
1062.485134	0.001915
1062.650240	0.004712
1062.815328	0.002502
1062.980398	0.001804
1063.145449	0.000381
1063.310482	0.000102
1063.475497	-0.000365
1063.640494	-0.000641
1063.805473	0.000668
1063.970433	0.003261
1064.135375	0.001889
1064.300299	0.004248
1064.465204	0.005876
1064.630092	0.007749
1064.794961	0.008600
1064.959812	0.007596
1065.124645	0.007668
1065.289459	0.007347
1065.454256	0.008133
1065.619034	0.006737
1065.783793	0.006109
1065.948535	0.005698
1066.113258	0.004307
1066.277964	0.005163
1066.442651	0.006948
1066.607319	0.006315
1066.771970	0.006149
1066.936602	0.004693
1067.101216	0.004613
1067.265812	0.004588
1067.430389	0.003928
1067.594949	0.005366
1067.759490	0.005234
1067.924013	0.005454
1068.088518	0.006634
1068.253004	0.006854
1068.417472	0.006059
1068.581922	0.007332
1068.746354	0.008360
1068.910768	0.009650
1069.075163	0.010312
1069.239540	0.011392
1069.403899	0.010798
1069.568240	0.010364
1069.732562	0.010055
1069.896866	0.013508
1070.061152	0.014822
1070.225420	0.015536
1070.389670	0.014280
1070.553901	0.013618
1070.718114	0.009498
1070.882309	0.007805
1071.046486	0.008280
1071.210644	0.008403
1071.374784	0.005146
1071.538906	0.006499
1071.703010	0.003493
1071.867096	0.002861
1072.031163	0.001924
1072.195212	0.003342
1072.359243	0.004400
1072.523256	0.002768
1072.687250	0.002039
1072.851226	0.002400
1073.015184	-0.000612
1073.179124	0.003642
1073.343045	0.003705
1073.506949	0.003151
1073.670834	0.004442
1073.834701	0.005064
1073.998549	0.005379
1074.162380	0.007673
1074.326192	0.010410
1074.489986	0.011684
1074.653761	0.011017
1074.817519	0.012488
1074.981258	0.013521
1075.144979	0.012288
1075.308682	0.013682
1075.472367	0.014715
1075.636033	0.015656
1075.799681	0.013494
1075.963311	0.010902
1076.126923	0.009265
1076.290516	0.008846
1076.454092	0.007766
1076.617649	0.007961
1076.781187	0.008155
1076.944708	0.009253
1077.108210	0.008894
1077.271695	0.008230
1077.435160	0.008783
1077.598608	0.011670
1077.762038	0.011718
1077.925449	0.013541
1078.088842	0.012271
1078.252217	0.009247
1078.415573	0.008654
1078.578912	0.007605
1078.742232	0.008432
1078.905534	0.010572
1079.068817	0.006069
1079.232083	0.008632
1079.395330	0.006366
1079.558559	0.007069
1079.721770	0.007364
1079.884962	0.008830
1080.048136	0.007663
1080.211293	0.007060
1080.374430	0.007454
1080.537550	0.010200
1080.700651	0.009027
1080.863735	0.007479
1081.026800	0.008462
1081.189846	0.009523
1081.352875	0.007514
1081.515885	0.006810
1081.678877	0.008558
1081.841851	0.008766
1082.004807	0.007563
1082.167744	0.006069
1082.330663	0.009932
1082.493564	0.009433
1082.656447	0.010222
1082.819312	0.011110
1082.982158	0.009671
1083.144986	0.005706
1083.307796	0.003256
1083.470587	0.004769
1083.633361	0.003570
1083.796116	0.002614
1083.958853	0.000343
1084.121571	-0.001774
1084.284272	-0.003625
1084.446954	-0.001235
1084.609618	0.000442
1084.772264	0.000541
1084.934892	-0.003669
1085.097501	-0.003958
1085.260092	-0.002225
1085.422665	0.002572
1085.585220	0.004849
1085.747756	0.008136
1085.910274	0.007066
1086.072774	0.007271
1086.235256	0.006938
1086.397720	0.008465
1086.560165	0.010517
1086.722592	0.009325
1086.885001	0.007017
1087.047392	0.007100
1087.209764	0.003636
1087.372119	0.002110
1087.534455	0.002437
1087.696772	0.005003
1087.859072	0.005936
1088.021353	0.004977
1088.183616	0.006345
1088.345861	0.007551
1088.508088	0.004485
1088.670296	0.004603
1088.832486	0.007461
1088.994658	0.007862
1089.156812	0.006612
1089.318948	0.007960
1089.481065	0.008041
1089.643164	0.005875
1089.805245	0.002893
1089.967308	0.005555
1090.129352	0.007045
1090.291378	0.008331
1090.453386	0.008171
1090.615376	0.006651
1090.777347	0.005549
1090.939301	0.006737
1091.101236	0.008330
1091.263153	0.009851
1091.425051	0.006576
1091.586932	0.009280
1091.748794	0.008376
1091.910638	0.007478
1092.072463	0.008973
1092.234271	0.008092
1092.396060	0.003889
1092.557831	0.001746
1092.719584	0.001268
1092.881319	0.004685
1093.043035	0.001749
1093.204733	0.002418
1093.366413	0.003784
1093.528075	0.003176
1093.689718	0.004276
1093.851343	0.010216
1094.012950	0.010729
1094.174539	0.012706
1094.336110	0.010316
1094.497662	0.010894
1094.659196	0.009909
1094.820712	0.009539
1094.982210	0.011877
1095.143689	0.014798
1095.305151	0.013631
1095.466594	0.014251
1095.628018	0.012015
1095.789425	0.013048
1095.950813	0.014981
1096.112183	0.015553
1096.273535	0.015721
1096.434869	0.016554
1096.596184	0.017398
1096.757482	0.014421
1096.918761	0.015040
1097.080021	0.018625
1097.241264	0.019280
1097.402488	0.015350
1097.563694	0.015512
1097.724882	0.015555
1097.886052	0.013140
1098.047203	0.009526
1098.208336	0.011494
1098.369451	0.009360
1098.530548	0.007616
1098.691627	0.006938
1098.852687	0.010760
1099.013729	0.010403
1099.174753	0.006634
1099.335758	0.005817
1099.496746	0.005542
1099.657715	0.003443
1099.818666	0.005672
1099.979599	0.002606
1100.140513	0.005071
1100.301409	0.000394
1100.462287	0.001119
1100.623147	0.002752
1100.783989	0.005348
1100.944812	0.005326
1101.105617	0.008785
1101.266404	0.009814
1101.427173	0.009441
1101.587923	0.007894
1101.748656	0.011343
1101.909370	0.011428
1102.070066	0.013070
1102.230743	0.012319
1102.391403	0.011619
1102.552044	0.006533
1102.712667	0.002229
1102.873271	0.003975
1103.033858	0.003509
1103.194426	0.002489
1103.354976	0.003189
1103.515508	0.002805
1103.676021	0.002601
1103.836517	0.005378
1103.996994	0.009536
1104.157453	0.006546
1104.317893	0.006754
1104.478316	0.007958
1104.638720	0.011148
1104.799106	0.008312
1104.959474	0.005475
1105.119823	0.006971
1105.280155	0.002467
1105.440468	0.002584
1105.600763	0.007755
1105.761039	0.007610
1105.921298	0.006533
1106.081538	0.005003
1106.241760	0.009548
1106.401964	0.012121
1106.562149	0.012203
1106.722316	0.015574
1106.882465	0.012503
1107.042596	0.012863
1107.202709	0.014904
1107.362803	0.013577
1107.522879	0.010607
1107.682937	0.008310
1107.842977	0.008625
1108.002999	0.005885
1108.163002	0.004490
1108.322987	0.003740
1108.482954	0.005255
1108.642902	0.006131
1108.802833	0.010198
1108.962745	0.011129
1109.122639	0.010560
1109.282515	0.011757
1109.442372	0.014982
1109.602211	0.018197
1109.762032	0.022331
1109.921835	0.023885
1110.081620	0.022984
1110.241386	0.019894
1110.401134	0.017967
1110.560864	0.015147
1110.720576	0.015183
1110.880269	0.013905
1111.039945	0.008638
1111.199602	0.011261
1111.359240	0.008293
1111.518861	0.006866
1111.678463	0.010170
1111.838047	0.015891
1111.997613	0.018203
1112.157161	0.020039
1112.316690	0.015727
1112.476202	0.020014
1112.635695	0.017254
1112.795169	0.012589
1112.954626	0.011954
1113.114064	0.007892
1113.273484	0.005231
1113.432886	0.004233
1113.592270	0.004394
1113.751635	0.009735
1113.910983	0.007940
1114.070312	0.003348
1114.229622	0.005717
1114.388915	0.003399
1114.548189	0.001727
1114.707445	-0.001886
1114.866683	-0.000021
1115.025903	-0.000543
1115.185104	-0.003779
1115.344287	0.001428
1115.503452	0.000344
1115.662599	0.006906
1115.821727	0.014669
1115.980838	0.016687
1116.139930	0.018526
1116.299004	0.016571
1116.458059	0.017473
1116.617097	0.019017
1116.776116	0.015037
1116.935117	0.020438
1117.094099	0.015545
1117.253064	0.014098
1117.412010	0.015786
1117.570938	0.019636
1117.729848	0.017842
1117.888740	0.016696
1118.047613	0.017400
1118.206468	0.019863
1118.365305	0.020021
1118.524124	0.022487
1118.682924	0.023186
1118.841707	0.023787
1119.000471	0.022822
1119.159216	0.025611
1119.317944	0.023941
1119.476653	0.023162
1119.635344	0.017383
1119.794017	0.022320
1119.952672	0.017242
1120.111308	0.006744
1120.269927	0.005163
1120.428527	0.006688
1120.587108	0.007014
1120.745672	0.007799
1120.904217	0.003372
1121.062744	0.004479
1121.221253	-0.006132
1121.379744	-0.001770
1121.538216	0.003803
1121.696671	0.005312
1121.855107	-0.000678
1122.013524	0.004938
1122.171924	-0.002917
1122.330305	-0.002666
1122.488668	0.001737
1122.647013	0.005423
1122.805340	0.004294
1122.963648	0.005064
1123.121938	0.002044
1123.280210	0.011404
1123.438464	0.008275
1123.596700	0.013047
1123.754917	0.020438
1123.913116	0.017143
1124.071297	0.017170
1124.229459	0.014362
1124.387604	0.016172
1124.545730	0.011956
1124.703838	0.010159
1124.861928	0.004876
1125.019999	0.012832
1125.178052	0.008817
1125.336088	0.009522
1125.494104	0.010159
1125.652103	0.014137
1125.810083	0.018940
1125.968045	0.024410
1126.125989	0.018762
1126.283915	0.023715
1126.441823	0.022747
1126.599712	0.026284
1126.757583	0.025506
1126.915436	0.025176
1127.073270	0.027663
1127.231087	0.027321
1127.388885	0.023035
1127.546665	0.028399
1127.704426	0.025739
1127.862170	0.020266
1128.019895	0.016531
1128.177602	0.011683
1128.335291	0.009534
1128.492961	0.004141
1128.650614	-0.001119
1128.808248	0.001310
1128.965864	0.001818
1129.123461	0.000453
1129.281041	0.006577
1129.438602	0.008761
1129.596145	0.020009
1129.753670	0.022948
1129.911176	0.026798
1130.068665	0.029816
1130.226135	0.025625
1130.383587	0.016337
1130.541020	0.014290
1130.698436	0.014178
1130.855833	0.012715
1131.013212	0.011008
1131.170573	0.011264
1131.327915	0.009832
1131.485239	0.010177
1131.642545	0.012672
1131.799833	0.018954
1131.957103	0.027264
1132.114354	0.022677
1132.271588	0.014935
1132.428803	0.012365
1132.585999	0.006296
1132.743178	0.003036
1132.900338	0.004479
1133.057480	0.011559
1133.214604	0.008449
1133.371710	-0.000604
1133.528797	-0.001871
1133.685866	0.004413
1133.842917	-0.001253
1133.999950	0.006831
1134.156964	0.004535
1134.313960	0.001548
1134.470938	-0.000262
1134.627898	-0.005951
1134.784840	-0.004925
1134.941763	-0.006106
1135.098668	-0.006413
1135.255555	-0.000225
1135.412424	-0.002158
1135.569274	0.004400
1135.726107	-0.002459
1135.882921	-0.007361
1136.039716	-0.005413
1136.196494	-0.006277
1136.353253	-0.002596
1136.509995	-0.006653
1136.666717	-0.008429
1136.823422	-0.001802
1136.980109	-0.005565
1137.136777	0.003853
1137.293427	0.004491
1137.450059	0.012072
1137.606672	0.023167
1137.763267	0.018200
1137.919844	0.026695
1138.076403	0.021981
1138.232944	0.010047
1138.389466	0.012007
1138.545971	0.007800
1138.702457	0.011642
1138.858924	0.011512
1139.015374	0.002171
1139.171805	0.001615
1139.328218	-0.004523
1139.484613	0.000171
1139.640990	0.007919
1139.797348	0.009873
1139.953688	0.013253
1140.110010	0.007924
1140.266314	0.009537
1140.422600	0.005845
1140.578867	0.018931
1140.735116	0.019946
1140.891347	0.025899
1141.047559	0.025223
1141.203754	0.026828
1141.359930	0.021907
1141.516088	0.029333
1141.672228	0.016488
1141.828349	0.023114
1141.984452	0.018693
1142.140537	0.022638
1142.296604	0.017902
1142.452653	0.013487
1142.608683	0.016583
1142.764695	0.019423
1142.920689	0.018629
1143.076665	0.031978
1143.232622	0.034052
1143.388562	0.031133
1143.544483	0.031585
1143.700385	0.030232
1143.856270	0.044934
1144.012136	0.043711
1144.167985	0.048814
1144.323814	0.048322
1144.479626	0.037512
1144.635420	0.038917
1144.791195	0.037457
1144.946952	0.041204
1145.102691	0.032968
1145.258411	0.024499
1145.414113	0.013167
1145.569798	-0.000700
1145.725463	-0.002401
1145.881111	0.005750
1146.036741	0.007058
1146.192352	0.009800
1146.347945	0.005424
1146.503519	0.004655
1146.659076	0.003649
1146.814614	0.009692
1146.970134	0.008874
1147.125636	0.010588
1147.281120	0.004375
1147.436585	-0.001463
1147.592032	-0.010080
1147.747461	-0.009123
1147.902872	0.001635
1148.058265	-0.003623
1148.213639	-0.007903
1148.368995	-0.002318
1148.524333	-0.004454
1148.679653	0.003455
1148.834954	0.003432
1148.990237	0.005216
1149.145502	0.002781
1149.300749	-0.000173
1149.455977	0.010061
1149.611188	0.012399
1149.766380	0.021418
1149.921553	0.029564
1150.076709	0.027205
1150.231846	0.034249
1150.386966	0.027942
1150.542066	0.032499
1150.697149	0.027541
1150.852214	0.019111
1151.007260	0.021140
1151.162288	0.024181
1151.317298	0.028367
1151.472289	0.034054
1151.627263	0.023788
1151.782218	0.030545
1151.937155	0.027100
1152.092073	0.029967
1152.246974	0.027985
1152.401856	0.020537
1152.556720	0.011381
1152.711566	-0.005906
1152.866393	-0.013845
1153.021203	-0.002057
1153.175994	0.000504
1153.330767	0.008163
1153.485521	0.011924
1153.640258	0.014798
1153.794976	0.032587
1153.949676	0.025700
1154.104358	0.025635
1154.259021	0.035765
1154.413667	0.030065
1154.568294	0.022570
1154.722903	0.020285
1154.877493	0.032803
1155.032066	0.036235
1155.186620	0.031535
1155.341156	0.042744
1155.495674	0.067529
1155.650173	0.049888
1155.804654	0.041754
1155.959118	0.051182
1156.113562	0.050916
1156.267989	0.038172
1156.422397	0.040294
1156.576788	0.046941
1156.731160	0.041507
1156.885513	0.022332
1157.039849	0.030136
1157.194166	0.035938
1157.348465	0.033861
1157.502746	0.044142
1157.657009	0.035215
1157.811253	0.040662
1157.965479	0.028159
1158.119687	0.025446
1158.273877	0.038846
1158.428048	0.034535
1158.582201	0.042526
1158.736337	0.042250
1158.890453	0.028118
1159.044552	0.028372
1159.198632	0.016060
1159.352694	0.015403
1159.506738	0.028451
1159.660764	0.014147
1159.814771	0.015417
1159.968761	0.007704
1160.122732	0.013783
1160.276685	0.024096
1160.430619	0.029196
1160.584535	0.024184
1160.738434	0.044360
1160.892313	0.030445
1161.046175	0.030714
1161.200019	0.023087
1161.353844	0.028061
1161.507651	0.020999
1161.661440	0.019107
1161.815210	0.017505
1161.968962	0.035486
1162.122697	0.021450
1162.276412	0.034559
1162.430110	0.040104
1162.583789	0.050193
1162.737451	0.033619
1162.891094	0.039596
1163.044718	0.029939
1163.198325	0.039482
1163.351913	0.031243
1163.505483	0.040572
1163.659035	0.029259
1163.812569	0.031463
1163.966084	0.032360
1164.119581	0.058638
1164.273060	0.066855
1164.426521	0.076156
1164.579964	0.071564
1164.733388	0.069430
1164.886794	0.059606
1165.040182	0.061621
1165.193551	0.056695
1165.346903	0.054474
1165.500236	0.044748
1165.653551	0.051296
1165.806848	0.037922
1165.960126	0.038376
1166.113386	0.021614
1166.266628	0.011930
1166.419852	0.014535
1166.573058	0.019771
1166.726245	0.033957
1166.879414	0.030608
1167.032565	0.015681
1167.185698	0.015618
1167.338812	0.014257
1167.491909	0.036272
1167.644987	0.036319
1167.798046	0.040421
1167.951088	0.018191
1168.104111	0.002867
1168.257117	0.008264
1168.410103	0.000134
1168.563072	0.010442
1168.716023	0.020073
1168.868955	-0.003891
1169.021869	0.000823
1169.174765	0.001144
1169.327642	0.017733
1169.480501	0.034254
1169.633343	0.027716
1169.786165	0.022663
1169.938970	0.019215
1170.091757	0.007638
1170.244525	0.033529
1170.397275	0.047166
1170.550007	0.025679
1170.702720	0.019131
1170.855415	0.007983
1171.008092	0.003299
1171.160751	0.012228
1171.313392	0.006323
1171.466014	0.043840
1171.618619	-0.004961
1171.771205	-0.004961
1171.923772	-0.004961
