sample name	sample
index	255
start time	 02-25-2021  10:41:01 AM


Wavelength (nm)	Absorbance
494.344910	-0.155878
494.563924	-0.155878
494.782919	-0.155878
495.001897	0.124864
495.220856	-0.043914
495.439797	-0.007256
495.658719	0.013844
495.877624	0.030566
496.096510	0.011984
496.315378	0.041788
496.534227	0.049363
496.753059	0.062516
496.971872	0.040584
497.190667	0.023794
497.409444	0.013102
497.628203	0.012184
497.846943	0.011807
498.065665	0.011511
498.284369	0.011955
498.503055	0.011483
498.721723	0.010709
498.940372	0.010530
499.159003	0.009922
499.377616	0.009878
499.596210	0.009445
499.814787	0.010087
500.033345	0.009771
500.251885	0.009480
500.470406	0.009761
500.688910	0.010012
500.907395	0.009960
501.125862	0.009833
501.344311	0.010327
501.562742	0.011373
501.781154	0.010916
501.999548	0.012153
502.217924	0.012403
502.436282	0.012446
502.654621	0.012653
502.872942	0.012107
503.091245	0.012140
503.309530	0.011647
503.527797	0.010509
503.746045	0.010917
503.964275	0.010226
504.182487	0.010115
504.400681	0.009918
504.618856	0.009212
504.837013	0.009825
505.055152	0.010081
505.273273	0.010356
505.491376	0.011092
505.709460	0.010386
505.927526	0.010613
506.145574	0.009903
506.363604	0.009930
506.581615	0.010789
506.799608	0.011045
507.017583	0.011090
507.235540	0.010709
507.453478	0.010627
507.671399	0.010320
507.889301	0.009692
508.107185	0.009855
508.325050	0.009349
508.542898	0.009449
508.760727	0.009198
508.978538	0.008753
509.196330	0.009386
509.414105	0.008945
509.631861	0.008713
509.849599	0.008388
510.067319	0.009679
510.285021	0.010087
510.502704	0.010407
510.720369	0.010186
510.938016	0.010630
511.155645	0.009898
511.373255	0.010299
511.590848	0.010227
511.808422	0.011292
512.025977	0.010306
512.243515	0.010536
512.461034	0.009979
512.678536	0.010291
512.896018	0.010455
513.113483	0.011387
513.330930	0.011332
513.548358	0.012234
513.765768	0.012075
513.983160	0.012391
514.200533	0.012679
514.417889	0.012771
514.635226	0.012984
514.852545	0.012848
515.069845	0.012491
515.287128	0.012140
515.504392	0.012379
515.721638	0.012621
515.938866	0.012584
516.156075	0.011591
516.373267	0.011675
516.590440	0.010886
516.807594	0.010532
517.024731	0.010924
517.241850	0.011236
517.458950	0.010853
517.676032	0.010152
517.893095	0.009835
518.110141	0.010130
518.327168	0.009587
518.544177	0.009652
518.761168	0.009682
518.978141	0.009440
519.195095	0.009383
519.412031	0.009004
519.628949	0.009481
519.845849	0.009568
520.062731	0.009710
520.279594	0.010170
520.496439	0.010768
520.713266	0.010493
520.930074	0.010469
521.146865	0.010409
521.363637	0.011166
521.580391	0.011393
521.797127	0.011882
522.013844	0.012372
522.230543	0.012241
522.447224	0.012277
522.663887	0.012901
522.880532	0.013460
523.097158	0.013620
523.313766	0.013717
523.530356	0.013749
523.746928	0.013540
523.963481	0.012917
524.180017	0.012999
524.396534	0.012652
524.613032	0.012862
524.829513	0.012433
525.045975	0.012413
525.262420	0.012532
525.478845	0.012310
525.695253	0.012627
525.911643	0.013059
526.128014	0.012631
526.344367	0.013220
526.560702	0.013434
526.777018	0.013339
526.993316	0.013958
527.209597	0.013231
527.425858	0.013448
527.642102	0.013381
527.858328	0.013213
528.074535	0.013648
528.290724	0.013026
528.506894	0.012968
528.723047	0.013214
528.939181	0.012695
529.155297	0.013209
529.371395	0.013323
529.587475	0.012893
529.803536	0.013115
530.019579	0.013593
530.235604	0.013570
530.451611	0.013084
530.667600	0.013362
530.883570	0.013667
531.099522	0.013859
531.315456	0.013460
531.531372	0.013702
531.747269	0.013756
531.963148	0.013335
532.179009	0.013648
532.394852	0.014151
532.610676	0.013762
532.826482	0.013380
533.042271	0.013337
533.258040	0.013934
533.473792	0.013979
533.689525	0.014151
533.905240	0.014001
534.120937	0.014074
534.336616	0.013860
534.552277	0.013771
534.767919	0.014287
534.983543	0.014499
535.199149	0.013786
535.414736	0.013622
535.630306	0.013698
535.845857	0.013928
536.061390	0.013982
536.276904	0.013799
536.492401	0.013877
536.707879	0.013532
536.923339	0.013219
537.138781	0.013249
537.354204	0.013755
537.569610	0.013620
537.784997	0.013707
538.000366	0.013951
538.215716	0.014675
538.431049	0.014909
538.646363	0.014991
538.861659	0.014943
539.076937	0.015435
539.292196	0.015266
539.507438	0.015402
539.722661	0.015436
539.937866	0.015219
540.153052	0.015041
540.368221	0.015022
540.583371	0.015208
540.798503	0.015253
541.013617	0.015627
541.228712	0.015459
541.443789	0.015158
541.658848	0.015229
541.873889	0.015497
542.088912	0.015090
542.303916	0.015032
542.518902	0.015295
542.733870	0.015333
542.948820	0.014904
543.163752	0.015115
543.378665	0.015470
543.593560	0.015581
543.808437	0.015345
544.023295	0.015916
544.238136	0.015979
544.452958	0.016160
544.667762	0.016654
544.882548	0.016968
545.097315	0.016787
545.312064	0.016665
545.526795	0.016590
545.741508	0.016864
545.956203	0.016533
546.170879	0.016725
546.385537	0.016669
546.600177	0.015931
546.814799	0.015574
547.029402	0.015871
547.243988	0.015996
547.458555	0.015903
547.673103	0.015594
547.887634	0.015185
548.102146	0.015067
548.316640	0.015353
548.531116	0.015638
548.745574	0.015785
548.960013	0.015688
549.174435	0.015734
549.388838	0.016056
549.603222	0.016460
549.817589	0.017092
550.031937	0.017160
550.246267	0.016758
550.460579	0.017227
550.674873	0.017475
550.889148	0.017662
551.103405	0.017427
551.317644	0.017852
551.531865	0.017809
551.746068	0.017742
551.960252	0.017511
552.174418	0.017619
552.388566	0.017455
552.602696	0.017279
552.816807	0.017427
553.030900	0.017734
553.244975	0.017453
553.459032	0.017220
553.673070	0.017215
553.887091	0.017607
554.101093	0.017596
554.315077	0.017328
554.529042	0.017675
554.742990	0.017273
554.956919	0.017424
555.170830	0.017246
555.384722	0.017547
555.598597	0.018244
555.812453	0.018241
556.026291	0.018080
556.240111	0.018102
556.453913	0.018172
556.667696	0.018097
556.881461	0.017675
557.095208	0.017570
557.308937	0.017189
557.522647	0.016405
557.736339	0.016302
557.950013	0.016287
558.163669	0.016679
558.377307	0.016670
558.590926	0.016680
558.804527	0.016917
559.018110	0.016947
559.231675	0.017360
559.445221	0.017558
559.658749	0.017467
559.872259	0.017595
560.085751	0.017460
560.299225	0.017266
560.512680	0.017456
560.726117	0.017455
560.939536	0.017588
561.152937	0.017193
561.366319	0.017130
561.579683	0.017442
561.793029	0.017401
562.006357	0.017657
562.219667	0.017542
562.432958	0.017556
562.646231	0.017348
562.859486	0.017227
563.072723	0.017470
563.285941	0.017312
563.499141	0.017099
563.712323	0.017012
563.925487	0.016744
564.138632	0.016549
564.351760	0.016683
564.564869	0.016999
564.777960	0.017146
564.991032	0.017017
565.204087	0.017369
565.417123	0.017345
565.630141	0.017548
565.843140	0.017560
566.056122	0.017748
566.269085	0.018015
566.482030	0.018008
566.694957	0.018177
566.907866	0.018535
567.120756	0.018790
567.333628	0.019072
567.546482	0.018891
567.759318	0.019049
567.972135	0.019096
568.184935	0.018921
568.397716	0.018994
568.610478	0.018838
568.823223	0.018715
569.035949	0.018431
569.248657	0.018227
569.461347	0.018524
569.674019	0.018316
569.886672	0.018345
570.099308	0.018231
570.311925	0.018036
570.524523	0.018102
570.737104	0.017917
570.949666	0.017839
571.162210	0.017907
571.374736	0.017627
571.587244	0.017721
571.799733	0.017803
572.012205	0.017758
572.224658	0.017861
572.437092	0.017758
572.649509	0.017957
572.861907	0.018206
573.074287	0.018220
573.286649	0.018623
573.498993	0.018601
573.711318	0.018299
573.923625	0.018604
574.135914	0.018374
574.348185	0.018180
574.560438	0.018204
574.772672	0.017906
574.984888	0.017891
575.197086	0.017444
575.409266	0.017374
575.621427	0.017736
575.833570	0.017534
576.045695	0.017821
576.257802	0.018219
576.469890	0.018708
576.681961	0.018865
576.894013	0.018933
577.106046	0.019073
577.318062	0.019392
577.530059	0.019379
577.742039	0.019297
577.954000	0.019398
578.165942	0.019278
578.377867	0.018896
578.589773	0.018865
578.801661	0.018829
579.013531	0.018878
579.225382	0.018716
579.437216	0.018642
579.649031	0.018683
579.860828	0.018593
580.072606	0.018575
580.284367	0.018615
580.496109	0.018844
580.707833	0.018869
580.919539	0.019147
581.131227	0.019534
581.342896	0.019707
581.554547	0.019809
581.766180	0.020050
581.977795	0.020176
582.189391	0.020018
582.400969	0.020153
582.612529	0.020564
582.824071	0.020525
583.035595	0.020196
583.247100	0.020405
583.458587	0.020720
583.670056	0.020644
583.881506	0.021013
584.092939	0.020838
584.304353	0.020475
584.515749	0.019905
584.727127	0.019831
584.938486	0.019605
585.149828	0.019329
585.361151	0.019225
585.572456	0.019400
585.783742	0.018889
585.995011	0.019336
586.206261	0.019568
586.417493	0.019903
586.628706	0.019833
586.839902	0.019856
587.051079	0.019681
587.262238	0.019618
587.473379	0.019344
587.684502	0.019656
587.895606	0.019531
588.106692	0.019460
588.317760	0.019425
588.528810	0.019519
588.739841	0.019876
588.950855	0.020053
589.161850	0.019973
589.372827	0.019615
589.583785	0.019241
589.794726	0.019184
590.005648	0.019195
590.216552	0.019080
590.427437	0.018982
590.638305	0.019000
590.849154	0.019202
591.059985	0.019284
591.270798	0.019412
591.481592	0.019585
591.692369	0.019657
591.903127	0.019457
592.113867	0.019529
592.324588	0.019712
592.535292	0.019553
592.745977	0.019344
592.956644	0.019517
593.167293	0.019808
593.377923	0.019736
593.588536	0.019808
593.799130	0.020174
594.009706	0.020166
594.220263	0.020140
594.430803	0.020132
594.641324	0.020305
594.851827	0.020457
595.062312	0.020598
595.272778	0.020757
595.483227	0.020470
595.693657	0.020521
595.904069	0.020363
596.114462	0.020283
596.324838	0.020093
596.535195	0.019922
596.745534	0.019682
596.955855	0.019541
597.166157	0.019610
597.376441	0.019875
597.586707	0.019750
597.796955	0.020103
598.007185	0.020244
598.217396	0.020692
598.427589	0.020818
598.637764	0.020832
598.847921	0.020908
599.058060	0.021197
599.268180	0.021200
599.478282	0.021091
599.688366	0.021050
599.898431	0.021081
600.108479	0.021000
600.318508	0.020856
600.528519	0.020462
600.738511	0.020415
600.948486	0.020357
601.158442	0.020625
601.368380	0.020899
601.578300	0.020726
601.788202	0.020819
601.998085	0.020915
602.207950	0.020924
602.417797	0.021219
602.627626	0.021453
602.837436	0.021298
603.047228	0.021183
603.257002	0.020981
603.466758	0.021121
603.676496	0.021021
603.886215	0.020690
604.095916	0.020847
604.305599	0.021008
604.515264	0.020677
604.724910	0.020483
604.934538	0.020306
605.144148	0.020342
605.353740	0.020209
605.563314	0.020153
605.772869	0.020319
605.982406	0.020280
606.191925	0.020088
606.401425	0.019823
606.610908	0.019842
606.820372	0.019742
607.029818	0.019773
607.239246	0.019846
607.448655	0.019598
607.658047	0.019684
607.867420	0.019889
608.076775	0.020093
608.286111	0.020360
608.495430	0.020507
608.704730	0.020517
608.914012	0.020558
609.123275	0.020464
609.332521	0.020743
609.541748	0.020670
609.750957	0.020622
609.960148	0.020657
610.169321	0.020866
610.378475	0.020746
610.587611	0.020917
610.796729	0.020923
611.005829	0.021143
611.214910	0.021132
611.423974	0.021330
611.633019	0.021157
611.842045	0.021212
612.051054	0.021305
612.260044	0.021408
612.469017	0.021451
612.677970	0.021423
612.886906	0.021457
613.095824	0.021484
613.304723	0.021443
613.513604	0.021716
613.722467	0.021609
613.931311	0.021436
614.140138	0.021446
614.348946	0.021542
614.557736	0.021796
614.766507	0.021782
614.975261	0.021648
615.183996	0.021580
615.392713	0.021522
615.601412	0.021610
615.810092	0.021793
616.018754	0.021814
616.227399	0.021754
616.436024	0.021514
616.644632	0.021460
616.853222	0.021667
617.061793	0.021708
617.270346	0.021670
617.478880	0.021794
617.687397	0.021799
617.895895	0.021978
618.104375	0.021953
618.312837	0.022020
618.521281	0.022164
618.729706	0.022157
618.938113	0.022180
619.146502	0.022441
619.354873	0.022371
619.563226	0.022559
619.771560	0.022359
619.979876	0.022315
620.188174	0.022414
620.396453	0.022391
620.604715	0.022654
620.812958	0.022615
621.021183	0.022299
621.229390	0.022228
621.437578	0.022195
621.645748	0.022274
621.853900	0.022392
622.062034	0.022478
622.270150	0.022520
622.478247	0.022280
622.686326	0.022408
622.894387	0.022747
623.102430	0.022880
623.310454	0.022531
623.518461	0.022921
623.726449	0.022849
623.934418	0.022717
624.142370	0.022836
624.350303	0.022970
624.558218	0.023204
624.766115	0.023127
624.973994	0.023366
625.181855	0.023682
625.389697	0.023551
625.597521	0.023691
625.805327	0.023983
626.013114	0.023820
626.220883	0.023837
626.428634	0.023838
626.636367	0.023874
626.844082	0.023684
627.051778	0.023544
627.259457	0.023442
627.467117	0.023573
627.674758	0.023519
627.882382	0.023841
628.089987	0.023913
628.297574	0.023713
628.505143	0.023831
628.712694	0.023950
628.920226	0.024053
629.127740	0.024072
629.335236	0.024143
629.542714	0.024171
629.750174	0.024112
629.957615	0.024089
630.165038	0.024056
630.372443	0.024025
630.579829	0.023817
630.787198	0.023730
630.994548	0.023826
631.201880	0.023802
631.409194	0.023736
631.616489	0.023581
631.823766	0.023578
632.031025	0.023641
632.238266	0.023610
632.445489	0.023577
632.652693	0.023794
632.859879	0.023734
633.067047	0.023728
633.274197	0.023871
633.481329	0.023923
633.688442	0.023882
633.895537	0.023999
634.102614	0.024022
634.309672	0.024108
634.516713	0.023971
634.723735	0.024166
634.930739	0.024272
635.137724	0.024193
635.344692	0.024235
635.551641	0.024354
635.758572	0.024344
635.965485	0.024361
636.172379	0.024351
636.379256	0.024212
636.586114	0.024171
636.792954	0.024055
636.999775	0.023826
637.206579	0.023681
637.413364	0.023592
637.620131	0.023599
637.826880	0.023635
638.033610	0.023645
638.240323	0.023865
638.447017	0.023605
638.653692	0.023544
638.860350	0.023719
639.066990	0.023907
639.273611	0.023983
639.480214	0.024024
639.686798	0.024118
639.893365	0.023951
640.099913	0.023891
640.306443	0.024017
640.512955	0.024050
640.719449	0.023978
640.925924	0.023971
641.132381	0.023905
641.338820	0.023863
641.545241	0.023855
641.751644	0.024101
641.958028	0.024254
642.164394	0.024413
642.370742	0.024309
642.577071	0.024395
642.783383	0.024401
642.989676	0.024652
643.195951	0.024748
643.402207	0.024581
643.608446	0.024707
643.814666	0.024569
644.020868	0.024554
644.227052	0.024753
644.433218	0.024645
644.639365	0.024614
644.845494	0.024467
645.051605	0.024476
645.257698	0.024607
645.463772	0.024566
645.669828	0.024766
645.875866	0.024763
646.081886	0.024952
646.287888	0.025207
646.493871	0.025350
646.699836	0.025389
646.905783	0.025436
647.111712	0.025382
647.317622	0.025570
647.523514	0.025558
647.729388	0.025438
647.935244	0.025354
648.141082	0.025235
648.346901	0.025162
648.552702	0.025212
648.758485	0.025161
648.964250	0.025100
649.169996	0.024922
649.375724	0.024824
649.581434	0.025009
649.787126	0.025043
649.992800	0.025250
650.198455	0.025308
650.404092	0.025322
650.609711	0.025283
650.815311	0.025459
651.020894	0.025636
651.226458	0.025880
651.432004	0.025881
651.637532	0.025876
651.843041	0.025688
652.048532	0.025780
652.254006	0.025539
652.459460	0.025676
652.664897	0.025828
652.870315	0.025771
653.075716	0.025586
653.281097	0.025588
653.486461	0.025595
653.691807	0.025763
653.897134	0.025605
654.102443	0.025902
654.307734	0.025883
654.513006	0.025750
654.718261	0.025840
654.923497	0.025892
655.128715	0.025924
655.333915	0.025898
655.539096	0.025901
655.744259	0.026112
655.949404	0.026127
656.154531	0.026224
656.359640	0.026145
656.564730	0.026200
656.769802	0.026368
656.974856	0.026400
657.179892	0.026355
657.384909	0.026437
657.589908	0.026387
657.794889	0.026555
657.999852	0.026678
658.204797	0.026790
658.409723	0.026631
658.614631	0.026543
658.819521	0.026541
659.024393	0.026551
659.229246	0.026470
659.434081	0.026601
659.638898	0.026443
659.843697	0.026172
660.048478	0.026255
660.253240	0.026392
660.457984	0.026369
660.662710	0.026460
660.867417	0.026805
661.072107	0.026856
661.276778	0.026705
661.481431	0.026665
661.686066	0.026854
661.890682	0.026873
662.095281	0.026763
662.299861	0.026822
662.504422	0.026818
662.708966	0.026550
662.913491	0.026545
663.117999	0.026619
663.322488	0.026606
663.526958	0.026518
663.731411	0.026511
663.935845	0.026591
664.140261	0.026639
664.344659	0.026654
664.549038	0.026773
664.753400	0.026763
664.957743	0.026896
665.162068	0.026997
665.366375	0.027086
665.570663	0.027064
665.774933	0.027080
665.979185	0.027028
666.183419	0.026960
666.387635	0.026957
666.591832	0.026835
666.796011	0.026806
667.000172	0.026808
667.204315	0.026866
667.408439	0.026800
667.612545	0.026822
667.816634	0.026735
668.020703	0.026790
668.224755	0.026791
668.428788	0.027023
668.632803	0.026980
668.836800	0.026821
669.040779	0.026807
669.244739	0.026919
669.448681	0.027075
669.652605	0.027254
669.856511	0.027284
670.060399	0.027228
670.264268	0.027249
670.468119	0.027232
670.671952	0.027440
670.875767	0.027529
671.079563	0.027628
671.283341	0.027433
671.487101	0.027506
671.690843	0.027566
671.894567	0.027603
672.098272	0.027644
672.301959	0.027805
672.505628	0.027884
672.709278	0.027864
672.912911	0.027886
673.116525	0.027977
673.320121	0.028065
673.523699	0.028143
673.727258	0.028364
673.930799	0.028430
674.134322	0.028513
674.337827	0.028762
674.541314	0.028836
674.744782	0.028939
674.948232	0.028987
675.151664	0.029124
675.355078	0.029208
675.558474	0.029137
675.761851	0.029287
675.965210	0.029334
676.168551	0.029202
676.371873	0.029089
676.575178	0.028971
676.778464	0.029208
676.981732	0.029092
677.184981	0.029051
677.388213	0.029068
677.591426	0.029007
677.794621	0.028980
677.997798	0.029081
678.200956	0.029223
678.404097	0.029217
678.607219	0.029137
678.810323	0.029256
679.013408	0.029361
679.216476	0.029548
679.419525	0.029534
679.622556	0.029698
679.825569	0.029628
680.028563	0.029774
680.231540	0.029942
680.434498	0.029889
680.637438	0.029821
680.840359	0.029873
681.043263	0.029837
681.246148	0.029792
681.449015	0.029813
681.651864	0.029879
681.854694	0.029777
682.057506	0.029739
682.260301	0.029755
682.463076	0.029793
682.665834	0.029810
682.868573	0.029731
683.071295	0.029835
683.273998	0.029804
683.476682	0.029728
683.679349	0.029904
683.881997	0.029831
684.084627	0.029974
684.287239	0.030121
684.489833	0.029938
684.692408	0.029869
684.894965	0.029845
685.097504	0.029724
685.300025	0.029800
685.502527	0.029620
685.705012	0.029728
685.907478	0.029516
686.109925	0.029456
686.312355	0.029554
686.514766	0.029842
686.717159	0.029842
686.919534	0.029867
687.121891	0.029828
687.324230	0.029835
687.526550	0.029895
687.728852	0.030147
687.931136	0.030205
688.133401	0.030380
688.335649	0.030228
688.537878	0.030221
688.740089	0.030263
688.942281	0.030388
689.144456	0.030462
689.346612	0.030510
689.548750	0.030473
689.750870	0.030405
689.952971	0.030328
690.155055	0.030402
690.357120	0.030424
690.559167	0.030457
690.761195	0.030395
690.963206	0.030345
691.165198	0.030155
691.367172	0.030176
691.569128	0.030123
691.771065	0.030131
691.972984	0.029947
692.174885	0.029968
692.376768	0.029913
692.578633	0.029889
692.780479	0.029871
692.982308	0.029898
693.184118	0.029960
693.385909	0.030065
693.587683	0.029877
693.789438	0.030121
693.991175	0.030099
694.192894	0.030062
694.394595	0.030112
694.596277	0.030276
694.797941	0.030574
694.999587	0.030595
695.201215	0.030498
695.402824	0.030777
695.604416	0.030905
695.805989	0.030901
696.007543	0.030922
696.209080	0.030795
696.410598	0.030711
696.612099	0.030585
696.813580	0.030322
697.015044	0.030423
697.216490	0.030234
697.417917	0.030168
697.619326	0.030347
697.820717	0.030432
698.022089	0.030605
698.223444	0.030592
698.424780	0.030626
698.626098	0.030913
698.827397	0.030942
699.028679	0.031173
699.229942	0.031086
699.431187	0.031038
699.632414	0.031131
699.833622	0.031170
700.034813	0.031256
700.235985	0.031292
700.437139	0.031320
700.638274	0.031224
700.839392	0.031115
701.040491	0.031166
701.241572	0.031195
701.442635	0.031230
701.643679	0.031311
701.844706	0.031407
702.045714	0.031339
702.246704	0.031269
702.447675	0.031409
702.648629	0.031458
702.849564	0.031456
703.050481	0.031593
703.251380	0.031480
703.452260	0.031504
703.653122	0.031217
703.853966	0.031223
704.054792	0.031235
704.255600	0.031236
704.456389	0.031183
704.657160	0.031072
704.857913	0.030692
705.058648	0.030715
705.259365	0.030453
705.460063	0.030445
705.660743	0.030346
705.861405	0.030203
706.062048	0.030142
706.262674	0.030014
706.463281	0.030223
706.663870	0.030455
706.864441	0.030361
707.064993	0.030381
707.265527	0.030686
707.466043	0.030784
707.666541	0.031014
707.867021	0.031067
708.067482	0.031286
708.267925	0.031276
708.468350	0.031381
708.668757	0.031491
708.869145	0.031792
709.069516	0.031860
709.269868	0.031886
709.470201	0.031868
709.670517	0.031987
709.870814	0.031951
710.071093	0.031999
710.271354	0.031950
710.471597	0.031956
710.671821	0.031983
710.872028	0.031924
711.072216	0.031987
711.272385	0.031984
711.472537	0.031835
711.672670	0.031815
711.872785	0.031590
712.072882	0.031764
712.272961	0.031833
712.473021	0.031721
712.673063	0.031491
712.873087	0.031502
713.073093	0.031436
713.273081	0.031338
713.473050	0.031452
713.673001	0.031582
713.872934	0.031403
714.072849	0.031428
714.272745	0.031290
714.472623	0.031525
714.672483	0.031492
714.872325	0.031525
715.072148	0.031622
715.271954	0.031628
715.471741	0.031698
715.671509	0.031795
715.871260	0.031783
716.070992	0.032003
716.270707	0.032015
716.470403	0.032009
716.670080	0.031931
716.869740	0.031972
717.069381	0.031866
717.269004	0.031899
717.468609	0.031769
717.668195	0.031686
717.867764	0.031542
718.067314	0.031494
718.266846	0.031660
718.466360	0.031799
718.665855	0.031885
718.865332	0.032048
719.064791	0.031956
719.264232	0.031961
719.463655	0.032078
719.663059	0.032059
719.862445	0.032103
720.061813	0.031919
720.261163	0.032056
720.460494	0.031964
720.659807	0.031837
720.859102	0.031803
721.058379	0.031889
721.257638	0.031876
721.456878	0.031827
721.656100	0.031747
721.855304	0.031842
722.054490	0.031649
722.253657	0.031653
722.452806	0.031677
722.651937	0.031711
722.851050	0.031664
723.050145	0.031753
723.249221	0.031857
723.448279	0.031929
723.647319	0.031798
723.846340	0.031772
724.045344	0.031746
724.244329	0.031652
724.443296	0.031799
724.642245	0.031772
724.841175	0.031579
725.040088	0.031703
725.238982	0.031504
725.437857	0.031534
725.636715	0.031482
725.835554	0.031290
726.034376	0.031172
726.233179	0.030869
726.431963	0.030948
726.630730	0.031030
726.829478	0.030831
727.028208	0.030846
727.226920	0.030859
727.425614	0.030990
727.624289	0.031120
727.822946	0.031188
728.021585	0.031181
728.220206	0.031060
728.418808	0.030862
728.617392	0.030769
728.815958	0.030675
729.014506	0.030665
729.213036	0.030508
729.411547	0.030501
729.610040	0.030432
729.808515	0.030454
730.006972	0.030223
730.205410	0.030313
730.403831	0.030217
730.602233	0.030380
730.800616	0.030135
730.998982	0.030243
731.197329	0.030328
731.395658	0.030419
731.593969	0.030401
731.792262	0.030532
731.990536	0.030452
732.188793	0.030528
732.387031	0.030540
732.585250	0.030697
732.783452	0.030622
732.981635	0.030678
733.179800	0.030786
733.377947	0.030794
733.576076	0.030807
733.774186	0.030772
733.972278	0.030661
734.170352	0.030575
734.368408	0.030486
734.566446	0.030340
734.764465	0.030161
734.962466	0.030005
735.160449	0.030031
735.358413	0.030125
735.556360	0.030110
735.754288	0.030272
735.952198	0.030135
736.150090	0.029990
736.347963	0.030041
736.545818	0.030039
736.743655	0.030002
736.941474	0.029930
737.139275	0.029768
737.337057	0.029796
737.534821	0.029881
737.732567	0.030073
737.930295	0.030555
738.128005	0.030610
738.325696	0.030651
738.523369	0.030620
738.721024	0.030556
738.918660	0.030672
739.116279	0.030717
739.313879	0.030732
739.511461	0.030666
739.709024	0.030462
739.906570	0.030451
740.104097	0.030331
740.301606	0.030393
740.499097	0.030241
740.696569	0.030216
740.894024	0.030157
741.091460	0.029990
741.288878	0.030029
741.486277	0.030007
741.683659	0.029977
741.881022	0.030058
742.078367	0.029963
742.275694	0.030184
742.473002	0.030257
742.670293	0.030379
742.867565	0.030522
743.064819	0.030409
743.262054	0.030097
743.459272	0.029930
743.656471	0.029887
743.853652	0.029988
744.050815	0.029973
744.247959	0.029924
744.445085	0.029859
744.642194	0.029854
744.839283	0.029830
745.036355	0.030060
745.233408	0.030168
745.430444	0.030050
745.627461	0.029920
745.824459	0.029950
746.021440	0.029782
746.218402	0.029687
746.415346	0.029448
746.612272	0.029579
746.809180	0.029658
747.006069	0.029554
747.202940	0.029598
747.399793	0.029693
747.596628	0.029681
747.793444	0.029652
747.990243	0.029604
748.187023	0.029653
748.383784	0.029505
748.580528	0.029312
748.777253	0.029596
748.973960	0.029624
749.170649	0.029612
749.367320	0.029702
749.563973	0.029872
749.760607	0.029929
749.957223	0.030111
750.153821	0.030281
750.350400	0.030343
750.546962	0.030192
750.743505	0.030243
750.940030	0.030329
751.136536	0.030198
751.333025	0.029955
751.529495	0.029897
751.725947	0.029744
751.922381	0.029574
752.118796	0.029564
752.315194	0.029528
752.511573	0.029484
752.707934	0.029370
752.904276	0.029349
753.100601	0.029423
753.296907	0.029672
753.493195	0.029701
753.689465	0.029741
753.885716	0.029877
754.081949	0.030056
754.278164	0.030165
754.474361	0.030217
754.670540	0.030417
754.866700	0.030805
755.062843	0.030712
755.258967	0.030705
755.455072	0.030645
755.651160	0.030574
755.847229	0.030356
756.043280	0.030241
756.239313	0.030163
756.435328	0.030050
756.631324	0.029684
756.827302	0.029614
757.023262	0.029672
757.219204	0.029664
757.415127	0.029568
757.611033	0.029498
757.806920	0.029333
758.002788	0.029322
758.198639	0.029254
758.394471	0.029368
758.590286	0.029281
758.786081	0.029188
758.981859	0.029261
759.177619	0.029314
759.373360	0.029516
759.569083	0.029742
759.764788	0.029585
759.960474	0.029668
760.156143	0.029612
760.351793	0.029701
760.547425	0.029617
760.743038	0.029637
760.938634	0.029489
761.134211	0.029226
761.329770	0.028963
761.525311	0.029236
761.720833	0.029076
761.916338	0.029069
762.111824	0.029063
762.307292	0.029087
762.502741	0.029069
762.698173	0.029237
762.893586	0.029397
763.088981	0.029514
763.284358	0.029406
763.479716	0.029389
763.675057	0.029393
763.870379	0.029393
764.065683	0.029564
764.260968	0.029494
764.456236	0.029493
764.651485	0.029449
764.846716	0.029475
765.041929	0.029508
765.237123	0.029565
765.432299	0.029489
765.627457	0.029390
765.822597	0.029181
766.017719	0.029254
766.212822	0.029106
766.407907	0.029211
766.602974	0.029224
766.798023	0.029235
766.993054	0.029317
767.188066	0.029301
767.383060	0.029350
767.578036	0.029488
767.772993	0.029539
767.967933	0.029744
768.162854	0.029831
768.357757	0.029930
768.552642	0.029801
768.747508	0.029663
768.942356	0.029818
769.137186	0.029874
769.331998	0.029863
769.526792	0.029729
769.721567	0.029691
769.916324	0.029534
770.111063	0.029411
770.305784	0.029405
770.500486	0.029488
770.695171	0.029537
770.889837	0.029398
771.084484	0.029468
771.279114	0.029485
771.473725	0.029430
771.668318	0.029321
771.862893	0.029282
772.057450	0.029351
772.251988	0.029341
772.446509	0.029325
772.641011	0.029408
772.835494	0.029403
773.029960	0.029540
773.224407	0.029518
773.418836	0.029485
773.613247	0.029484
773.807640	0.029292
774.002014	0.029155
774.196370	0.028953
774.390708	0.028952
774.585028	0.028880
774.779330	0.028820
774.973613	0.028899
775.167878	0.029142
775.362125	0.029182
775.556354	0.029450
775.750564	0.029646
775.944756	0.029712
776.138930	0.029709
776.333086	0.029621
776.527223	0.029769
776.721343	0.029747
776.915444	0.029737
777.109526	0.029812
777.303591	0.029813
777.497637	0.029935
777.691666	0.030132
777.885676	0.030112
778.079667	0.030296
778.273641	0.030067
778.467596	0.030004
778.661533	0.029950
778.855452	0.029886
779.049352	0.029956
779.243235	0.029800
779.437099	0.029627
779.630945	0.029521
779.824773	0.029334
780.018582	0.029233
780.212373	0.029259
780.406146	0.029260
780.599901	0.029460
780.793638	0.029417
780.987356	0.029447
781.181056	0.029421
781.374738	0.029549
781.568402	0.029701
781.762047	0.029918
781.955674	0.029974
782.149283	0.030051
782.342874	0.029911
782.536447	0.029833
782.730001	0.029600
782.923537	0.029561
783.117055	0.029459
783.310555	0.029588
783.504036	0.029581
783.697499	0.029520
783.890944	0.029521
784.084371	0.029405
784.277780	0.029351
784.471170	0.029452
784.664542	0.029532
784.857896	0.029663
785.051231	0.029412
785.244549	0.029234
785.437848	0.029323
785.631129	0.029213
785.824392	0.029262
786.017636	0.029084
786.210863	0.029066
786.404071	0.028877
786.597260	0.028884
786.790432	0.028868
786.983585	0.028727
787.176721	0.028645
787.369838	0.028629
787.562936	0.028555
787.756017	0.028594
787.949079	0.028562
788.142123	0.028714
788.335149	0.028531
788.528156	0.028476
788.721146	0.028582
788.914117	0.028370
789.107070	0.028288
789.300005	0.028161
789.492921	0.028115
789.685819	0.028082
789.878699	0.027932
790.071561	0.028021
790.264405	0.027862
790.457230	0.027845
790.650037	0.027894
790.842826	0.027943
791.035597	0.028116
791.228349	0.028336
791.421084	0.028531
791.613800	0.028604
791.806497	0.028546
791.999177	0.028684
792.191838	0.028821
792.384481	0.029115
792.577106	0.029081
792.769713	0.029123
792.962301	0.029252
793.154871	0.029179
793.347423	0.029208
793.539957	0.029451
793.732473	0.029718
793.924970	0.029810
794.117449	0.029661
794.309910	0.029825
794.502353	0.029929
794.694777	0.029993
794.887183	0.030046
795.079571	0.030115
795.271941	0.030102
795.464293	0.030044
795.656626	0.030196
795.848941	0.030122
796.041238	0.030235
796.233516	0.030075
796.425777	0.030003
796.618019	0.030114
796.810243	0.030085
797.002449	0.030011
797.194636	0.029903
797.386805	0.029792
797.578956	0.029726
797.771089	0.029388
797.963204	0.029427
798.155300	0.029205
798.347378	0.029128
798.539438	0.029213
798.731480	0.029224
798.923503	0.029295
799.115509	0.029272
799.307496	0.029525
799.499465	0.029859
799.691415	0.029994
799.883348	0.030225
800.075262	0.030242
800.267158	0.030415
800.459035	0.030402
800.650895	0.030323
800.842736	0.030340
801.034559	0.030544
801.226364	0.030440
801.418150	0.030570
801.609919	0.030516
801.801669	0.030442
801.993401	0.030367
802.185114	0.030440
802.376810	0.030777
802.568487	0.030776
802.760146	0.030476
802.951787	0.030440
803.143409	0.030320
803.335014	0.030347
803.526600	0.030360
803.718168	0.030339
803.909717	0.030407
804.101249	0.030245
804.292762	0.030241
804.484257	0.030161
804.675734	0.030252
804.867192	0.030302
805.058632	0.030449
805.250054	0.030521
805.441458	0.030633
805.632844	0.030568
805.824211	0.030454
806.015561	0.030489
806.206891	0.030795
806.398204	0.030888
806.589499	0.031023
806.780775	0.030779
806.972033	0.030930
807.163273	0.030766
807.354495	0.030736
807.545698	0.030885
807.736883	0.030864
807.928050	0.030634
808.119199	0.030614
808.310329	0.030494
808.501441	0.030633
808.692535	0.030503
808.883611	0.030418
809.074669	0.030434
809.265708	0.030422
809.456729	0.030502
809.647732	0.030690
809.838717	0.030641
810.029683	0.030724
810.220632	0.030821
810.411562	0.030876
810.602474	0.031070
810.793367	0.031190
810.984242	0.031142
811.175100	0.031067
811.365938	0.030943
811.556759	0.030886
811.747562	0.030802
811.938346	0.030650
812.129112	0.030564
812.319860	0.030507
812.510589	0.030483
812.701300	0.030595
812.891994	0.030510
813.082668	0.030563
813.273325	0.030670
813.463964	0.030728
813.654584	0.031024
813.845186	0.031094
814.035769	0.031159
814.226335	0.031297
814.416882	0.031383
814.607411	0.031653
814.797922	0.031510
814.988415	0.031579
815.178889	0.031393
815.369345	0.031121
815.559783	0.031312
815.750203	0.031175
815.940605	0.030943
816.130988	0.030923
816.321353	0.030728
816.511700	0.030916
816.702028	0.030666
816.892339	0.030938
817.082631	0.031139
817.272905	0.030837
817.463161	0.030856
817.653398	0.030877
817.843617	0.030704
818.033819	0.030914
818.224001	0.030924
818.414166	0.031066
818.604312	0.030909
818.794440	0.030808
818.984550	0.030946
819.174642	0.031420
819.364716	0.031577
819.554771	0.031778
819.744808	0.031718
819.934827	0.031691
820.124827	0.031708
820.314810	0.031720
820.504774	0.031869
820.694720	0.031833
820.884647	0.031584
821.074557	0.031606
821.264448	0.031594
821.454321	0.031734
821.644176	0.031758
821.834012	0.031731
822.023831	0.031924
822.213631	0.031830
822.403413	0.031846
822.593176	0.031767
822.782922	0.031763
822.972649	0.031688
823.162358	0.031628
823.352049	0.031858
823.541721	0.031902
823.731376	0.031672
823.921012	0.031472
824.110629	0.031583
824.300229	0.031876
824.489811	0.031943
824.679374	0.032106
824.868919	0.032056
825.058445	0.031931
825.247954	0.031926
825.437444	0.032007
825.626916	0.032346
825.816370	0.032403
826.005806	0.032184
826.195223	0.032161
826.384622	0.032016
826.574003	0.032096
826.763366	0.032019
826.952711	0.032107
827.142037	0.032302
827.331345	0.032361
827.520635	0.032314
827.709906	0.032457
827.899160	0.032532
828.088395	0.032775
828.277612	0.032967
828.466810	0.033203
828.655991	0.033279
828.845153	0.033202
829.034297	0.033275
829.223423	0.033430
829.412531	0.033360
829.601620	0.033289
829.790691	0.033434
829.979744	0.033466
830.168779	0.033513
830.357795	0.033435
830.546793	0.033604
830.735773	0.033508
830.924735	0.033600
831.113679	0.033691
831.302604	0.033792
831.491511	0.033587
831.680400	0.033516
831.869271	0.033497
832.058123	0.033726
832.246957	0.033890
832.435773	0.034014
832.624571	0.034030
832.813351	0.034157
833.002112	0.034130
833.190855	0.034178
833.379580	0.034153
833.568287	0.034302
833.756975	0.034121
833.945645	0.033973
834.134297	0.033953
834.322931	0.034033
834.511547	0.034034
834.700144	0.034021
834.888723	0.033969
835.077284	0.033964
835.265826	0.033859
835.454351	0.033982
835.642857	0.034227
835.831345	0.034301
836.019815	0.034316
836.208266	0.034372
836.396699	0.034550
836.585114	0.034716
836.773511	0.034821
836.961890	0.034928
837.150250	0.035117
837.338592	0.034929
837.526916	0.034912
837.715222	0.035079
837.903510	0.035102
838.091779	0.035190
838.280030	0.035150
838.468263	0.035100
838.656477	0.035116
838.844674	0.035181
839.032852	0.035094
839.221012	0.035103
839.409153	0.035072
839.597277	0.035007
839.785382	0.034890
839.973469	0.034941
840.161538	0.035026
840.349589	0.034930
840.537621	0.034813
840.725635	0.034896
840.913631	0.035023
841.101609	0.034874
841.289568	0.035062
841.477509	0.035336
841.665432	0.035397
841.853337	0.035564
842.041224	0.035793
842.229092	0.035992
842.416942	0.036392
842.604774	0.036422
842.792588	0.036622
842.980383	0.036754
843.168160	0.037022
843.355919	0.037079
843.543660	0.037289
843.731382	0.037407
843.919087	0.037481
844.106773	0.037433
844.294441	0.037572
844.482090	0.037567
844.669722	0.037580
844.857335	0.037299
845.044930	0.037610
845.232507	0.037593
845.420065	0.037594
845.607605	0.037596
845.795127	0.037679
845.982631	0.037923
846.170117	0.037835
846.357584	0.037959
846.545033	0.038249
846.732464	0.038343
846.919877	0.038617
847.107272	0.038554
847.294648	0.038579
847.482006	0.038569
847.669346	0.038383
847.856667	0.038585
848.043971	0.038589
848.231256	0.038442
848.418523	0.038307
848.605771	0.037991
848.793002	0.038150
848.980214	0.038378
849.167408	0.038365
849.354584	0.038580
849.541742	0.038794
849.728881	0.038702
849.916002	0.038951
850.103105	0.039014
850.290190	0.039042
850.477256	0.039312
850.664304	0.039341
850.851334	0.039288
851.038346	0.039302
851.225340	0.039227
851.412315	0.039348
851.599272	0.039129
851.786211	0.039176
851.973132	0.039347
852.160034	0.039050
852.346918	0.039032
852.533784	0.039124
852.720632	0.039097
852.907462	0.038993
853.094273	0.038955
853.281066	0.039190
853.467841	0.039347
853.654598	0.039556
853.841336	0.040049
854.028056	0.040085
854.214758	0.040330
854.401442	0.040432
854.588107	0.040782
854.774755	0.040983
854.961384	0.041072
855.147995	0.041244
855.334587	0.041199
855.521162	0.041041
855.707718	0.041312
855.894256	0.041462
856.080775	0.041631
856.267277	0.041633
856.453760	0.041403
856.640225	0.041578
856.826672	0.041267
857.013101	0.041324
857.199511	0.041337
857.385903	0.041349
857.572277	0.041362
857.758633	0.041275
857.944970	0.041274
858.131290	0.041397
858.317591	0.041112
858.503873	0.041462
858.690138	0.041368
858.876384	0.041636
859.062612	0.041582
859.248822	0.041601
859.435014	0.041617
859.621188	0.041559
859.807343	0.041722
859.993480	0.042052
860.179599	0.041691
860.365699	0.041991
860.551781	0.041865
860.737846	0.041856
860.923891	0.041938
861.109919	0.041901
861.295929	0.042056
861.481920	0.041961
861.667893	0.041971
861.853848	0.042286
862.039784	0.042437
862.225702	0.042220
862.411603	0.042347
862.597484	0.042269
862.783348	0.042403
862.969193	0.042350
863.155021	0.042522
863.340830	0.042592
863.526620	0.042594
863.712393	0.042520
863.898147	0.042815
864.083883	0.043011
864.269601	0.043003
864.455301	0.042856
864.640982	0.043047
864.826645	0.043395
865.012290	0.043136
865.197917	0.043220
865.383526	0.043043
865.569116	0.043150
865.754688	0.042786
865.940242	0.042954
866.125777	0.043160
866.311295	0.043117
866.496794	0.043102
866.682275	0.043127
866.867737	0.043503
867.053182	0.043519
867.238608	0.043358
867.424016	0.043749
867.609406	0.043861
867.794778	0.043965
867.980131	0.043920
868.165466	0.043790
868.350783	0.043970
868.536082	0.043703
868.721362	0.043804
868.906625	0.043952
869.091869	0.043905
869.277094	0.044125
869.462302	0.044223
869.647491	0.044364
869.832662	0.044367
870.017815	0.044521
870.202950	0.044381
870.388066	0.044355
870.573165	0.044427
870.758245	0.044347
870.943306	0.044165
871.128350	0.043993
871.313375	0.043983
871.498382	0.044101
871.683371	0.044163
871.868342	0.044485
872.053294	0.044777
872.238229	0.044973
872.423144	0.044959
872.608042	0.045112
872.792922	0.045294
872.977783	0.045300
873.162626	0.045347
873.347451	0.045422
873.532258	0.045373
873.717046	0.045147
873.901816	0.045029
874.086568	0.045179
874.271302	0.045027
874.456017	0.044961
874.640715	0.045191
874.825394	0.045247
875.010055	0.044955
875.194697	0.045165
875.379322	0.045182
875.563928	0.045282
875.748516	0.045215
875.933085	0.044947
876.117637	0.045008
876.302170	0.045114
876.486685	0.044982
876.671182	0.045019
876.855661	0.044535
877.040121	0.044673
877.224563	0.044578
877.408987	0.044574
877.593393	0.044761
877.777780	0.044820
877.962150	0.044722
878.146501	0.044880
878.330833	0.045095
878.515148	0.045319
878.699444	0.045406
878.883722	0.045317
879.067982	0.045263
879.252224	0.045495
879.436447	0.045454
879.620653	0.045412
879.804840	0.045416
879.989008	0.045493
880.173159	0.045663
880.357291	0.045565
880.541405	0.045939
880.725501	0.046146
880.909579	0.045983
881.093638	0.045941
881.277680	0.046018
881.461703	0.045740
881.645707	0.045571
881.829694	0.045526
882.013662	0.045419
882.197612	0.044951
882.381544	0.044853
882.565458	0.044864
882.749353	0.044901
882.933230	0.044706
883.117089	0.044846
883.300930	0.044896
883.484753	0.044791
883.668557	0.044651
883.852343	0.044851
884.036111	0.044894
884.219861	0.044725
884.403592	0.044757
884.587305	0.044824
884.771000	0.044747
884.954677	0.044611
885.138335	0.044778
885.321976	0.045107
885.505598	0.045175
885.689201	0.045172
885.872787	0.045575
886.056354	0.045510
886.239904	0.045469
886.423434	0.045746
886.606947	0.045844
886.790442	0.045865
886.973918	0.045853
887.157376	0.045829
887.340816	0.045718
887.524237	0.045404
887.707641	0.045479
887.891026	0.045425
888.074393	0.045200
888.257741	0.045086
888.441072	0.044734
888.624384	0.044644
888.807678	0.044275
888.990954	0.044123
889.174211	0.043926
889.357451	0.043816
889.540672	0.043714
889.723875	0.043747
889.907059	0.044059
890.090226	0.044228
890.273374	0.044280
890.456504	0.044640
890.639616	0.045040
890.822709	0.045395
891.005785	0.045373
891.188842	0.045482
891.371881	0.045572
891.554901	0.045074
891.737904	0.044933
891.920888	0.045096
892.103854	0.044838
892.286802	0.044635
892.469731	0.044659
892.652643	0.044614
892.835536	0.044954
893.018410	0.044891
893.201267	0.045388
893.384106	0.045549
893.566926	0.045310
893.749728	0.045246
893.932511	0.045121
894.115277	0.045149
894.298024	0.045260
894.480753	0.044876
894.663464	0.044918
894.846157	0.044907
895.028831	0.044599
895.211487	0.044503
895.394125	0.044693
895.576745	0.044729
895.759346	0.044740
895.941930	0.044527
896.124495	0.044856
896.307041	0.044581
896.489570	0.044104
896.672080	0.044325
896.854573	0.044302
897.037046	0.044385
897.219502	0.044387
897.401940	0.044293
897.584359	0.044351
897.766760	0.044044
897.949143	0.044077
898.131507	0.044139
898.313854	0.044313
898.496182	0.044384
898.678492	0.044105
898.860783	0.044384
899.043057	0.044310
899.225312	0.044272
899.407549	0.044172
899.589768	0.044116
899.771968	0.044205
899.954151	0.044014
900.136315	0.043946
900.318461	0.043734
900.500588	0.043674
900.682698	0.043401
900.864789	0.043159
901.046862	0.043134
901.228917	0.043253
901.410953	0.043128
901.592971	0.043323
901.774972	0.042853
901.956953	0.043123
902.138917	0.042674
902.320862	0.042749
902.502790	0.042961
902.684699	0.042827
902.866589	0.042680
903.048462	0.042801
903.230316	0.042269
903.412152	0.042647
903.593970	0.042669
903.775770	0.042627
903.957551	0.042570
904.139314	0.042553
904.321059	0.042510
904.502786	0.042610
904.684494	0.042191
904.866185	0.042182
905.047857	0.042152
905.229510	0.041903
905.411146	0.041915
905.592763	0.042018
905.774363	0.041655
905.955943	0.041677
906.137506	0.041411
906.319051	0.041858
906.500577	0.041913
906.682085	0.042054
906.863575	0.042274
907.045046	0.042571
907.226500	0.042190
907.407935	0.042384
907.589352	0.042234
907.770750	0.042142
907.952131	0.041640
908.133493	0.041659
908.314837	0.041115
908.496163	0.040949
908.677470	0.040355
908.858760	0.040496
909.040031	0.040463
909.221284	0.040361
909.402518	0.039981
909.583735	0.040043
909.764933	0.039986
909.946113	0.040021
910.127275	0.039460
910.308418	0.039545
910.489544	0.039297
910.670651	0.039418
910.851740	0.039490
911.032810	0.039933
911.213863	0.040046
911.394897	0.039921
911.575913	0.039909
911.756911	0.040306
911.937890	0.040360
912.118851	0.040475
912.299794	0.040116
912.480719	0.040220
912.661626	0.039936
912.842514	0.039660
913.023384	0.039686
913.204236	0.039402
913.385070	0.039235
913.565886	0.038815
913.746683	0.038615
913.927462	0.038546
914.108223	0.038578
914.288965	0.038455
914.469690	0.038506
914.650396	0.037884
914.831084	0.037971
915.011754	0.037662
915.192405	0.037587
915.373038	0.037165
915.553653	0.037371
915.734250	0.037017
915.914829	0.037016
916.095389	0.036525
916.275931	0.036579
916.456455	0.036275
916.636961	0.036419
916.817448	0.036167
916.997917	0.036199
917.178368	0.035674
917.358801	0.035636
917.539216	0.036094
917.719612	0.036197
917.899990	0.036390
918.080350	0.036087
918.260692	0.035658
918.441015	0.035565
918.621320	0.035608
918.801607	0.035589
918.981876	0.035007
919.162127	0.033990
919.342359	0.033511
919.522573	0.033154
919.702769	0.033246
919.882947	0.032793
920.063106	0.032885
920.243247	0.032575
920.423370	0.032273
920.603475	0.032275
920.783562	0.032079
920.963630	0.032246
921.143680	0.031964
921.323712	0.031694
921.503725	0.032068
921.683721	0.031479
921.863698	0.031101
922.043657	0.030808
922.223598	0.030889
922.403520	0.030785
922.583424	0.030533
922.763311	0.030307
922.943178	0.030239
923.123028	0.029983
923.302859	0.030197
923.482673	0.029891
923.662467	0.029690
923.842244	0.029502
924.022003	0.029541
924.201743	0.028989
924.381465	0.029016
924.561169	0.028582
924.740854	0.028179
924.920522	0.028325
925.100171	0.028150
925.279802	0.027784
925.459414	0.027108
925.639009	0.026808
925.818585	0.027138
925.998143	0.026820
926.177683	0.027056
926.357205	0.026965
926.536708	0.026611
926.716193	0.027120
926.895660	0.026869
927.075109	0.026790
927.254539	0.026384
927.433951	0.026126
927.613345	0.025624
927.792721	0.025501
927.972079	0.025188
928.151418	0.024907
928.330739	0.024612
928.510042	0.025407
928.689327	0.025633
928.868593	0.025578
929.047841	0.024942
929.227071	0.025119
929.406283	0.024448
929.585476	0.024407
929.764652	0.023904
929.943809	0.023525
930.122948	0.022788
930.302068	0.022112
930.481171	0.021842
930.660255	0.022211
930.839321	0.021738
931.018369	0.021369
931.197398	0.021139
931.376409	0.020755
931.555402	0.020078
931.734377	0.019802
931.913334	0.019809
932.092272	0.019524
932.271192	0.018867
932.450094	0.018541
932.628978	0.018320
932.807844	0.017923
932.986691	0.017968
933.165520	0.018421
933.344331	0.018170
933.523123	0.017568
933.701898	0.017142
933.880654	0.016559
934.059392	0.016828
934.238111	0.017050
934.416813	0.016777
934.595496	0.016207
934.774161	0.016173
934.952808	0.015815
935.131437	0.015725
935.310047	0.016063
935.488639	0.016928
935.667213	0.016888
935.845769	0.016513
936.024306	0.016875
936.202825	0.016605
936.381326	0.015521
936.559809	0.015266
936.738274	0.014380
936.916720	0.014275
937.095148	0.013812
937.273558	0.013922
937.451950	0.014060
937.630323	0.013427
937.808678	0.013342
937.987015	0.012882
938.165334	0.013059
938.343635	0.013422
938.521917	0.013234
938.700181	0.012829
938.878427	0.012252
939.056655	0.011736
939.234864	0.012065
939.413055	0.012090
939.591228	0.012588
939.769383	0.012181
939.947519	0.011991
940.125638	0.011262
940.303738	0.010472
940.481820	0.009299
940.659883	0.009107
940.837929	0.008596
941.015956	0.008584
941.193965	0.008927
941.371955	0.008533
941.549928	0.008900
941.727882	0.008278
941.905818	0.008819
942.083736	0.009498
942.261636	0.008973
942.439517	0.008623
942.617380	0.008409
942.795225	0.006962
942.973052	0.006664
943.150860	0.005752
943.328651	0.006616
943.506423	0.005722
943.684176	0.005101
943.861912	0.004733
944.039629	0.005223
944.217328	0.004919
944.395009	0.005167
944.572672	0.004987
944.750317	0.004861
944.927943	0.003847
945.105551	0.003181
945.283141	0.002038
945.460712	0.002698
945.638265	0.001154
945.815801	0.000779
945.993317	0.000912
946.170816	0.000864
946.348297	0.000888
946.525759	0.000776
946.703203	0.000793
946.880629	0.001538
947.058036	0.001432
947.235425	0.002499
947.412797	0.002911
947.590149	0.001616
947.767484	0.002342
947.944800	0.002277
948.122099	0.002517
948.299379	0.002415
948.476640	0.002736
948.653884	0.002442
948.831109	0.001170
949.008316	0.000878
949.185505	0.002297
949.362676	0.000113
949.539828	-0.000155
949.716962	-0.000984
949.894078	-0.000721
950.071176	-0.001358
950.248256	-0.002359
950.425317	-0.002384
950.602360	-0.002113
950.779385	-0.002203
950.956391	-0.000259
951.133380	-0.000897
951.310350	-0.000748
951.487302	-0.000180
951.664235	0.000219
951.841151	0.001124
952.018048	0.001158
952.194927	0.001963
952.371788	0.001780
952.548631	0.000225
952.725455	0.001250
952.902261	0.000865
953.079049	0.001140
953.255819	0.000827
953.432570	0.000939
953.609303	0.000525
953.786018	-0.000666
953.962715	-0.000872
954.139394	0.000461
954.316054	-0.000601
954.492696	-0.000300
954.669320	-0.001195
954.845926	-0.001089
955.022513	-0.001269
955.199083	-0.001039
955.375634	-0.001452
955.552166	-0.000764
955.728681	-0.000515
955.905177	0.000679
956.081655	-0.000238
956.258115	0.000732
956.434557	0.000575
956.610980	0.000749
956.787385	0.001516
956.963772	-0.000018
957.140141	-0.001900
957.316492	-0.002619
957.492824	-0.002404
957.669138	-0.000870
957.845434	-0.000806
958.021712	-0.001147
958.197971	-0.001500
958.374212	-0.001009
958.550435	0.001008
958.726640	0.002064
958.902826	0.001246
959.078995	0.000472
959.255145	0.001289
959.431277	0.001520
959.607390	0.001652
959.783486	0.002835
959.959563	0.002930
960.135622	0.002773
960.311662	0.002780
960.487685	0.004036
960.663689	0.006104
960.839675	0.006220
961.015643	0.005546
961.191593	0.006989
961.367524	0.005342
961.543437	0.003859
961.719332	0.006042
961.895209	0.003913
962.071067	0.003800
962.246907	0.002602
962.422730	0.001377
962.598533	0.003102
962.774319	0.001720
962.950086	0.000977
963.125835	0.000403
963.301566	-0.001246
963.477279	0.003097
963.652973	0.004348
963.828650	0.005165
964.004308	0.005875
964.179947	0.004386
964.355569	0.006777
964.531172	0.008020
964.706757	0.009147
964.882324	0.008048
965.057873	0.004823
965.233403	0.003844
965.408916	0.004483
965.584410	0.005165
965.759885	0.005169
965.935343	0.003394
966.110782	0.004100
966.286203	0.005619
966.461606	0.006368
966.636991	0.009017
966.812357	0.010828
966.987705	0.009704
967.163035	0.008290
967.338347	0.009454
967.513641	0.009381
967.688916	0.009146
967.864173	0.008367
968.039412	0.009865
968.214632	0.008083
968.389835	0.004801
968.565019	0.004519
968.740185	0.006930
968.915333	0.005038
969.090462	0.006176
969.265573	0.005923
969.440667	0.006405
969.615741	0.004275
969.790798	0.004095
969.965836	0.007041
970.140856	0.006233
970.315858	0.004364
970.490842	0.006252
970.665808	0.004355
970.840755	0.004502
971.015684	0.004247
971.190595	0.004831
971.365487	0.006265
971.540362	0.005445
971.715218	0.005905
971.890056	0.005682
972.064875	0.005092
972.239677	0.007592
972.414460	0.007545
972.589225	0.006618
972.763972	0.007537
972.938700	0.007349
973.113411	0.007489
973.288103	0.007214
973.462777	0.007474
973.637432	0.006452
973.812070	0.005597
973.986689	0.005052
974.161290	0.006320
974.335873	0.006436
974.510437	0.005323
974.684984	0.004255
974.859512	0.005783
975.034022	0.007383
975.208513	0.007710
975.382987	0.008768
975.557442	0.009652
975.731879	0.010388
975.906298	0.011207
976.080698	0.013191
976.255080	0.015193
976.429445	0.015274
976.603790	0.013090
976.778118	0.012886
976.952427	0.011347
977.126719	0.012040
977.300992	0.009408
977.475246	0.006424
977.649483	0.006716
977.823701	0.007160
977.997901	0.006511
978.172083	0.008080
978.346247	0.008503
978.520392	0.008415
978.694519	0.006956
978.868628	0.007801
979.042719	0.009358
979.216791	0.008040
979.390845	0.006228
979.564882	0.006470
979.738899	0.006643
979.912899	0.006725
980.086880	0.007207
980.260843	0.008346
980.434788	0.009682
980.608715	0.008797
980.782623	0.010183
980.956514	0.010483
981.130386	0.011051
981.304240	0.011243
981.478075	0.012212
981.651892	0.011302
981.825692	0.011426
981.999472	0.011179
982.173235	0.013433
982.346980	0.012765
982.520706	0.012647
982.694414	0.010516
982.868104	0.010628
983.041775	0.011409
983.215428	0.012177
983.389064	0.014166
983.562680	0.014288
983.736279	0.014634
983.909860	0.012505
984.083422	0.013188
984.256966	0.013435
984.430491	0.013114
984.603999	0.012557
984.777488	0.012986
984.950959	0.011111
985.124412	0.010094
985.297847	0.007767
985.471263	0.009158
985.644661	0.008956
985.818041	0.009530
985.991403	0.008840
986.164747	0.008871
986.338072	0.008356
986.511379	0.007580
986.684668	0.007469
986.857938	0.008267
987.031191	0.008510
987.204425	0.008904
987.377641	0.009486
987.550839	0.010781
987.724018	0.009785
987.897179	0.009312
988.070322	0.009158
988.243447	0.009053
988.416554	0.010077
988.589642	0.009881
988.762712	0.008831
988.935764	0.009601
989.108798	0.009835
989.281813	0.011408
989.454811	0.012105
989.627790	0.013291
989.800751	0.015086
989.973693	0.014231
990.146617	0.014344
990.319524	0.014556
990.492412	0.013635
990.665281	0.012331
990.838133	0.010749
991.010966	0.010581
991.183781	0.009850
991.356578	0.008307
991.529356	0.010232
991.702117	0.010473
991.874859	0.010084
992.047583	0.009691
992.220288	0.008963
992.392976	0.007093
992.565645	0.007659
992.738296	0.008364
992.910929	0.010297
993.083543	0.009268
993.256139	0.009728
993.428718	0.010140
993.601277	0.010646
993.773819	0.012882
993.946342	0.013878
994.118848	0.012293
994.291335	0.012906
994.463803	0.010264
994.636254	0.008931
994.808686	0.008725
994.981100	0.008970
995.153496	0.008047
995.325874	0.006136
995.498233	0.007086
995.670574	0.008922
995.842897	0.007198
996.015202	0.008722
996.187488	0.008951
996.359757	0.009646
996.532007	0.008599
996.704239	0.009748
996.876452	0.010241
997.048648	0.008719
997.220825	0.009125
997.392984	0.008680
997.565124	0.009234
997.737247	0.009381
997.909351	0.008514
998.081437	0.009388
998.253505	0.008077
998.425554	0.008554
998.597586	0.009538
998.769599	0.008391
998.941594	0.008954
999.113571	0.008444
999.285529	0.007742
999.457469	0.007346
999.629391	0.006890
999.801295	0.008373
999.973181	0.007808
1000.145048	0.008104
1000.316897	0.008114
1000.488728	0.008593
1000.660541	0.008145
1000.832335	0.008223
1001.004111	0.007848
1001.175869	0.008582
1001.347609	0.007781
1001.519331	0.006487
1001.691034	0.005846
1001.862719	0.006617
1002.034386	0.005178
1002.206035	0.004286
1002.377665	0.004503
1002.549277	0.005814
1002.720871	0.005499
1002.892447	0.006020
1003.064004	0.007022
1003.235544	0.006694
1003.407065	0.006644
1003.578568	0.008445
1003.750052	0.010147
1003.921519	0.012474
1004.092967	0.010934
1004.264397	0.010694
1004.435809	0.010454
1004.607202	0.012014
1004.778577	0.012564
1004.949934	0.012335
1005.121273	0.010889
1005.292594	0.010220
1005.463896	0.008751
1005.635180	0.009645
1005.806446	0.009951
1005.977694	0.009930
1006.148923	0.009389
1006.320135	0.011225
1006.491328	0.011194
1006.662503	0.012367
1006.833659	0.011573
1007.004798	0.010167
1007.175918	0.010330
1007.347020	0.010885
1007.518103	0.010456
1007.689169	0.008719
1007.860216	0.007855
1008.031245	0.007161
1008.202256	0.008769
1008.373248	0.008542
1008.544223	0.009350
1008.715179	0.009711
1008.886117	0.008406
1009.057036	0.009442
1009.227938	0.011025
1009.398821	0.009503
1009.569686	0.009785
1009.740533	0.007765
1009.911361	0.008134
1010.082172	0.008800
1010.252964	0.007064
1010.423738	0.006018
1010.594493	0.005662
1010.765231	0.004124
1010.935950	0.005139
1011.106651	0.004541
1011.277334	0.003866
1011.447998	0.004225
1011.618645	0.003044
1011.789273	0.004344
1011.959882	0.006585
1012.130474	0.005508
1012.301048	0.006740
1012.471603	0.007284
1012.642140	0.007229
1012.812658	0.008403
1012.983159	0.009514
1013.153641	0.009982
1013.324105	0.008820
1013.494551	0.007886
1013.664979	0.008138
1013.835388	0.009022
1014.005779	0.008555
1014.176152	0.009415
1014.346507	0.008434
1014.516843	0.007556
1014.687162	0.007653
1014.857462	0.007924
1015.027744	0.007885
1015.198007	0.008553
1015.368252	0.007735
1015.538480	0.007239
1015.708689	0.006136
1015.878879	0.005120
1016.049052	0.005267
1016.219206	0.004348
1016.389342	0.004683
1016.559460	0.003837
1016.729559	0.003729
1016.899641	0.002760
1017.069704	0.003355
1017.239749	0.004092
1017.409775	0.006535
1017.579784	0.006694
1017.749774	0.005873
1017.919746	0.005796
1018.089700	0.005765
1018.259635	0.005831
1018.429553	0.005951
1018.599452	0.006164
1018.769333	0.006332
1018.939195	0.005657
1019.109040	0.004581
1019.278866	0.004841
1019.448674	0.004734
1019.618464	0.006243
1019.788235	0.006546
1019.957989	0.007480
1020.127724	0.007679
1020.297441	0.006914
1020.467139	0.005023
1020.636820	0.006662
1020.806482	0.008602
1020.976126	0.008979
1021.145752	0.007241
1021.315359	0.007575
1021.484948	0.007265
1021.654519	0.006543
1021.824072	0.007034
1021.993607	0.008258
1022.163123	0.006553
1022.332621	0.006179
1022.502101	0.005542
1022.671563	0.006223
1022.841007	0.005494
1023.010432	0.006282
1023.179839	0.006209
1023.349228	0.006196
1023.518598	0.006437
1023.687951	0.006844
1023.857285	0.006797
1024.026601	0.006177
1024.195899	0.006895
1024.365178	0.006619
1024.534439	0.006550
1024.703682	0.006799
1024.872907	0.007172
1025.042114	0.008082
1025.211302	0.007746
1025.380472	0.008747
1025.549624	0.009938
1025.718758	0.008912
1025.887873	0.009173
1026.056970	0.007433
1026.226049	0.008918
1026.395110	0.007753
1026.564153	0.006947
1026.733177	0.007310
1026.902183	0.006235
1027.071171	0.005485
1027.240141	0.005712
1027.409092	0.004625
1027.578026	0.004974
1027.746940	0.003936
1027.915837	0.004240
1028.084716	0.004461
1028.253576	0.004784
1028.422418	0.005365
1028.591242	0.007874
1028.760048	0.009101
1028.928835	0.010076
1029.097604	0.011500
1029.266355	0.011306
1029.435088	0.012787
1029.603803	0.012045
1029.772499	0.012471
1029.941177	0.011973
1030.109837	0.009880
1030.278478	0.009165
1030.447102	0.009109
1030.615707	0.008321
1030.784294	0.006679
1030.952863	0.005861
1031.121413	0.005394
1031.289945	0.006093
1031.458460	0.006242
1031.626955	0.005640
1031.795433	0.006750
1031.963892	0.006197
1032.132334	0.005624
1032.300756	0.006199
1032.469161	0.005945
1032.637548	0.007206
1032.805916	0.006152
1032.974266	0.005638
1033.142598	0.007127
1033.310911	0.006383
1033.479207	0.007524
1033.647484	0.008087
1033.815743	0.009725
1033.983983	0.007714
1034.152206	0.008165
1034.320410	0.006984
1034.488596	0.006558
1034.656764	0.005999
1034.824914	0.005395
1034.993045	0.005900
1035.161158	0.004744
1035.329253	0.004354
1035.497330	0.007614
1035.665388	0.006779
1035.833428	0.008117
1036.001450	0.009438
1036.169454	0.009235
1036.337440	0.010344
1036.505407	0.009823
1036.673356	0.010084
1036.841287	0.011533
1037.009200	0.010014
1037.177094	0.010151
1037.344970	0.009646
1037.512828	0.009505
1037.680668	0.009452
1037.848489	0.007483
1038.016293	0.006651
1038.184078	0.007038
1038.351845	0.004942
1038.519593	0.007065
1038.687324	0.006393
1038.855036	0.005642
1039.022730	0.005072
1039.190406	0.005256
1039.358063	0.008244
1039.525702	0.008154
1039.693323	0.008036
1039.860926	0.006369
1040.028511	0.005291
1040.196077	0.007675
1040.363625	0.008052
1040.531155	0.008997
1040.698667	0.008194
1040.866161	0.007363
1041.033636	0.008122
1041.201093	0.008883
1041.368532	0.011445
1041.535952	0.011355
1041.703355	0.010306
1041.870739	0.010176
1042.038105	0.008801
1042.205452	0.009358
1042.372782	0.008552
1042.540093	0.008198
1042.707386	0.007952
1042.874661	0.006927
1043.041918	0.006099
1043.209156	0.005653
1043.376376	0.006395
1043.543578	0.006736
1043.710762	0.005098
1043.877927	0.005012
1044.045074	0.005013
1044.212203	0.005408
1044.379314	0.005930
1044.546407	0.006763
1044.713481	0.007773
1044.880537	0.008272
1045.047575	0.009685
1045.214595	0.011976
1045.381596	0.011463
1045.548579	0.011289
1045.715544	0.010887
1045.882491	0.011194
1046.049420	0.008451
1046.216330	0.006970
1046.383222	0.006437
1046.550096	0.006321
1046.716951	0.006290
1046.883789	0.006157
1047.050608	0.006040
1047.217409	0.005230
1047.384192	0.004585
1047.550956	0.004925
1047.717703	0.004249
1047.884431	0.004184
1048.051140	0.002586
1048.217832	0.003454
1048.384505	0.002995
1048.551161	0.002793
1048.717798	0.003697
1048.884416	0.003904
1049.051017	0.005219
1049.217599	0.005923
1049.384163	0.005899
1049.550709	0.005684
1049.717237	0.004004
1049.883746	0.004419
1050.050237	0.005701
1050.216710	0.004435
1050.383165	0.004505
1050.549601	0.005767
1050.716019	0.006120
1050.882420	0.006245
1051.048801	0.006980
1051.215165	0.007786
1051.381510	0.008420
1051.547837	0.006770
1051.714146	0.008925
1051.880437	0.008101
1052.046709	0.007562
1052.212964	0.008411
1052.379200	0.007184
1052.545417	0.008830
1052.711617	0.007124
1052.877798	0.007810
1053.043961	0.009815
1053.210106	0.008580
1053.376233	0.009363
1053.542341	0.007992
1053.708432	0.007088
1053.874504	0.008412
1054.040557	0.006701
1054.206593	0.006404
1054.372610	0.004663
1054.538609	0.003261
1054.704590	0.003725
1054.870553	0.002856
1055.036497	0.002122
1055.202424	0.001695
1055.368331	0.002102
1055.534221	0.001072
1055.700093	0.003802
1055.865946	0.004248
1056.031781	0.004252
1056.197598	0.004149
1056.363397	0.005027
1056.529177	0.008093
1056.694939	0.009134
1056.860683	0.008619
1057.026409	0.009866
1057.192116	0.009339
1057.357806	0.009600
1057.523477	0.009132
1057.689130	0.008010
1057.854764	0.008557
1058.020381	0.009529
1058.185979	0.008951
1058.351559	0.008689
1058.517120	0.008123
1058.682664	0.006586
1058.848189	0.007221
1059.013696	0.007227
1059.179185	0.007679
1059.344656	0.006087
1059.510108	0.003550
1059.675542	0.001935
1059.840958	0.001877
1060.006356	0.001704
1060.171735	0.002911
1060.337096	0.001692
1060.502439	0.002101
1060.667764	0.002393
1060.833071	0.003683
1060.998359	0.003851
1061.163629	0.006125
1061.328881	0.007362
1061.494115	0.007949
1061.659330	0.007637
1061.824527	0.008124
1061.989706	0.009817
1062.154867	0.009409
1062.320010	0.007710
1062.485134	0.008611
1062.650240	0.007660
1062.815328	0.005626
1062.980398	0.003849
1063.145449	0.003438
1063.310482	0.002884
1063.475497	0.002159
1063.640494	0.001715
1063.805473	0.003117
1063.970433	0.003860
1064.135375	0.004307
1064.300299	0.004516
1064.465204	0.006894
1064.630092	0.005746
1064.794961	0.007391
1064.959812	0.006016
1065.124645	0.007431
1065.289459	0.007247
1065.454256	0.004511
1065.619034	0.002444
1065.783793	0.003305
1065.948535	0.001346
1066.113258	0.002807
1066.277964	0.002824
1066.442651	0.005221
1066.607319	0.004418
1066.771970	0.004661
1066.936602	0.006240
1067.101216	0.007924
1067.265812	0.007308
1067.430389	0.008974
1067.594949	0.009166
1067.759490	0.007980
1067.924013	0.007323
1068.088518	0.008149
1068.253004	0.007242
1068.417472	0.006836
1068.581922	0.008055
1068.746354	0.007346
1068.910768	0.006881
1069.075163	0.005990
1069.239540	0.007365
1069.403899	0.007687
1069.568240	0.007222
1069.732562	0.008329
1069.896866	0.008496
1070.061152	0.006308
1070.225420	0.008510
1070.389670	0.008230
1070.553901	0.010763
1070.718114	0.011636
1070.882309	0.010113
1071.046486	0.010216
1071.210644	0.009101
1071.374784	0.009651
1071.538906	0.010296
1071.703010	0.009072
1071.867096	0.009086
1072.031163	0.007806
1072.195212	0.007683
1072.359243	0.008480
1072.523256	0.009082
1072.687250	0.010406
1072.851226	0.011528
1073.015184	0.011628
1073.179124	0.013076
1073.343045	0.012127
1073.506949	0.011468
1073.670834	0.008801
1073.834701	0.007503
1073.998549	0.006959
1074.162380	0.007309
1074.326192	0.003920
1074.489986	0.005454
1074.653761	0.004543
1074.817519	0.005363
1074.981258	0.005624
1075.144979	0.006895
1075.308682	0.006506
1075.472367	0.006583
1075.636033	0.005558
1075.799681	0.006707
1075.963311	0.005691
1076.126923	0.004764
1076.290516	0.005392
1076.454092	0.005437
1076.617649	0.005018
1076.781187	0.004865
1076.944708	0.004506
1077.108210	0.002884
1077.271695	0.002659
1077.435160	0.003796
1077.598608	0.005659
1077.762038	0.005938
1077.925449	0.005105
1078.088842	0.006188
1078.252217	0.007785
1078.415573	0.007061
1078.578912	0.009556
1078.742232	0.009210
1078.905534	0.007870
1079.068817	0.003757
1079.232083	0.002366
1079.395330	0.002232
1079.558559	0.000707
1079.721770	0.001525
1079.884962	0.001907
1080.048136	0.002279
1080.211293	0.002936
1080.374430	0.001265
1080.537550	0.002318
1080.700651	0.003770
1080.863735	0.002972
1081.026800	0.004395
1081.189846	0.003239
1081.352875	0.004378
1081.515885	0.004167
1081.678877	0.003654
1081.841851	0.006840
1082.004807	0.008290
1082.167744	0.007249
1082.330663	0.010259
1082.493564	0.010327
1082.656447	0.009832
1082.819312	0.009700
1082.982158	0.008388
1083.144986	0.009931
1083.307796	0.009508
1083.470587	0.008688
1083.633361	0.009696
1083.796116	0.008445
1083.958853	0.006917
1084.121571	0.005515
1084.284272	0.003471
1084.446954	0.004332
1084.609618	0.002300
1084.772264	0.000806
1084.934892	0.003082
1085.097501	0.003245
1085.260092	0.003036
1085.422665	0.003057
1085.585220	0.004632
1085.747756	0.005152
1085.910274	0.003514
1086.072774	0.004897
1086.235256	0.005488
1086.397720	0.004850
1086.560165	0.004851
1086.722592	0.003847
1086.885001	0.002914
1087.047392	0.003502
1087.209764	0.004129
1087.372119	0.005076
1087.534455	0.005253
1087.696772	0.005313
1087.859072	0.003897
1088.021353	0.002356
1088.183616	0.004432
1088.345861	0.005738
1088.508088	0.005569
1088.670296	0.006948
1088.832486	0.008689
1088.994658	0.008944
1089.156812	0.009188
1089.318948	0.010478
1089.481065	0.011356
1089.643164	0.010319
1089.805245	0.009786
1089.967308	0.009841
1090.129352	0.008533
1090.291378	0.008302
1090.453386	0.009243
1090.615376	0.010090
1090.777347	0.008922
1090.939301	0.007549
1091.101236	0.008316
1091.263153	0.009292
1091.425051	0.008924
1091.586932	0.009714
1091.748794	0.007403
1091.910638	0.008665
1092.072463	0.007103
1092.234271	0.008142
1092.396060	0.009160
1092.557831	0.009116
1092.719584	0.008909
1092.881319	0.010386
1093.043035	0.009273
1093.204733	0.010599
1093.366413	0.007822
1093.528075	0.006537
1093.689718	0.006767
1093.851343	0.008350
1094.012950	0.011414
1094.174539	0.011147
1094.336110	0.009804
1094.497662	0.011175
1094.659196	0.010028
1094.820712	0.010379
1094.982210	0.012501
1095.143689	0.011123
1095.305151	0.009178
1095.466594	0.005315
1095.628018	0.006117
1095.789425	0.006017
1095.950813	0.006894
1096.112183	0.004610
1096.273535	0.004337
1096.434869	0.004839
1096.596184	0.004712
1096.757482	0.006945
1096.918761	0.006873
1097.080021	0.006521
1097.241264	0.005882
1097.402488	0.005221
1097.563694	0.008955
1097.724882	0.006819
1097.886052	0.004522
1098.047203	0.004144
1098.208336	0.004024
1098.369451	0.005577
1098.530548	0.004211
1098.691627	0.005662
1098.852687	0.003577
1099.013729	0.002435
1099.174753	0.001410
1099.335758	0.002853
1099.496746	0.003991
1099.657715	0.004249
1099.818666	0.003834
1099.979599	0.003132
1100.140513	-0.001646
1100.301409	-0.001363
1100.462287	-0.002726
1100.623147	-0.000623
1100.783989	-0.000495
1100.944812	-0.001207
1101.105617	-0.003570
1101.266404	-0.004276
1101.427173	-0.001249
1101.587923	0.004213
1101.748656	0.003797
1101.909370	0.004897
1102.070066	0.002132
1102.230743	0.000907
1102.391403	0.001487
1102.552044	0.001656
1102.712667	-0.001810
1102.873271	-0.003681
1103.033858	-0.007229
1103.194426	-0.004726
1103.354976	-0.002855
1103.515508	0.002890
1103.676021	0.004532
1103.836517	0.006881
1103.996994	0.006324
1104.157453	0.006722
1104.317893	0.006952
1104.478316	0.006550
1104.638720	0.004255
1104.799106	0.002836
1104.959474	-0.000805
1105.119823	-0.002281
1105.280155	-0.004777
1105.440468	-0.003253
1105.600763	-0.000685
1105.761039	-0.000162
1105.921298	0.000611
1106.081538	0.000489
1106.241760	-0.001281
1106.401964	0.003725
1106.562149	0.000595
1106.722316	-0.000213
1106.882465	-0.000377
1107.042596	-0.000887
1107.202709	-0.001681
1107.362803	0.000743
1107.522879	0.001089
1107.682937	0.004298
1107.842977	0.003874
1108.002999	0.007373
1108.163002	0.007603
1108.322987	0.004258
1108.482954	0.004956
1108.642902	0.006585
1108.802833	0.009875
1108.962745	0.014083
1109.122639	0.011772
1109.282515	0.009579
1109.442372	0.009681
1109.602211	0.012216
1109.762032	0.016217
1109.921835	0.017414
1110.081620	0.015336
1110.241386	0.014648
1110.401134	0.012694
1110.560864	0.014234
1110.720576	0.012183
1110.880269	0.011307
1111.039945	0.011302
1111.199602	0.009450
1111.359240	0.012754
1111.518861	0.013217
1111.678463	0.010691
1111.838047	0.007685
1111.997613	0.010995
1112.157161	0.011917
1112.316690	0.014375
1112.476202	0.011275
1112.635695	0.008754
1112.795169	0.007092
1112.954626	0.009376
1113.114064	0.011179
1113.273484	0.012570
1113.432886	0.009748
1113.592270	0.011573
1113.751635	0.009246
1113.910983	0.009399
1114.070312	0.010821
1114.229622	0.010029
1114.388915	0.006939
1114.548189	0.005625
1114.707445	0.006956
1114.866683	0.005758
1115.025903	0.005326
1115.185104	0.006482
1115.344287	0.010066
1115.503452	0.009865
1115.662599	0.007012
1115.821727	0.006372
1115.980838	0.006365
1116.139930	0.007963
1116.299004	0.006963
1116.458059	0.005508
1116.617097	0.007361
1116.776116	0.008045
1116.935117	0.010798
1117.094099	0.010532
1117.253064	0.014219
1117.412010	0.012697
1117.570938	0.009724
1117.729848	0.008802
1117.888740	0.008018
1118.047613	0.006169
1118.206468	0.004753
1118.365305	0.005468
1118.524124	0.007165
1118.682924	0.006984
1118.841707	0.007789
1119.000471	0.008447
1119.159216	0.009170
1119.317944	0.010004
1119.476653	0.009022
1119.635344	0.010518
1119.794017	0.010186
1119.952672	0.007368
1120.111308	0.008826
1120.269927	0.005937
1120.428527	0.007359
1120.587108	0.010219
1120.745672	0.011007
1120.904217	0.011796
1121.062744	0.012717
1121.221253	0.014406
1121.379744	0.017218
1121.538216	0.013313
1121.696671	0.016969
1121.855107	0.016506
1122.013524	0.011612
1122.171924	0.012972
1122.330305	0.012632
1122.488668	0.007745
1122.647013	0.005817
1122.805340	0.006060
1122.963648	0.007647
1123.121938	0.008596
1123.280210	0.003021
1123.438464	0.004086
1123.596700	0.001189
1123.754917	0.001237
1123.913116	0.001495
1124.071297	0.000806
1124.229459	-0.002221
1124.387604	-0.006313
1124.545730	-0.008600
1124.703838	-0.006764
1124.861928	-0.002795
1125.019999	-0.004352
1125.178052	-0.003056
1125.336088	-0.000116
1125.494104	0.002746
1125.652103	0.003995
1125.810083	0.005756
1125.968045	0.003857
1126.125989	0.006402
1126.283915	0.005768
1126.441823	0.006508
1126.599712	0.006961
1126.757583	0.002501
1126.915436	0.001933
1127.073270	0.002247
1127.231087	0.004650
1127.388885	0.005696
1127.546665	0.003423
1127.704426	0.002975
1127.862170	0.004420
1128.019895	0.003779
1128.177602	0.006297
1128.335291	0.002019
1128.492961	0.004294
1128.650614	0.002996
1128.808248	0.001943
1128.965864	0.003827
1129.123461	0.003643
1129.281041	0.003978
1129.438602	0.001097
1129.596145	-0.001132
1129.753670	0.001865
1129.911176	0.003487
1130.068665	0.007162
1130.226135	0.010273
1130.383587	0.010139
1130.541020	0.008501
1130.698436	0.009206
1130.855833	0.010173
1131.013212	0.012472
1131.170573	0.011605
1131.327915	0.010607
1131.485239	0.011427
1131.642545	0.013721
1131.799833	0.014328
1131.957103	0.016636
1132.114354	0.014397
1132.271588	0.014501
1132.428803	0.011779
1132.585999	0.008994
1132.743178	0.007781
1132.900338	0.007069
1133.057480	0.007403
1133.214604	0.006301
1133.371710	0.005902
1133.528797	0.007399
1133.685866	0.010375
1133.842917	0.010591
1133.999950	0.013872
1134.156964	0.009738
1134.313960	0.007213
1134.470938	0.003212
1134.627898	0.002037
1134.784840	0.002777
1134.941763	0.002627
1135.098668	-0.001145
1135.255555	0.002050
1135.412424	0.001905
1135.569274	0.002656
1135.726107	0.000839
1135.882921	0.000531
1136.039716	-0.000935
1136.196494	0.004077
1136.353253	0.001295
1136.509995	0.003665
1136.666717	0.000637
1136.823422	-0.001803
1136.980109	-0.001289
1137.136777	-0.002175
1137.293427	-0.003570
1137.450059	0.002213
1137.606672	-0.007698
1137.763267	-0.003315
1137.919844	-0.004333
1138.076403	-0.000760
1138.232944	-0.000077
1138.389466	-0.000367
1138.545971	-0.000570
1138.702457	-0.005506
1138.858924	-0.008803
1139.015374	-0.004259
1139.171805	-0.005748
1139.328218	-0.010261
1139.484613	-0.011596
1139.640990	-0.012618
1139.797348	-0.010995
1139.953688	-0.005526
1140.110010	-0.000496
1140.266314	0.005652
1140.422600	0.005362
1140.578867	0.007493
1140.735116	0.011573
1140.891347	0.012732
1141.047559	0.013775
1141.203754	0.013728
1141.359930	0.008331
1141.516088	0.010489
1141.672228	0.003436
1141.828349	0.002711
1141.984452	0.000480
1142.140537	-0.000337
1142.296604	0.000773
1142.452653	-0.000313
1142.608683	-0.000126
1142.764695	0.000194
1142.920689	-0.002687
1143.076665	-0.000526
1143.232622	-0.000769
1143.388562	-0.000346
1143.544483	0.001828
1143.700385	0.003312
1143.856270	0.002121
1144.012136	0.003306
1144.167985	0.002096
1144.323814	0.005061
1144.479626	0.008665
1144.635420	0.010410
1144.791195	0.005711
1144.946952	0.000612
1145.102691	-0.003262
1145.258411	0.000594
1145.414113	-0.002015
1145.569798	0.003419
1145.725463	0.004001
1145.881111	-0.002857
1146.036741	-0.004537
1146.192352	0.005021
1146.347945	0.009066
1146.503519	0.008631
1146.659076	0.006782
1146.814614	0.007551
1146.970134	0.010704
1147.125636	0.012121
1147.281120	0.018982
1147.436585	0.015327
1147.592032	0.008410
1147.747461	0.009133
1147.902872	0.008294
1148.058265	0.006607
1148.213639	0.008890
1148.368995	0.002659
1148.524333	0.003149
1148.679653	0.002050
1148.834954	0.006134
1148.990237	0.006113
1149.145502	0.003474
1149.300749	0.005257
1149.455977	0.010208
1149.611188	0.004340
1149.766380	0.002106
1149.921553	-0.000160
1150.076709	-0.006519
1150.231846	-0.003100
1150.386966	0.002726
1150.542066	0.012371
1150.697149	0.010657
1150.852214	0.012511
1151.007260	0.009709
1151.162288	0.017138
1151.317298	0.017253
1151.472289	0.015180
1151.627263	0.015328
1151.782218	0.013262
1151.937155	0.007555
1152.092073	0.011212
1152.246974	0.006112
1152.401856	0.009581
1152.556720	0.005326
1152.711566	0.005622
1152.866393	0.010905
1153.021203	0.010104
1153.175994	0.007223
1153.330767	0.013867
1153.485521	0.006417
1153.640258	0.008864
1153.794976	0.020555
1153.949676	0.020664
1154.104358	0.018494
1154.259021	0.013037
1154.413667	0.016519
1154.568294	0.019770
1154.722903	0.015620
1154.877493	0.014276
1155.032066	0.013128
1155.186620	0.002278
1155.341156	0.004904
1155.495674	0.004948
1155.650173	0.009436
1155.804654	0.007378
1155.959118	-0.000551
1156.113562	-0.003681
1156.267989	0.004032
1156.422397	0.003666
1156.576788	0.008171
1156.731160	0.010738
1156.885513	0.010431
1157.039849	0.013908
1157.194166	0.007002
1157.348465	0.015973
1157.502746	0.017902
1157.657009	0.013557
1157.811253	0.012865
1157.965479	0.016076
1158.119687	0.013325
1158.273877	0.015389
1158.428048	0.014229
1158.582201	0.012684
1158.736337	0.010218
1158.890453	0.009013
1159.044552	0.010401
1159.198632	0.014380
1159.352694	0.009877
1159.506738	0.012598
1159.660764	0.007046
1159.814771	0.011436
1159.968761	0.008351
1160.122732	0.007636
1160.276685	0.011056
1160.430619	0.015620
1160.584535	0.017178
1160.738434	0.026168
1160.892313	0.014802
1161.046175	0.020342
1161.200019	0.009179
1161.353844	0.019378
1161.507651	0.023313
1161.661440	0.009509
1161.815210	0.003524
1161.968962	-0.001728
1162.122697	-0.009913
1162.276412	-0.004030
1162.430110	-0.003857
1162.583789	-0.000526
1162.737451	0.000866
1162.891094	-0.003642
1163.044718	0.002882
1163.198325	0.004906
1163.351913	0.005472
1163.505483	-0.003917
1163.659035	-0.004771
1163.812569	-0.004004
1163.966084	-0.002651
1164.119581	-0.003192
1164.273060	-0.002320
1164.426521	0.002590
1164.579964	0.004567
1164.733388	0.001355
1164.886794	0.002872
1165.040182	0.004790
1165.193551	0.008791
1165.346903	0.006444
1165.500236	0.003063
1165.653551	0.001595
1165.806848	0.004413
1165.960126	0.000171
1166.113386	0.011382
1166.266628	0.019501
1166.419852	0.018593
1166.573058	0.008757
1166.726245	0.014948
1166.879414	0.013295
1167.032565	0.014983
1167.185698	0.008794
1167.338812	0.005945
1167.491909	0.001714
1167.644987	-0.000561
1167.798046	0.001235
1167.951088	0.010007
1168.104111	0.001225
1168.257117	0.000528
1168.410103	0.004067
1168.563072	0.003649
1168.716023	0.007415
1168.868955	0.006581
1169.021869	0.007543
1169.174765	0.004226
1169.327642	-0.004504
1169.480501	0.002315
1169.633343	0.003785
1169.786165	0.001083
1169.938970	-0.006594
1170.091757	-0.000152
1170.244525	-0.007002
1170.397275	-0.010795
1170.550007	-0.013272
1170.702720	-0.010642
1170.855415	-0.014178
1171.008092	-0.012952
1171.160751	-0.013116
1171.313392	-0.004533
1171.466014	-0.022869
1171.618619	0.013033
1171.771205	0.013033
1171.923772	0.013033
