sample name	sample
index	520
start time	 03-11-2021  03:53:26 PM
880	-0.019492
Peak Time (s)	92.036
Peak Height 	-0.01949
calc peak height	90,93
Baseline Time (s)	10.035
Baseline Value 	-0.003616
subtract baseline	10,4
Abs	-0.018822
Peak Time (s)	92.036
Peak Height 	-0.01882
calc peak height	90,93
Baseline Time (s)	10.035
Baseline Value 	0.004834
subtract baseline	10,3
PK_550	-0.000961
Peak Time (s)	90.538
Peak Height 	-9.6119E-4
calc peak height	90,93
Baseline Time (s)	11.036
Baseline Value 	6.3333E-4
subtract baseline	10,2
PK_880	-0.013684
Peak Time (s)	91.035
Peak Height 	-0.01368
calc peak height	90,93
Baseline Time (s)	10.035
Baseline Value 	0.001298
subtract baseline	10,1


Time (s)	A880-A510	A880-A775	A880-A975	A880	I510	I775	I975	I880	
0.034500	-0.000733	0.000261	-0.004159	0.003874	6992.418867	44906.091000	3970.064804	23857.332883
0.538000	-0.005599	-0.000485	-0.007939	0.007405	6914.302128	44494.816866	3951.967779	23687.647612
1.035500	-0.001797	-0.000320	-0.005861	0.004864	6973.169828	44754.621607	3963.364637	23809.615051
1.536000	-0.000985	-0.000786	-0.007803	0.001872	7008.889224	44998.524330	3965.973694	23954.158366
2.036000	-0.000564	-0.000718	-0.001984	0.002113	7010.583835	44981.724612	3979.932047	23942.454864
2.536500	-0.001068	-0.000735	-0.007259	0.002609	7001.170981	44932.122944	3965.494118	23918.464902
3.037000	0.001264	-0.000375	-0.001570	-0.000997	7057.446863	45317.409024	3988.845319	24093.688891
3.537000	-0.003341	-0.000911	-0.008315	0.000255	7001.926684	45143.323948	3968.724368	24032.687666
4.037500	-0.002791	-0.000960	-0.007578	0.001073	6999.397613	45059.079135	3968.522416	23992.894183
4.535000	-0.001024	-0.000395	-0.006232	0.000692	7019.666739	45150.965507	3972.837202	24011.431610
5.037500	0.000850	-0.000461	-0.000199	0.000460	7039.634375	45167.121128	3988.629011	24022.716922
5.535500	-0.000698	-0.000805	-0.000804	0.000480	7024.757984	45131.733655	3987.042590	24021.734286
6.036000	0.000047	-0.000685	-0.000465	0.000597	7030.702512	45132.005110	3987.604362	24016.034337
6.536000	-0.002475	-0.000238	-0.005568	0.000685	7006.033020	45166.925076	3974.517765	24011.774135
7.036500	0.002264	0.000104	-0.000006	0.000570	7052.038614	45211.352531	3988.839759	24017.371419
7.537000	0.000369	-0.000601	0.000760	0.000159	7037.924644	45182.759418	3991.831392	24037.357200
8.037000	0.000744	-0.001097	-0.001987	-0.000342	7046.242162	45183.154874	3986.125751	24061.721758
8.536500	0.000439	0.000441	0.000505	0.000615	7034.255227	45239.801027	3990.021519	24015.158720
9.037500	-0.000456	-0.000040	-0.004082	-0.000190	7033.401993	45271.412710	3980.450388	24054.352031
9.537500	0.000267	-0.000525	0.000266	0.000379	7034.859888	45168.686014	3990.013859	24026.625334
10.035000	0.000000	0.000201	0.000000	0.000000	7035.923454	45276.318708	3990.301622	24045.079709
10.538000	0.001083	-0.000371	-0.000750	-0.001115	7056.845117	45329.277109	3991.230339	24099.436369
11.036000	-0.000262	0.000000	0.001763	-0.000045	7033.861195	45261.078273	3994.906650	24047.253456
11.536000	-0.000786	0.000142	-0.000635	0.000575	7023.020091	45214.550070	3987.227191	24017.088032
12.036500	0.000778	-0.000148	0.002550	-0.000003	7043.343566	45242.610452	3996.812231	24045.218951
12.536500	0.001304	-0.000526	-0.007831	-0.000772	7055.681746	45280.677712	3972.496628	24082.690480
13.037000	-0.000818	0.000196	-0.001023	-0.000596	7033.810501	45333.961859	3989.214452	24074.099274
13.535000	-0.000364	-0.000214	-0.000331	0.001218	7020.933967	45117.437428	3986.369859	23985.868219
14.037500	-0.002824	-0.000527	-0.002676	0.001749	6992.742048	45035.559618	3979.108592	23960.108915
14.538000	-0.001182	-0.000214	-0.003868	0.001855	7007.198319	45055.649399	3975.845963	23954.985912
15.038000	-0.001135	-0.000316	-0.002601	-0.000260	7027.627133	45251.331865	3984.366968	24057.759446
15.535500	0.000141	-0.000736	-0.000262	0.000976	7028.007479	45090.232740	3987.158680	23997.638497
16.036000	0.000735	0.000221	-0.002685	-0.000252	7045.298708	45302.824166	3984.130382	24057.327217
16.536000	-0.000815	-0.000114	-0.002071	-0.000577	7033.664154	45301.892794	3986.508327	24073.184973
17.036500	-0.000128	-0.000182	-0.005405	-0.003220	7065.376623	45553.766795	3984.758564	24202.399798
17.539500	0.000616	-0.000409	-0.003564	0.000681	7035.308270	45150.636995	3979.560057	24011.940482
18.037000	-0.002511	-0.000239	0.003036	0.002124	6992.155817	45027.036565	3992.622158	23941.921444
18.540000	-0.002696	-0.000651	-0.002267	0.000144	7009.046541	45179.355005	3984.187480	24038.068882
19.035000	-0.001268	0.000655	-0.002028	0.001036	7014.108486	45219.568880	3982.537041	23994.699261
19.538000	0.000543	0.000041	-0.004462	0.001004	7031.549175	45162.968028	3976.491651	23996.265739
20.035500	-0.000510	-0.000830	-0.001930	0.000427	7027.040061	45134.442353	3984.324587	24024.307893
20.536000	-0.001292	-0.000021	-0.002298	0.000730	7016.774319	45183.685462	3982.631028	24009.593950
21.036000	0.000464	-0.000437	-0.003442	0.000702	7033.673196	45145.894474	3979.815888	24010.955434
21.536500	0.000211	-0.000750	-0.001783	0.000762	7030.688876	45109.648303	3983.848782	24008.002480
22.036000	-0.001220	-0.000562	-0.005719	0.000143	7023.010901	45188.108864	3975.496592	24038.142303
22.536500	-0.000116	-0.000293	-0.004529	0.000533	7029.767754	45176.338669	3977.505938	24019.158029
23.040000	0.000926	0.000099	0.000060	0.000780	7037.309460	45190.352124	3988.470937	24007.124153
23.534500	-0.000390	-0.000416	-0.003034	0.000745	7025.159724	45143.695343	3980.733933	24008.821571
24.035000	0.000412	0.000217	-0.002209	0.000792	7032.316242	45200.706410	3982.695425	24006.546817
24.535500	-0.000530	-0.000472	-0.003886	0.000560	7025.593925	45156.316729	3979.055849	24017.850184
25.036000	-0.000634	0.000538	0.000377	0.000866	7021.701231	45224.740823	3989.056670	24002.938677
25.536000	0.002037	-0.000065	-0.003028	0.000936	7046.394538	45159.282950	3980.267440	23999.567602
26.036000	-0.000392	-0.000279	0.003211	0.001040	7022.356091	45128.431178	3995.835883	23994.516102
26.536500	-0.000954	-0.000856	-0.004336	0.000152	7025.434731	45158.577787	3978.948934	24037.671512
27.037000	0.001883	0.000620	0.000612	-0.000897	7062.402036	45404.841854	3994.146300	24088.799853
27.543000	0.000613	0.000339	0.003267	-0.001238	7053.535937	45410.674813	4001.817410	24105.446232
28.037500	-0.001428	-0.000951	-0.002185	-0.001554	7037.126204	45315.568545	3988.698297	24120.892517
28.534500	0.000388	0.000351	0.001934	-0.000582	7045.139563	45347.669050	3996.717262	24073.416714
29.035000	0.001201	0.000054	-0.000829	-0.000460	7051.721510	45306.897615	3989.364642	24067.496785
29.535500	0.000335	0.000743	-0.003164	-0.000223	7041.225030	45351.008130	3982.849523	24055.957109
30.035500	-0.004355	-0.000720	-0.007072	0.003960	6957.744609	44803.153273	3962.603840	23853.189727
30.536000	-0.001528	-0.000002	-0.002383	0.001876	7003.734836	45074.177883	3979.524597	23953.961095
31.036500	-0.001382	-0.000278	-0.002688	0.001417	7009.435336	45091.886615	3979.913714	23976.211105
31.537000	-0.001647	0.000038	-0.002134	0.000835	7012.423361	45179.111180	3982.777466	24004.448782
32.040000	-0.005203	0.000086	-0.003085	0.004334	6946.376119	44844.782362	3971.598190	23835.149503
32.536500	-0.000981	0.000477	-0.001672	-0.000140	7027.946114	45316.896838	3986.412911	24051.894142
33.037500	-0.001406	0.000775	0.002612	0.000064	7021.990764	45326.038682	3996.798856	24041.968589
33.535000	0.000642	0.000017	-0.001199	0.000919	7033.297642	45168.964556	3984.927982	24000.386151
34.035500	-0.001028	0.000096	-0.004653	0.003379	6994.299699	44938.080670	3970.066388	23881.234287
34.535500	0.000325	0.000467	0.002516	0.001709	7022.805708	45135.866521	3992.356498	23962.055579
35.035000	-0.000847	-0.000500	-0.004149	0.000470	7023.439025	45162.219451	3978.618654	24022.186877
35.536000	-0.001459	-0.000271	0.001039	0.000936	7013.253374	45139.327642	3990.562771	23999.566724
36.036500	-0.002525	-0.000221	-0.003670	0.002688	6986.729682	44974.261527	3974.253758	23914.632330
36.539500	-0.000433	-0.000368	0.000221	0.000555	7026.559416	45166.888106	3989.453069	24018.089654
37.037500	0.000453	0.000607	-0.004179	0.001470	7026.283618	45172.682154	3976.032284	23973.643753
37.535000	-0.001182	-0.000241	-0.001127	0.000842	7016.753814	45151.377259	3985.305979	24004.131523
38.037500	-0.002263	-0.000774	-0.003483	0.001865	6996.923189	45000.384933	3976.787814	23954.493193
38.535000	-0.001969	0.000145	0.000737	0.001316	7004.848799	45142.740808	3988.830447	23981.090872
39.035500	-0.000764	0.000198	0.002187	0.001538	7014.126174	45126.405046	3991.954832	23970.353653
39.536000	-0.001371	-0.000350	0.000902	0.001059	7012.910677	45119.639031	3989.900713	23993.563354
40.036000	-0.002223	-0.000638	0.000580	0.001592	6999.871342	45039.958044	3987.732535	23967.728576
40.536500	-0.001604	-0.000158	-0.003356	0.001214	7009.257515	45123.204742	3978.740596	23986.040608
41.039000	-0.001516	0.000037	-0.006163	0.001560	7006.826570	45108.513773	3970.836274	23969.256705
41.536500	-0.000763	0.000143	-0.003187	0.001418	7015.264891	45132.677973	3978.653735	23976.150103
42.037000	-0.000878	-0.000183	0.001438	0.001037	7017.782498	45138.044632	3991.322140	23994.649868
42.537500	0.000856	-0.000539	0.000951	0.000987	7034.681128	45108.323343	3990.210182	23997.085166
43.035000	-0.001946	0.000354	0.000052	0.001645	7001.972782	45131.131600	3986.258658	23965.135568
43.535000	-0.000522	-0.000148	-0.003711	0.001255	7019.084658	45120.167403	3977.744866	23984.050715
44.035500	0.000811	-0.000175	-0.001224	-0.001926	7061.987203	45427.691988	3992.089323	24139.060222
44.536000	0.001728	-0.000529	0.001249	-0.000976	7061.668074	45300.243532	3995.972543	24092.632851
45.036000	0.000781	0.000173	0.002707	-0.000247	7045.696248	45297.655867	3997.838309	24057.120894
45.542000	0.000681	-0.000698	-0.001561	-0.000069	7043.042866	45195.459925	3986.512458	24048.422991
46.036500	-0.004039	-0.000048	-0.000598	0.005346	6947.778430	44734.330720	3975.288770	23786.395031
46.537000	0.000118	0.000369	-0.001637	0.000169	7035.442611	45276.223346	3985.719505	24036.868629
47.037000	-0.000095	-0.000067	0.000765	0.000036	7034.679942	45246.692781	3992.156113	24043.310130
47.535000	-0.002186	-0.000567	-0.004585	0.002183	6994.657713	44989.674120	3973.227525	23939.088455
48.035000	-0.000700	-0.000452	-0.002878	0.003353	6997.630421	44887.605619	3974.571558	23882.476739
48.535500	-0.000818	-0.000405	-0.000056	-0.000208	7030.144098	45237.569578	3990.687795	24055.222599
49.035500	-0.000225	0.000148	-0.001643	-0.000369	7037.293501	45307.157553	3987.066414	24063.061277
49.536000	-0.000694	-0.001131	-0.002080	0.001301	7017.026549	45020.441681	3981.738236	23981.849900
50.038500	-0.001499	-0.000277	-0.001444	0.002719	6996.080676	44965.839439	3979.767432	23913.134522
50.537000	0.000599	-0.000278	0.000163	-0.001993	7060.598381	45424.183369	3995.798168	24142.318588
51.039500	0.001122	-0.000190	-0.002334	-0.000747	7053.711386	45311.052930	3986.274357	24081.494235
51.537000	0.001812	0.000336	-0.005366	0.000504	7048.363465	45240.426721	3975.476159	24020.574192
52.038000	0.001212	-0.000057	0.000847	-0.005507	7100.207210	45791.189936	4006.577964	24314.879419
52.535000	-0.011703	-0.004148	-0.011818	0.064861	6369.540446	39039.175445	3811.570914	21111.951741
53.035500	-0.035069	-0.020844	-0.015723	-0.080054	7485.890377	51438.342633	4166.614415	28324.680530
53.535500	-0.039631	-0.056955	-0.012604	-0.213079	9059.868456	63564.474333	4638.113406	37435.846832
54.035500	-0.027544	-0.060765	-0.000167	-0.220562	9343.189366	64079.455388	4720.348266	38036.004685
54.538500	-0.026303	-0.044275	-0.004767	-0.192900	8963.652611	62526.543927	4589.020355	35867.927676
55.036500	-0.035895	-0.036502	-0.014919	-0.173836	8577.306086	60997.235114	4478.222566	34452.198479
55.537000	-0.032601	-0.031789	-0.021743	-0.169790	8567.495889	61086.480188	4438.864901	34159.597536
56.036500	-0.021485	-0.034314	-0.025115	-0.183477	8899.822226	62600.342883	4476.189999	35160.372474
56.537000	-0.012138	-0.036826	-0.020020	-0.190398	9128.351337	63209.236130	4520.801549	35678.619999
57.034500	-0.008686	-0.027767	-0.016836	-0.173727	8942.015068	62161.978503	4470.815016	34444.282073
57.537500	-0.011348	-0.028379	-0.017862	-0.173927	8907.934452	62105.855486	4467.804380	34458.836162
58.035000	-0.010045	-0.019589	-0.021770	-0.150647	8612.108362	60164.221048	4371.813429	32811.761641
58.535500	-0.009906	-0.017944	-0.014273	-0.145774	8550.322351	59740.526159	4380.816041	32478.056299
59.039000	-0.015228	-0.016843	-0.017198	-0.131635	8303.285724	58060.495156	4323.223157	31530.664429
59.536000	-0.012781	-0.013470	-0.020902	-0.120143	8192.189288	57039.444706	4273.803888	30783.058280
60.036500	-0.015568	-0.013527	-0.019950	-0.114535	8091.113182	56338.357650	4259.002610	30425.342315
60.537000	-0.015006	-0.013114	-0.017758	-0.115046	8103.925288	56452.087343	4267.578545	30457.773472
61.037000	-0.011536	-0.004363	-0.025219	-0.068201	7610.535599	51957.971653	4105.186700	27640.226072
61.537000	-0.019693	-0.009455	-0.024624	-0.070635	7549.042185	51658.880179	4113.717999	27779.240147
62.035000	-0.016922	-0.003259	-0.029370	-0.036153	7222.584189	48586.608169	4007.682709	25880.422112
62.535500	-0.015348	-0.005345	-0.025691	-0.057111	7452.089512	50614.049248	4073.156022	27016.507294
63.035500	-0.014961	-0.004650	-0.021249	-0.065073	7540.191748	51574.038383	4107.551561	27462.675889
63.538500	-0.013248	-0.004897	-0.024134	-0.063611	7542.863065	51383.083093	4095.386848	27380.150649
64.042000	-0.016241	-0.005440	-0.024900	-0.059154	7464.121211	50828.464198	4080.929158	27130.236949
64.536000	-0.015377	-0.005366	-0.023832	-0.060781	7490.301465	51016.394601	4088.367366	27221.166503
65.036500	-0.018570	-0.005516	-0.022254	-0.059216	7440.422249	50826.852327	4088.399590	27133.645289
65.537000	-0.016568	-0.005749	-0.021879	-0.056846	7436.590623	50540.689547	4082.890719	27001.786407
66.037000	-0.018644	-0.005195	-0.025264	-0.049631	7340.840601	49816.123057	4054.030336	26604.730000
66.534500	-0.017364	-0.005327	-0.021571	-0.051700	7375.116331	50025.697890	4069.632002	26717.916995
67.035000	-0.016140	-0.004871	-0.019919	-0.049031	7360.299626	49786.359873	4066.862995	26572.028838
67.535000	-0.015803	-0.004419	-0.022040	-0.047075	7343.751500	49624.477106	4055.830002	26465.669877
68.038000	-0.018218	-0.004655	-0.020251	-0.043055	7278.589262	49169.108039	4049.835392	26248.565170
68.536000	-0.016005	-0.003773	-0.022105	-0.043250	7302.853654	49283.820942	4045.395893	26259.003537
69.036000	-0.014299	-0.003786	-0.025643	-0.041620	7303.622400	49108.890370	4031.684419	26171.530157
69.536000	-0.013707	-0.003719	-0.022080	-0.040527	7298.558824	48999.907446	4038.218318	26113.033113
70.037000	-0.014860	-0.002999	-0.022500	-0.036567	7247.228531	48657.524731	4026.653832	25902.345445
70.537000	-0.012582	-0.003221	-0.018957	-0.039125	7295.762997	48904.123939	4042.792465	26038.212511
71.035000	-0.014257	-0.003377	-0.019525	-0.038926	7276.901963	48866.597009	4040.751566	26027.650483
71.535000	-0.012907	-0.002415	-0.021972	-0.037356	7274.681103	48802.362545	4030.119705	25944.182576
72.035500	-0.016298	-0.003092	-0.025158	-0.034317	7210.584506	48411.533950	4013.837871	25783.526094
72.538500	-0.013167	-0.001953	-0.019937	-0.036502	7263.514101	48761.033952	4033.237703	25898.944408
73.036000	-0.013868	-0.002308	-0.025187	-0.036804	7259.516018	48755.409498	4020.239465	25914.926489
73.536000	-0.013575	-0.002407	-0.021721	-0.035579	7250.194027	48615.925470	4026.108225	25850.097619
74.036000	-0.016147	-0.003490	-0.022218	-0.034790	7216.760810	48419.464799	4022.736718	25808.455806
74.536500	-0.014177	-0.003214	-0.021766	-0.036306	7251.445197	48607.505432	4027.898715	25888.544634
75.037000	-0.016470	-0.003341	-0.022209	-0.035906	7224.626091	48552.069689	4025.684473	25867.372567
75.537500	-0.016758	-0.003982	-0.025583	-0.034874	7211.545994	48376.675124	4014.181682	25812.881210
76.037500	-0.015520	-0.002959	-0.023821	-0.032218	7197.533856	48206.186338	4011.861059	25673.209152
76.535000	-0.014225	-0.003126	-0.020497	-0.034442	7232.386924	48421.064091	4026.334311	25790.093954
77.038000	-0.015363	-0.004022	-0.025670	-0.034891	7225.541531	48374.339194	4013.999715	25813.780045
77.536000	-0.017558	-0.003538	-0.019884	-0.033458	7189.668772	48275.180572	4025.363505	25738.322700
78.036000	-0.017378	-0.003903	-0.023978	-0.032518	7182.189666	48139.040513	4012.231018	25688.928446
78.536000	-0.016465	-0.003756	-0.023021	-0.033723	7203.059203	48280.046671	4017.852811	25752.256291
79.036500	-0.015017	-0.003372	-0.023362	-0.032764	7207.890757	48220.021869	4014.468911	25701.832614
79.536500	-0.014984	-0.003092	-0.017862	-0.031121	7191.996997	48078.067565	4024.534645	25615.731206
80.037000	-0.015516	-0.001986	-0.020127	-0.029353	7169.398213	48009.382526	4014.012849	25523.472178
80.540000	-0.016337	-0.003065	-0.024617	-0.031486	7182.281714	48118.925628	4007.908038	25634.868141
81.034500	-0.014824	-0.003034	-0.019466	-0.031041	7192.779478	48075.801454	4020.129177	25611.542392
81.537000	-0.015819	-0.003407	-0.019831	-0.030545	7178.120485	47985.573755	4017.882935	25585.625914
82.035500	-0.014963	-0.002684	-0.023705	-0.027863	7160.218172	47782.783413	4000.924308	25445.978075
82.535500	-0.014363	-0.002996	-0.020977	-0.029689	7184.012690	47939.460765	4012.676475	25540.972215
83.036000	-0.015566	-0.002853	-0.024629	-0.029156	7166.983523	47899.100093	4001.872408	25513.215495
83.536000	-0.014758	-0.002237	-0.024074	-0.028132	7164.861826	47856.898813	4000.669389	25459.972997
84.037000	-0.013022	-0.002399	-0.021801	-0.027404	7174.739415	47764.805091	4004.639246	25422.156713
84.537000	-0.014416	-0.001989	-0.028020	-0.027033	7157.457771	47768.920966	3987.793025	25402.938353
85.037000	-0.014797	-0.001584	-0.028916	-0.026018	7143.836256	47705.965099	3982.956661	25350.430810
85.537500	-0.015629	-0.001381	-0.024253	-0.025873	7134.331157	47712.023590	3994.430379	25342.950269
86.037500	-0.014007	-0.001186	-0.021599	-0.024035	7132.230359	47542.885309	3996.512677	25248.134055
86.535500	-0.012532	-0.001764	-0.022318	-0.024778	7153.834600	47559.910706	3996.575335	25286.436832
87.035500	-0.014447	-0.002011	-0.021596	-0.024442	7131.913108	47500.057566	3997.563337	25269.133220
87.536000	-0.014325	-0.001443	-0.019781	-0.023388	7122.864592	47450.154430	3999.511970	25214.892010
88.036000	-0.016526	-0.002447	-0.025208	-0.022979	7097.642862	47305.592521	3984.648723	25193.904698
88.536500	-0.014866	-0.001406	-0.021076	-0.022932	7113.212107	47407.264010	3995.031363	25191.487540
89.037000	-0.015007	-0.002170	-0.024772	-0.023197	7114.410756	47356.201753	3986.303741	25205.092707
89.537000	-0.016613	-0.002827	-0.021900	-0.022369	7090.937394	47204.582268	3991.496223	25162.624303
90.037500	-0.016641	-0.001949	-0.022684	-0.020814	7075.737328	47135.547238	3985.557593	25083.054185
90.537500	-0.014700	-0.000961	-0.023674	-0.021328	7099.326553	47288.690593	3984.353593	25109.314846
91.035000	-0.013684	-0.001619	-0.024856	-0.021222	7108.110685	47210.758222	3981.099829	25103.895068
91.535500	-0.015167	-0.001118	-0.023966	-0.020424	7086.134645	47180.553018	3981.331991	25063.154617
92.036000	-0.018443	-0.001373	-0.018822	-0.019492	7045.899169	47059.711605	3992.006457	25015.635646
92.536000	-0.014840	-0.001772	-0.020463	-0.020201	7087.139910	47091.251986	3989.636775	25051.779205
93.036000	-0.015181	-0.001499	-0.024634	-0.020025	7082.171000	47101.100073	3978.644267	25042.778782
93.536500	-0.016094	-0.001771	-0.026295	-0.019026	7063.854941	46972.053718	3971.972503	24991.904920
94.034000	-0.016982	-0.002031	-0.023747	-0.018902	7054.195243	46933.097639	3978.051253	24985.627695
94.537500	-0.015688	-0.001742	-0.017409	-0.018757	7065.158040	46947.614638	3993.732997	24978.217366
95.037000	-0.014381	-0.001236	-0.020100	-0.018388	7074.143214	46961.611595	3985.957607	24959.483417
95.535000	-0.015368	-0.001659	-0.025594	-0.017602	7057.188456	46839.139304	3970.165798	24919.595662
96.035000	-0.011789	-0.001124	-0.022901	-0.016924	7084.957835	46824.706699	3975.208313	24885.244579
96.535500	-0.013702	-0.002068	-0.017514	-0.018203	7078.870862	46858.611081	3992.054534	24950.070982
