sample name	sample
index	1112
start time	 04-22-2021  01:10:55 PM


Wavelength (nm)	Absorbance
494.344910	0.853208
494.563924	0.853208
494.782919	0.853208
495.001897	NaN
495.220856	0.072061
495.439797	0.074826
495.658719	-0.030219
495.877624	-0.137157
496.096510	-0.141210
496.315378	-0.186203
496.534227	-0.248552
496.753059	-0.240838
496.971872	-0.190683
497.190667	0.012864
497.409444	0.025634
497.628203	0.027029
497.846943	0.031409
498.065665	0.034534
498.284369	0.035620
498.503055	0.036535
498.721723	0.036467
498.940372	0.036666
499.159003	0.037187
499.377616	0.036702
499.596210	0.038344
499.814787	0.038326
500.033345	0.039148
500.251885	0.040210
500.470406	0.041142
500.688910	0.041340
500.907395	0.041712
501.125862	0.041026
501.344311	0.042060
501.562742	0.042388
501.781154	0.042521
501.999548	0.040831
502.217924	0.039140
502.436282	0.037250
502.654621	0.036404
502.872942	0.036132
503.091245	0.037443
503.309530	0.036003
503.527797	0.035488
503.746045	0.035417
503.964275	0.036289
504.182487	0.037303
504.400681	0.037656
504.618856	0.039101
504.837013	0.039829
505.055152	0.038287
505.273273	0.039273
505.491376	0.038855
505.709460	0.039471
505.927526	0.039584
506.145574	0.038879
506.363604	0.039339
506.581615	0.038797
506.799608	0.038281
507.017583	0.038591
507.235540	0.037935
507.453478	0.038447
507.671399	0.037895
507.889301	0.037497
508.107185	0.039128
508.325050	0.040517
508.542898	0.040955
508.760727	0.041439
508.978538	0.042602
509.196330	0.043408
509.414105	0.043164
509.631861	0.042934
509.849599	0.042855
510.067319	0.041493
510.285021	0.040124
510.502704	0.040986
510.720369	0.040506
510.938016	0.040102
511.155645	0.039943
511.373255	0.039978
511.590848	0.040537
511.808422	0.040426
512.025977	0.041356
512.243515	0.041814
512.461034	0.041126
512.678536	0.041290
512.896018	0.041283
513.113483	0.041180
513.330930	0.040914
513.548358	0.040309
513.765768	0.040954
513.983160	0.040362
514.200533	0.040951
514.417889	0.040858
514.635226	0.041789
514.852545	0.042105
515.069845	0.042659
515.287128	0.042637
515.504392	0.043164
515.721638	0.043558
515.938866	0.044013
516.156075	0.043908
516.373267	0.044318
516.590440	0.043852
516.807594	0.043381
517.024731	0.043710
517.241850	0.044926
517.458950	0.045127
517.676032	0.044774
517.893095	0.044495
518.110141	0.044394
518.327168	0.043849
518.544177	0.043736
518.761168	0.044456
518.978141	0.044721
519.195095	0.044579
519.412031	0.044913
519.628949	0.045310
519.845849	0.045959
520.062731	0.046658
520.279594	0.047412
520.496439	0.047575
520.713266	0.047156
520.930074	0.047304
521.146865	0.046904
521.363637	0.046568
521.580391	0.046612
521.797127	0.045775
522.013844	0.045394
522.230543	0.045720
522.447224	0.045689
522.663887	0.046285
522.880532	0.046076
523.097158	0.047066
523.313766	0.047176
523.530356	0.047500
523.746928	0.047887
523.963481	0.048120
524.180017	0.048057
524.396534	0.048801
524.613032	0.048873
524.829513	0.049032
525.045975	0.048658
525.262420	0.049292
525.478845	0.049498
525.695253	0.050243
525.911643	0.050369
526.128014	0.050417
526.344367	0.050349
526.560702	0.050424
526.777018	0.051234
526.993316	0.051862
527.209597	0.052051
527.425858	0.051990
527.642102	0.052094
527.858328	0.052238
528.074535	0.051910
528.290724	0.052106
528.506894	0.051987
528.723047	0.051703
528.939181	0.051838
529.155297	0.051855
529.371395	0.052095
529.587475	0.051786
529.803536	0.051996
530.019579	0.052782
530.235604	0.052807
530.451611	0.053257
530.667600	0.053012
530.883570	0.052847
531.099522	0.052926
531.315456	0.052699
531.531372	0.053079
531.747269	0.052995
531.963148	0.052861
532.179009	0.053513
532.394852	0.053413
532.610676	0.053979
532.826482	0.054769
533.042271	0.055334
533.258040	0.056526
533.473792	0.056462
533.689525	0.056785
533.905240	0.057210
534.120937	0.056806
534.336616	0.057149
534.552277	0.056698
534.767919	0.056314
534.983543	0.056100
535.199149	0.055675
535.414736	0.056271
535.630306	0.056693
535.845857	0.057078
536.061390	0.057098
536.276904	0.057787
536.492401	0.058226
536.707879	0.058217
536.923339	0.058567
537.138781	0.058289
537.354204	0.058773
537.569610	0.058625
537.784997	0.058226
538.000366	0.058683
538.215716	0.058250
538.431049	0.058694
538.646363	0.058627
538.861659	0.058513
539.076937	0.058765
539.292196	0.058010
539.507438	0.058232
539.722661	0.058578
539.937866	0.059139
540.153052	0.059317
540.368221	0.059583
540.583371	0.059605
540.798503	0.059816
541.013617	0.059609
541.228712	0.060095
541.443789	0.060054
541.658848	0.060444
541.873889	0.059725
542.088912	0.059744
542.303916	0.059791
542.518902	0.060077
542.733870	0.060121
542.948820	0.060994
543.163752	0.061464
543.378665	0.061632
543.593560	0.061694
543.808437	0.061868
544.023295	0.062084
544.238136	0.061901
544.452958	0.062085
544.667762	0.062125
544.882548	0.061770
545.097315	0.061621
545.312064	0.061910
545.526795	0.061913
545.741508	0.062628
545.956203	0.062583
546.170879	0.062593
546.385537	0.062925
546.600177	0.063070
546.814799	0.063384
547.029402	0.063501
547.243988	0.063580
547.458555	0.063984
547.673103	0.064340
547.887634	0.064382
548.102146	0.064956
548.316640	0.065243
548.531116	0.065431
548.745574	0.065327
548.960013	0.065577
549.174435	0.065756
549.388838	0.065256
549.603222	0.065130
549.817589	0.065639
550.031937	0.065377
550.246267	0.065188
550.460579	0.065011
550.674873	0.065025
550.889148	0.064943
551.103405	0.064772
551.317644	0.065411
551.531865	0.065287
551.746068	0.065329
551.960252	0.065588
552.174418	0.065827
552.388566	0.066107
552.602696	0.066440
552.816807	0.066588
553.030900	0.066714
553.244975	0.066691
553.459032	0.066529
553.673070	0.066414
553.887091	0.066355
554.101093	0.066238
554.315077	0.066511
554.529042	0.066661
554.742990	0.066841
554.956919	0.067188
555.170830	0.066705
555.384722	0.066805
555.598597	0.066898
555.812453	0.066610
556.026291	0.066682
556.240111	0.066422
556.453913	0.066515
556.667696	0.066288
556.881461	0.065863
557.095208	0.065982
557.308937	0.066410
557.522647	0.066415
557.736339	0.066480
557.950013	0.066258
558.163669	0.066010
558.377307	0.066128
558.590926	0.066055
558.804527	0.066360
559.018110	0.066564
559.231675	0.066425
559.445221	0.066329
559.658749	0.066614
559.872259	0.067284
560.085751	0.067492
560.299225	0.067551
560.512680	0.067626
560.726117	0.067503
560.939536	0.067105
561.152937	0.066879
561.366319	0.066982
561.579683	0.067029
561.793029	0.066484
562.006357	0.066602
562.219667	0.066152
562.432958	0.066211
562.646231	0.066310
562.859486	0.066680
563.072723	0.066671
563.285941	0.066646
563.499141	0.066419
563.712323	0.066372
563.925487	0.066576
564.138632	0.066926
564.351760	0.066980
564.564869	0.066873
564.777960	0.067101
564.991032	0.067186
565.204087	0.067441
565.417123	0.067659
565.630141	0.067620
565.843140	0.067481
566.056122	0.067463
566.269085	0.067774
566.482030	0.068289
566.694957	0.068236
566.907866	0.068464
567.120756	0.068436
567.333628	0.068656
567.546482	0.068970
567.759318	0.069070
567.972135	0.069339
568.184935	0.069455
568.397716	0.069050
568.610478	0.069081
568.823223	0.068935
569.035949	0.069095
569.248657	0.069147
569.461347	0.069644
569.674019	0.069483
569.886672	0.069281
570.099308	0.068665
570.311925	0.068045
570.524523	0.068174
570.737104	0.068478
570.949666	0.068513
571.162210	0.068479
571.374736	0.068227
571.587244	0.068362
571.799733	0.068282
572.012205	0.068267
572.224658	0.068872
572.437092	0.068615
572.649509	0.068484
572.861907	0.068204
573.074287	0.068228
573.286649	0.067928
573.498993	0.067968
573.711318	0.067714
573.923625	0.068418
574.135914	0.068458
574.348185	0.068731
574.560438	0.068976
574.772672	0.069284
574.984888	0.069193
575.197086	0.069588
575.409266	0.069568
575.621427	0.069706
575.833570	0.069121
576.045695	0.069213
576.257802	0.069057
576.469890	0.068632
576.681961	0.068424
576.894013	0.068557
577.106046	0.068231
577.318062	0.068256
577.530059	0.068414
577.742039	0.068723
577.954000	0.068806
578.165942	0.068771
578.377867	0.068895
578.589773	0.068913
578.801661	0.069092
579.013531	0.069120
579.225382	0.069337
579.437216	0.069511
579.649031	0.069698
579.860828	0.069501
580.072606	0.069761
580.284367	0.069944
580.496109	0.070409
580.707833	0.070216
580.919539	0.070208
581.131227	0.070162
581.342896	0.070167
581.554547	0.070054
581.766180	0.070732
581.977795	0.070936
582.189391	0.071059
582.400969	0.070692
582.612529	0.070859
582.824071	0.071273
583.035595	0.071482
583.247100	0.071522
583.458587	0.071654
583.670056	0.071505
583.881506	0.071361
584.092939	0.071265
584.304353	0.071404
584.515749	0.071518
584.727127	0.071231
584.938486	0.071200
585.149828	0.071060
585.361151	0.071411
585.572456	0.071505
585.783742	0.071853
585.995011	0.071756
586.206261	0.071512
586.417493	0.071416
586.628706	0.071772
586.839902	0.072148
587.051079	0.072504
587.262238	0.072435
587.473379	0.072421
587.684502	0.072524
587.895606	0.073020
588.106692	0.073719
588.317760	0.073960
588.528810	0.074116
588.739841	0.074048
588.950855	0.074064
589.161850	0.074230
589.372827	0.074431
589.583785	0.074326
589.794726	0.074413
590.005648	0.074263
590.216552	0.074201
590.427437	0.074033
590.638305	0.074055
590.849154	0.074109
591.059985	0.074079
591.270798	0.073894
591.481592	0.074030
591.692369	0.073722
591.903127	0.073713
592.113867	0.073692
592.324588	0.073815
592.535292	0.073884
592.745977	0.073932
592.956644	0.074022
593.167293	0.074136
593.377923	0.074130
593.588536	0.074626
593.799130	0.074973
594.009706	0.075183
594.220263	0.075353
594.430803	0.074913
594.641324	0.074914
594.851827	0.075163
595.062312	0.075055
595.272778	0.074934
595.483227	0.074406
595.693657	0.074026
595.904069	0.074033
596.114462	0.073651
596.324838	0.074227
596.535195	0.074424
596.745534	0.074311
596.955855	0.074683
597.166157	0.074843
597.376441	0.075166
597.586707	0.075541
597.796955	0.075755
598.007185	0.076028
598.217396	0.075847
598.427589	0.075831
598.637764	0.075641
598.847921	0.075146
599.058060	0.075234
599.268180	0.075420
599.478282	0.075279
599.688366	0.075072
599.898431	0.075331
600.108479	0.075407
600.318508	0.075586
600.528519	0.075886
600.738511	0.076376
600.948486	0.076535
601.158442	0.076632
601.368380	0.076896
601.578300	0.077333
601.788202	0.077504
601.998085	0.077945
602.207950	0.077820
602.417797	0.077741
602.627626	0.077677
602.837436	0.077711
603.047228	0.077456
603.257002	0.077231
603.466758	0.077044
603.676496	0.076819
603.886215	0.076580
604.095916	0.076815
604.305599	0.077134
604.515264	0.077529
604.724910	0.077420
604.934538	0.077809
605.144148	0.078061
605.353740	0.078188
605.563314	0.078446
605.772869	0.078497
605.982406	0.078709
606.191925	0.078717
606.401425	0.078909
606.610908	0.078938
606.820372	0.078873
607.029818	0.078788
607.239246	0.078946
607.448655	0.079002
607.658047	0.079170
607.867420	0.079173
608.076775	0.079079
608.286111	0.078873
608.495430	0.079316
608.704730	0.079454
608.914012	0.079621
609.123275	0.079286
609.332521	0.079597
609.541748	0.079457
609.750957	0.079305
609.960148	0.079484
610.169321	0.079595
610.378475	0.079589
610.587611	0.079678
610.796729	0.079858
611.005829	0.080507
611.214910	0.080240
611.423974	0.080409
611.633019	0.080537
611.842045	0.080718
612.051054	0.080753
612.260044	0.080684
612.469017	0.080845
612.677970	0.081020
612.886906	0.080565
613.095824	0.080811
613.304723	0.080983
613.513604	0.080997
613.722467	0.080909
613.931311	0.080915
614.140138	0.080946
614.348946	0.080881
614.557736	0.080712
614.766507	0.080856
614.975261	0.080945
615.183996	0.080930
615.392713	0.081089
615.601412	0.081040
615.810092	0.081063
616.018754	0.080883
616.227399	0.081060
616.436024	0.081360
616.644632	0.081324
616.853222	0.081277
617.061793	0.081396
617.270346	0.081523
617.478880	0.081496
617.687397	0.081659
617.895895	0.082103
618.104375	0.081883
618.312837	0.081974
618.521281	0.082300
618.729706	0.082256
618.938113	0.082374
619.146502	0.082422
619.354873	0.082546
619.563226	0.082368
619.771560	0.082065
619.979876	0.082201
620.188174	0.082069
620.396453	0.082061
620.604715	0.082344
620.812958	0.082140
621.021183	0.082120
621.229390	0.082466
621.437578	0.082505
621.645748	0.082891
621.853900	0.083014
622.062034	0.082979
622.270150	0.083126
622.478247	0.083032
622.686326	0.083379
622.894387	0.083402
623.102430	0.083162
623.310454	0.083482
623.518461	0.083605
623.726449	0.083665
623.934418	0.083906
624.142370	0.083865
624.350303	0.083943
624.558218	0.084060
624.766115	0.084266
624.973994	0.084525
625.181855	0.084556
625.389697	0.084544
625.597521	0.084497
625.805327	0.084528
626.013114	0.084640
626.220883	0.084819
626.428634	0.084741
626.636367	0.084528
626.844082	0.084574
627.051778	0.084809
627.259457	0.084737
627.467117	0.084924
627.674758	0.085081
627.882382	0.085246
628.089987	0.085309
628.297574	0.085671
628.505143	0.086040
628.712694	0.086463
628.920226	0.086402
629.127740	0.086838
629.335236	0.086958
629.542714	0.086817
629.750174	0.087063
629.957615	0.087068
630.165038	0.086876
630.372443	0.087029
630.579829	0.086702
630.787198	0.086826
630.994548	0.086606
631.201880	0.086602
631.409194	0.086659
631.616489	0.086528
631.823766	0.086716
632.031025	0.086801
632.238266	0.086918
632.445489	0.087074
632.652693	0.087099
632.859879	0.087293
633.067047	0.087541
633.274197	0.087680
633.481329	0.087870
633.688442	0.087799
633.895537	0.087965
634.102614	0.087995
634.309672	0.087812
634.516713	0.087795
634.723735	0.087849
634.930739	0.087837
635.137724	0.087705
635.344692	0.087712
635.551641	0.087855
635.758572	0.087861
635.965485	0.087708
636.172379	0.088122
636.379256	0.088162
636.586114	0.088047
636.792954	0.088255
636.999775	0.088570
637.206579	0.088479
637.413364	0.088358
637.620131	0.088301
637.826880	0.088268
638.033610	0.088011
638.240323	0.088252
638.447017	0.088675
638.653692	0.088528
638.860350	0.088467
639.066990	0.088527
639.273611	0.088916
639.480214	0.089043
639.686798	0.089177
639.893365	0.089589
640.099913	0.089547
640.306443	0.089325
640.512955	0.089577
640.719449	0.089909
640.925924	0.090192
641.132381	0.090013
641.338820	0.090121
641.545241	0.090558
641.751644	0.090544
641.958028	0.090622
642.164394	0.090769
642.370742	0.090724
642.577071	0.090690
642.783383	0.090789
642.989676	0.090997
643.195951	0.091216
643.402207	0.091152
643.608446	0.090952
643.814666	0.091081
644.020868	0.091272
644.227052	0.091441
644.433218	0.091805
644.639365	0.091852
644.845494	0.092064
645.051605	0.092023
645.257698	0.091803
645.463772	0.092138
645.669828	0.092183
645.875866	0.092235
646.081886	0.092163
646.287888	0.092022
646.493871	0.092062
646.699836	0.091900
646.905783	0.091929
647.111712	0.092281
647.317622	0.092430
647.523514	0.092655
647.729388	0.092866
647.935244	0.093169
648.141082	0.093228
648.346901	0.093429
648.552702	0.093804
648.758485	0.094003
648.964250	0.094000
649.169996	0.093973
649.375724	0.093973
649.581434	0.094024
649.787126	0.093938
649.992800	0.093868
650.198455	0.093812
650.404092	0.093893
650.609711	0.093828
650.815311	0.093808
651.020894	0.093965
651.226458	0.094130
651.432004	0.094211
651.637532	0.094385
651.843041	0.094849
652.048532	0.095152
652.254006	0.095071
652.459460	0.095427
652.664897	0.095708
652.870315	0.095947
653.075716	0.095980
653.281097	0.095878
653.486461	0.095991
653.691807	0.095955
653.897134	0.095988
654.102443	0.096284
654.307734	0.096426
654.513006	0.096554
654.718261	0.096597
654.923497	0.096718
655.128715	0.096884
655.333915	0.097074
655.539096	0.097252
655.744259	0.097463
655.949404	0.097534
656.154531	0.097541
656.359640	0.097583
656.564730	0.097626
656.769802	0.097889
656.974856	0.098065
657.179892	0.098015
657.384909	0.098075
657.589908	0.098056
657.794889	0.098128
657.999852	0.098254
658.204797	0.098510
658.409723	0.098518
658.614631	0.098402
658.819521	0.098591
659.024393	0.098917
659.229246	0.099067
659.434081	0.099095
659.638898	0.099222
659.843697	0.099268
660.048478	0.099237
660.253240	0.099500
660.457984	0.099767
660.662710	0.099818
660.867417	0.100062
661.072107	0.100136
661.276778	0.100357
661.481431	0.100549
661.686066	0.100727
661.890682	0.100791
662.095281	0.100886
662.299861	0.100758
662.504422	0.100796
662.708966	0.100625
662.913491	0.100654
663.117999	0.100756
663.322488	0.100632
663.526958	0.100579
663.731411	0.100687
663.935845	0.100634
664.140261	0.100860
664.344659	0.101133
664.549038	0.101196
664.753400	0.101374
664.957743	0.101398
665.162068	0.101466
665.366375	0.101666
665.570663	0.101714
665.774933	0.101808
665.979185	0.101692
666.183419	0.101507
666.387635	0.101703
666.591832	0.101589
666.796011	0.101643
667.000172	0.101834
667.204315	0.101830
667.408439	0.102137
667.612545	0.102294
667.816634	0.102625
668.020703	0.102782
668.224755	0.102762
668.428788	0.102780
668.632803	0.102975
668.836800	0.102927
669.040779	0.103154
669.244739	0.103076
669.448681	0.103259
669.652605	0.103320
669.856511	0.103405
670.060399	0.103556
670.264268	0.103650
670.468119	0.103597
670.671952	0.103832
670.875767	0.103732
671.079563	0.103901
671.283341	0.104082
671.487101	0.104166
671.690843	0.104253
671.894567	0.104395
672.098272	0.104658
672.301959	0.104908
672.505628	0.104970
672.709278	0.105215
672.912911	0.105315
673.116525	0.105346
673.320121	0.105512
673.523699	0.105638
673.727258	0.105717
673.930799	0.105857
674.134322	0.105849
674.337827	0.105728
674.541314	0.105867
674.744782	0.106000
674.948232	0.105954
675.151664	0.106137
675.355078	0.106270
675.558474	0.106328
675.761851	0.106466
675.965210	0.106656
676.168551	0.107111
676.371873	0.107149
676.575178	0.107258
676.778464	0.107367
676.981732	0.107433
677.184981	0.107639
677.388213	0.107811
677.591426	0.107872
677.794621	0.108012
677.997798	0.107864
678.200956	0.107919
678.404097	0.108015
678.607219	0.108320
678.810323	0.108164
679.013408	0.108064
679.216476	0.108101
679.419525	0.108234
679.622556	0.108299
679.825569	0.108232
680.028563	0.108324
680.231540	0.108462
680.434498	0.108362
680.637438	0.108609
680.840359	0.108764
681.043263	0.108788
681.246148	0.108834
681.449015	0.108712
681.651864	0.108834
681.854694	0.109081
682.057506	0.108997
682.260301	0.109169
682.463076	0.109230
682.665834	0.109424
682.868573	0.109579
683.071295	0.109720
683.273998	0.109970
683.476682	0.110272
683.679349	0.110237
683.881997	0.110431
684.084627	0.110628
684.287239	0.110832
684.489833	0.111053
684.692408	0.111071
684.894965	0.111163
685.097504	0.111362
685.300025	0.111638
685.502527	0.111812
685.705012	0.111734
685.907478	0.111713
686.109925	0.111750
686.312355	0.111617
686.514766	0.111585
686.717159	0.111637
686.919534	0.111516
687.121891	0.111450
687.324230	0.111507
687.526550	0.111672
687.728852	0.111554
687.931136	0.111651
688.133401	0.111925
688.335649	0.112213
688.537878	0.112094
688.740089	0.112257
688.942281	0.112307
689.144456	0.112379
689.346612	0.112494
689.548750	0.112674
689.750870	0.112801
689.952971	0.112704
690.155055	0.112690
690.357120	0.113003
690.559167	0.112946
690.761195	0.113071
690.963206	0.113153
691.165198	0.113213
691.367172	0.113478
691.569128	0.113511
691.771065	0.113538
691.972984	0.113684
692.174885	0.113547
692.376768	0.113689
692.578633	0.113566
692.780479	0.113507
692.982308	0.113383
693.184118	0.113267
693.385909	0.113174
693.587683	0.113195
693.789438	0.113018
693.991175	0.113113
694.192894	0.112924
694.394595	0.113103
694.596277	0.113089
694.797941	0.113145
694.999587	0.113009
695.201215	0.112956
695.402824	0.113062
695.604416	0.113107
695.805989	0.113148
696.007543	0.113388
696.209080	0.113413
696.410598	0.113429
696.612099	0.113568
696.813580	0.113670
697.015044	0.113774
697.216490	0.113863
697.417917	0.114163
697.619326	0.114206
697.820717	0.114449
698.022089	0.114493
698.223444	0.114535
698.424780	0.114532
698.626098	0.114687
698.827397	0.114808
699.028679	0.114803
699.229942	0.114906
699.431187	0.114972
699.632414	0.114800
699.833622	0.114766
700.034813	0.114760
700.235985	0.114851
700.437139	0.114923
700.638274	0.114934
700.839392	0.114978
701.040491	0.114677
701.241572	0.114741
701.442635	0.114642
701.643679	0.114867
701.844706	0.115215
702.045714	0.115247
702.246704	0.115282
702.447675	0.115620
702.648629	0.115628
702.849564	0.115865
703.050481	0.115882
703.251380	0.116058
703.452260	0.116113
703.653122	0.115860
703.853966	0.115775
704.054792	0.115727
704.255600	0.115506
704.456389	0.115605
704.657160	0.115643
704.857913	0.115668
705.058648	0.115660
705.259365	0.115500
705.460063	0.115659
705.660743	0.115731
705.861405	0.115535
706.062048	0.115332
706.262674	0.115078
706.463281	0.115080
706.663870	0.115187
706.864441	0.115189
707.064993	0.115181
707.265527	0.115072
707.466043	0.115289
707.666541	0.115627
707.867021	0.115828
708.067482	0.115925
708.267925	0.116002
708.468350	0.115811
708.668757	0.115697
708.869145	0.115703
709.069516	0.115699
709.269868	0.115583
709.470201	0.115427
709.670517	0.115607
709.870814	0.115605
710.071093	0.115461
710.271354	0.115572
710.471597	0.115624
710.671821	0.115888
710.872028	0.116080
711.072216	0.116146
711.272385	0.116278
711.472537	0.116232
711.672670	0.116410
711.872785	0.116440
712.072882	0.116345
712.272961	0.116402
712.473021	0.116325
712.673063	0.116327
712.873087	0.116209
713.073093	0.116350
713.273081	0.116221
713.473050	0.116050
713.673001	0.116066
713.872934	0.116225
714.072849	0.116384
714.272745	0.116384
714.472623	0.116250
714.672483	0.116193
714.872325	0.115888
715.072148	0.115934
715.271954	0.116000
715.471741	0.115967
715.671509	0.116040
715.871260	0.115893
716.070992	0.115640
716.270707	0.115540
716.470403	0.115568
716.670080	0.115677
716.869740	0.115587
717.069381	0.115452
717.269004	0.115433
717.468609	0.115031
717.668195	0.114999
717.867764	0.115075
718.067314	0.115015
718.266846	0.114900
718.466360	0.114810
718.665855	0.114483
718.865332	0.114268
719.064791	0.114154
719.264232	0.114257
719.463655	0.114193
719.663059	0.114026
719.862445	0.114005
720.061813	0.113848
720.261163	0.113562
720.460494	0.113580
720.659807	0.113613
720.859102	0.113590
721.058379	0.113568
721.257638	0.113457
721.456878	0.113382
721.656100	0.113390
721.855304	0.113575
722.054490	0.113562
722.253657	0.113599
722.452806	0.113715
722.651937	0.113596
722.851050	0.113477
723.050145	0.113591
723.249221	0.113402
723.448279	0.113294
723.647319	0.113123
723.846340	0.113234
724.045344	0.113188
724.244329	0.113012
724.443296	0.112840
724.642245	0.112846
724.841175	0.112566
725.040088	0.112489
725.238982	0.112398
725.437857	0.112222
725.636715	0.112170
725.835554	0.112285
726.034376	0.112268
726.233179	0.112265
726.431963	0.112346
726.630730	0.112407
726.829478	0.112643
727.028208	0.112613
727.226920	0.112582
727.425614	0.112505
727.624289	0.112366
727.822946	0.112203
728.021585	0.112149
728.220206	0.111686
728.418808	0.111317
728.617392	0.110968
728.815958	0.110752
729.014506	0.110547
729.213036	0.110404
729.411547	0.110229
729.610040	0.110251
729.808515	0.110192
730.006972	0.110233
730.205410	0.110436
730.403831	0.110489
730.602233	0.110565
730.800616	0.110673
730.998982	0.110500
731.197329	0.110420
731.395658	0.110242
731.593969	0.110106
731.792262	0.109966
731.990536	0.109907
732.188793	0.109946
732.387031	0.109902
732.585250	0.109784
732.783452	0.109806
732.981635	0.109665
733.179800	0.109759
733.377947	0.109696
733.576076	0.109652
733.774186	0.109430
733.972278	0.109190
734.170352	0.108988
734.368408	0.109039
734.566446	0.108909
734.764465	0.109094
734.962466	0.108947
735.160449	0.108888
735.358413	0.109072
735.556360	0.109161
735.754288	0.109157
735.952198	0.109264
736.150090	0.109287
736.347963	0.109434
736.545818	0.109364
736.743655	0.109329
736.941474	0.109389
737.139275	0.109277
737.337057	0.109021
737.534821	0.108979
737.732567	0.109017
737.930295	0.108978
738.128005	0.108734
738.325696	0.108573
738.523369	0.108532
738.721024	0.108360
738.918660	0.108248
739.116279	0.108259
739.313879	0.108192
739.511461	0.107874
739.709024	0.107596
739.906570	0.107440
740.104097	0.107146
740.301606	0.107139
740.499097	0.107081
740.696569	0.107019
740.894024	0.107110
741.091460	0.106958
741.288878	0.107073
741.486277	0.107100
741.683659	0.107259
741.881022	0.107295
742.078367	0.107342
742.275694	0.107477
742.473002	0.107328
742.670293	0.107242
742.867565	0.107285
743.064819	0.107043
743.262054	0.107038
743.459272	0.106743
743.656471	0.106553
743.853652	0.106174
744.050815	0.106131
744.247959	0.106058
744.445085	0.105914
744.642194	0.105790
744.839283	0.105963
745.036355	0.105867
745.233408	0.105894
745.430444	0.106033
745.627461	0.106273
745.824459	0.106261
746.021440	0.106503
746.218402	0.106585
746.415346	0.106753
746.612272	0.106789
746.809180	0.106754
747.006069	0.107064
747.202940	0.107169
747.399793	0.107011
747.596628	0.106725
747.793444	0.106586
747.990243	0.106527
748.187023	0.106493
748.383784	0.106475
748.580528	0.106423
748.777253	0.106059
748.973960	0.105953
749.170649	0.105654
749.367320	0.105666
749.563973	0.105446
749.760607	0.105131
749.957223	0.104900
750.153821	0.104638
750.350400	0.104563
750.546962	0.104491
750.743505	0.104219
750.940030	0.104158
751.136536	0.103827
751.333025	0.103746
751.529495	0.103792
751.725947	0.103669
751.922381	0.103583
752.118796	0.103447
752.315194	0.103419
752.511573	0.103473
752.707934	0.103553
752.904276	0.103585
753.100601	0.103491
753.296907	0.103552
753.493195	0.103209
753.689465	0.103056
753.885716	0.102964
754.081949	0.102749
754.278164	0.102475
754.474361	0.102311
754.670540	0.102274
754.866700	0.102128
755.062843	0.101731
755.258967	0.101803
755.455072	0.101704
755.651160	0.101689
755.847229	0.101527
756.043280	0.101540
756.239313	0.101714
756.435328	0.101785
756.631324	0.101787
756.827302	0.102039
757.023262	0.102000
757.219204	0.102062
757.415127	0.102078
757.611033	0.102105
757.806920	0.101833
758.002788	0.101550
758.198639	0.101201
758.394471	0.101057
758.590286	0.100713
758.786081	0.100739
758.981859	0.100439
759.177619	0.100015
759.373360	0.099985
759.569083	0.099898
759.764788	0.099709
759.960474	0.099657
760.156143	0.099638
760.351793	0.099575
760.547425	0.099386
760.743038	0.099364
760.938634	0.099436
761.134211	0.099225
761.329770	0.099148
761.525311	0.099183
761.720833	0.099029
761.916338	0.098820
762.111824	0.098642
762.307292	0.098711
762.502741	0.098836
762.698173	0.098745
762.893586	0.099169
763.088981	0.099270
763.284358	0.099332
763.479716	0.099370
763.675057	0.099285
763.870379	0.099416
764.065683	0.099393
764.260968	0.099277
764.456236	0.099276
764.651485	0.098754
764.846716	0.098963
765.041929	0.098904
765.237123	0.099074
765.432299	0.099038
765.627457	0.099025
765.822597	0.098888
766.017719	0.098771
766.212822	0.098980
766.407907	0.099363
766.602974	0.098958
766.798023	0.098892
766.993054	0.098845
767.188066	0.099045
767.383060	0.099012
767.578036	0.099118
767.772993	0.099285
767.967933	0.099052
768.162854	0.098763
768.357757	0.099036
768.552642	0.098687
768.747508	0.098739
768.942356	0.098800
769.137186	0.098778
769.331998	0.098779
769.526792	0.098552
769.721567	0.098709
769.916324	0.098806
770.111063	0.098638
770.305784	0.099079
770.500486	0.098833
770.695171	0.098668
770.889837	0.098681
771.084484	0.098661
771.279114	0.098634
771.473725	0.098453
771.668318	0.098100
771.862893	0.098005
772.057450	0.097875
772.251988	0.098025
772.446509	0.098119
772.641011	0.097996
772.835494	0.097606
773.029960	0.097523
773.224407	0.097504
773.418836	0.097484
773.613247	0.097588
773.807640	0.097378
774.002014	0.097337
774.196370	0.097216
774.390708	0.097174
774.585028	0.097413
774.779330	0.097463
774.973613	0.097288
775.167878	0.097299
775.362125	0.097051
775.556354	0.097198
775.750564	0.097015
775.944756	0.096951
776.138930	0.096924
776.333086	0.096780
776.527223	0.096691
776.721343	0.096877
776.915444	0.097009
777.109526	0.097237
777.303591	0.097276
777.497637	0.097219
777.691666	0.097039
777.885676	0.097141
778.079667	0.097269
778.273641	0.097313
778.467596	0.097329
778.661533	0.097197
778.855452	0.097136
779.049352	0.096757
779.243235	0.096749
779.437099	0.097023
779.630945	0.096901
779.824773	0.096719
780.018582	0.096556
780.212373	0.096283
780.406146	0.096350
780.599901	0.096273
780.793638	0.096437
780.987356	0.096476
781.181056	0.096193
781.374738	0.095981
781.568402	0.096119
781.762047	0.095976
781.955674	0.096179
782.149283	0.096224
782.342874	0.096311
782.536447	0.096309
782.730001	0.096354
782.923537	0.096451
783.117055	0.096581
783.310555	0.096613
783.504036	0.096713
783.697499	0.096775
783.890944	0.096838
784.084371	0.096924
784.277780	0.097105
784.471170	0.096989
784.664542	0.097173
784.857896	0.097421
785.051231	0.097588
785.244549	0.097812
785.437848	0.097755
785.631129	0.097784
785.824392	0.097726
786.017636	0.097647
786.210863	0.097923
786.404071	0.097915
786.597260	0.097764
786.790432	0.097480
786.983585	0.097667
787.176721	0.097653
787.369838	0.097622
787.562936	0.097567
787.756017	0.097505
787.949079	0.097232
788.142123	0.097176
788.335149	0.097430
788.528156	0.097341
788.721146	0.097232
788.914117	0.097296
789.107070	0.097298
789.300005	0.097631
789.492921	0.097823
789.685819	0.098016
789.878699	0.097999
790.071561	0.097785
790.264405	0.098042
790.457230	0.098124
790.650037	0.098047
790.842826	0.098038
791.035597	0.097820
791.228349	0.097916
791.421084	0.097944
791.613800	0.098118
791.806497	0.098255
791.999177	0.098276
792.191838	0.098272
792.384481	0.098485
792.577106	0.098576
792.769713	0.098699
792.962301	0.098569
793.154871	0.098843
793.347423	0.098958
793.539957	0.099299
793.732473	0.099586
793.924970	0.099612
794.117449	0.099550
794.309910	0.099795
794.502353	0.099990
794.694777	0.100234
794.887183	0.100221
795.079571	0.100495
795.271941	0.100514
795.464293	0.100221
795.656626	0.100477
795.848941	0.100627
796.041238	0.100734
796.233516	0.100772
796.425777	0.100768
796.618019	0.101000
796.810243	0.100922
797.002449	0.100963
797.194636	0.101319
797.386805	0.101254
797.578956	0.101287
797.771089	0.101382
797.963204	0.101450
798.155300	0.101545
798.347378	0.101644
798.539438	0.101576
798.731480	0.101537
798.923503	0.101636
799.115509	0.101843
799.307496	0.102045
799.499465	0.101910
799.691415	0.101830
799.883348	0.101987
800.075262	0.101772
800.267158	0.101837
800.459035	0.101938
800.650895	0.101924
800.842736	0.101865
801.034559	0.101817
801.226364	0.101884
801.418150	0.102070
801.609919	0.101969
801.801669	0.102166
801.993401	0.102175
802.185114	0.102234
802.376810	0.102427
802.568487	0.102367
802.760146	0.102394
802.951787	0.102634
803.143409	0.102834
803.335014	0.102971
803.526600	0.103111
803.718168	0.103268
803.909717	0.103327
804.101249	0.103419
804.292762	0.103612
804.484257	0.103696
804.675734	0.103699
804.867192	0.103608
805.058632	0.103694
805.250054	0.103708
805.441458	0.103949
805.632844	0.104070
805.824211	0.103994
806.015561	0.104079
806.206891	0.104291
806.398204	0.104556
806.589499	0.104478
806.780775	0.104619
806.972033	0.104658
807.163273	0.104770
807.354495	0.104716
807.545698	0.105175
807.736883	0.105599
807.928050	0.105888
808.119199	0.105999
808.310329	0.106614
808.501441	0.107005
808.692535	0.107306
808.883611	0.107337
809.074669	0.107808
809.265708	0.107865
809.456729	0.107753
809.647732	0.107641
809.838717	0.107777
810.029683	0.107797
810.220632	0.107824
810.411562	0.108032
810.602474	0.108122
810.793367	0.108343
810.984242	0.108503
811.175100	0.108871
811.365938	0.109288
811.556759	0.109473
811.747562	0.109773
811.938346	0.109939
812.129112	0.109911
812.319860	0.110380
812.510589	0.110567
812.701300	0.110643
812.891994	0.110688
813.082668	0.110940
813.273325	0.111063
813.463964	0.111095
813.654584	0.111134
813.845186	0.111648
814.035769	0.111622
814.226335	0.111705
814.416882	0.111868
814.607411	0.111823
814.797922	0.111913
814.988415	0.112017
815.178889	0.112261
815.369345	0.112613
815.559783	0.112480
815.750203	0.112539
815.940605	0.112496
816.130988	0.112677
816.321353	0.113015
816.511700	0.112953
816.702028	0.113235
816.892339	0.113295
817.082631	0.113429
817.272905	0.113769
817.463161	0.114107
817.653398	0.114393
817.843617	0.114510
818.033819	0.114760
818.224001	0.114918
818.414166	0.114956
818.604312	0.115087
818.794440	0.115086
818.984550	0.115041
819.174642	0.115165
819.364716	0.115184
819.554771	0.115289
819.744808	0.115209
819.934827	0.115334
820.124827	0.115552
820.314810	0.115588
820.504774	0.115776
820.694720	0.116082
820.884647	0.116103
821.074557	0.116456
821.264448	0.116654
821.454321	0.117147
821.644176	0.117501
821.834012	0.117704
822.023831	0.117836
822.213631	0.118325
822.403413	0.118445
822.593176	0.118594
822.782922	0.118706
822.972649	0.118898
823.162358	0.118979
823.352049	0.119085
823.541721	0.119315
823.731376	0.119636
823.921012	0.119498
824.110629	0.119552
824.300229	0.120005
824.489811	0.120177
824.679374	0.120254
824.868919	0.120511
825.058445	0.120529
825.247954	0.120716
825.437444	0.120958
825.626916	0.121345
825.816370	0.121490
826.005806	0.121657
826.195223	0.121833
826.384622	0.122143
826.574003	0.122173
826.763366	0.122517
826.952711	0.122643
827.142037	0.122921
827.331345	0.123169
827.520635	0.123534
827.709906	0.123476
827.899160	0.123730
828.088395	0.123895
828.277612	0.124095
828.466810	0.124389
828.655991	0.124301
828.845153	0.124238
829.034297	0.124045
829.223423	0.124149
829.412531	0.124344
829.601620	0.124369
829.790691	0.124528
829.979744	0.124720
830.168779	0.124961
830.357795	0.125421
830.546793	0.125645
830.735773	0.125892
830.924735	0.126065
831.113679	0.126421
831.302604	0.126848
831.491511	0.127055
831.680400	0.127373
831.869271	0.127610
832.058123	0.127839
832.246957	0.128057
832.435773	0.128343
832.624571	0.128471
832.813351	0.128612
833.002112	0.128576
833.190855	0.128873
833.379580	0.129115
833.568287	0.129159
833.756975	0.129192
833.945645	0.129496
834.134297	0.129645
834.322931	0.130371
834.511547	0.130785
834.700144	0.131178
834.888723	0.131285
835.077284	0.131288
835.265826	0.131773
835.454351	0.132208
835.642857	0.132601
835.831345	0.133010
836.019815	0.132894
836.208266	0.133085
836.396699	0.133245
836.585114	0.133945
836.773511	0.134343
836.961890	0.134454
837.150250	0.134593
837.338592	0.134938
837.526916	0.135265
837.715222	0.135768
837.903510	0.136022
838.091779	0.136491
838.280030	0.136494
838.468263	0.136554
838.656477	0.136957
838.844674	0.137557
839.032852	0.137737
839.221012	0.138011
839.409153	0.138188
839.597277	0.138338
839.785382	0.138577
839.973469	0.138836
840.161538	0.139281
840.349589	0.139359
840.537621	0.139669
840.725635	0.140054
840.913631	0.140207
841.101609	0.140167
841.289568	0.140452
841.477509	0.140865
841.665432	0.141186
841.853337	0.141715
842.041224	0.142070
842.229092	0.142251
842.416942	0.142389
842.604774	0.143015
842.792588	0.143412
842.980383	0.143876
843.168160	0.144100
843.355919	0.144288
843.543660	0.144203
843.731382	0.144738
843.919087	0.144819
844.106773	0.144946
844.294441	0.145076
844.482090	0.145451
844.669722	0.145781
844.857335	0.145860
845.044930	0.146177
845.232507	0.146436
845.420065	0.146312
845.607605	0.146384
845.795127	0.146884
845.982631	0.147035
846.170117	0.147454
846.357584	0.147683
846.545033	0.147952
846.732464	0.148077
846.919877	0.148711
847.107272	0.149256
847.294648	0.149757
847.482006	0.150045
847.669346	0.150239
847.856667	0.150259
848.043971	0.150418
848.231256	0.150719
848.418523	0.151406
848.605771	0.151622
848.793002	0.151493
848.980214	0.151662
849.167408	0.151727
849.354584	0.151936
849.541742	0.152425
849.728881	0.152755
849.916002	0.153034
850.103105	0.152771
850.290190	0.153058
850.477256	0.153821
850.664304	0.154248
850.851334	0.154548
851.038346	0.154728
851.225340	0.155026
851.412315	0.155449
851.599272	0.155839
851.786211	0.156314
851.973132	0.156557
852.160034	0.156523
852.346918	0.156552
852.533784	0.156526
852.720632	0.157175
852.907462	0.157545
853.094273	0.157408
853.281066	0.157498
853.467841	0.157766
853.654598	0.157957
853.841336	0.158138
854.028056	0.158494
854.214758	0.159027
854.401442	0.159118
854.588107	0.159001
854.774755	0.159264
854.961384	0.159435
855.147995	0.159538
855.334587	0.159531
855.521162	0.159796
855.707718	0.160147
855.894256	0.160449
856.080775	0.160326
856.267277	0.160646
856.453760	0.161137
856.640225	0.161556
856.826672	0.161966
857.013101	0.162385
857.199511	0.162830
857.385903	0.162900
857.572277	0.162832
857.758633	0.163094
857.944970	0.163187
858.131290	0.163318
858.317591	0.163341
858.503873	0.163520
858.690138	0.163740
858.876384	0.163760
859.062612	0.164138
859.248822	0.164734
859.435014	0.165248
859.621188	0.165545
859.807343	0.165547
859.993480	0.165488
860.179599	0.165578
860.365699	0.165661
860.551781	0.165847
860.737846	0.165859
860.923891	0.165853
861.109919	0.165696
861.295929	0.165856
861.481920	0.166200
861.667893	0.166603
861.853848	0.166347
862.039784	0.166683
862.225702	0.167041
862.411603	0.167141
862.597484	0.167317
862.783348	0.167609
862.969193	0.167696
863.155021	0.167795
863.340830	0.167687
863.526620	0.168220
863.712393	0.168051
863.898147	0.167840
864.083883	0.168249
864.269601	0.168515
864.455301	0.168568
864.640982	0.168861
864.826645	0.168966
865.012290	0.169669
865.197917	0.169824
865.383526	0.170432
865.569116	0.171004
865.754688	0.171182
865.940242	0.171439
866.125777	0.171915
866.311295	0.172374
866.496794	0.172628
866.682275	0.172730
866.867737	0.172963
867.053182	0.173312
867.238608	0.173591
867.424016	0.173630
867.609406	0.173712
867.794778	0.173910
867.980131	0.173917
868.165466	0.173873
868.350783	0.173879
868.536082	0.173868
868.721362	0.173696
868.906625	0.173557
869.091869	0.173540
869.277094	0.173831
869.462302	0.174185
869.647491	0.173789
869.832662	0.174191
870.017815	0.174262
870.202950	0.174360
870.388066	0.174581
870.573165	0.174791
870.758245	0.174969
870.943306	0.174408
871.128350	0.173872
871.313375	0.174442
871.498382	0.174453
871.683371	0.174938
871.868342	0.175670
872.053294	0.175624
872.238229	0.175633
872.423144	0.175987
872.608042	0.176579
872.792922	0.177184
872.977783	0.177384
873.162626	0.177690
873.347451	0.177801
873.532258	0.177536
873.717046	0.177824
873.901816	0.178263
874.086568	0.178411
874.271302	0.178733
874.456017	0.179269
874.640715	0.179615
874.825394	0.179642
875.010055	0.179718
875.194697	0.179910
875.379322	0.180049
875.563928	0.179972
875.748516	0.179975
875.933085	0.179706
876.117637	0.179383
876.302170	0.179339
876.486685	0.179809
876.671182	0.180022
876.855661	0.179992
877.040121	0.180178
877.224563	0.180552
877.408987	0.180741
877.593393	0.180898
877.777780	0.180969
877.962150	0.180928
878.146501	0.180857
878.330833	0.180630
878.515148	0.180911
878.699444	0.180883
878.883722	0.180835
879.067982	0.180805
879.252224	0.181215
879.436447	0.181465
879.620653	0.181602
879.804840	0.181738
879.989008	0.182190
880.173159	0.182516
880.357291	0.182685
880.541405	0.182934
880.725501	0.183180
880.909579	0.183159
881.093638	0.182994
881.277680	0.183274
881.461703	0.183374
881.645707	0.183332
881.829694	0.183112
882.013662	0.183143
882.197612	0.182934
882.381544	0.183128
882.565458	0.183239
882.749353	0.183648
882.933230	0.183606
883.117089	0.183502
883.300930	0.183243
883.484753	0.183583
883.668557	0.183288
883.852343	0.183142
884.036111	0.182864
884.219861	0.182900
884.403592	0.182284
884.587305	0.181956
884.771000	0.181849
884.954677	0.181595
885.138335	0.180991
885.321976	0.180849
885.505598	0.181112
885.689201	0.181042
885.872787	0.180439
886.056354	0.180926
886.239904	0.181229
886.423434	0.181007
886.606947	0.181322
886.790442	0.181765
886.973918	0.182149
887.157376	0.182258
887.340816	0.182431
887.524237	0.182706
887.707641	0.182741
887.891026	0.182500
888.074393	0.182746
888.257741	0.182920
888.441072	0.182758
888.624384	0.182809
888.807678	0.182510
888.990954	0.182547
889.174211	0.182661
889.357451	0.182798
889.540672	0.182761
889.723875	0.182697
889.907059	0.182386
890.090226	0.182702
890.273374	0.182559
890.456504	0.182600
890.639616	0.182440
890.822709	0.182305
891.005785	0.181559
891.188842	0.181662
891.371881	0.181372
891.554901	0.181487
891.737904	0.180816
891.920888	0.180621
892.103854	0.180687
892.286802	0.180551
892.469731	0.180947
892.652643	0.180945
892.835536	0.180432
893.018410	0.180740
893.201267	0.180789
893.384106	0.181010
893.566926	0.181257
893.749728	0.180830
893.932511	0.180606
894.115277	0.180006
894.298024	0.180308
894.480753	0.180530
894.663464	0.180659
894.846157	0.181012
895.028831	0.180757
895.211487	0.181015
895.394125	0.180934
895.576745	0.181316
895.759346	0.181707
895.941930	0.182002
896.124495	0.182060
896.307041	0.181474
896.489570	0.180570
896.672080	0.181054
896.854573	0.180587
897.037046	0.180751
897.219502	0.180655
897.401940	0.180344
897.584359	0.180104
897.766760	0.180208
897.949143	0.180493
898.131507	0.180531
898.313854	0.180478
898.496182	0.180196
898.678492	0.180046
898.860783	0.179963
899.043057	0.179713
899.225312	0.179266
899.407549	0.178848
899.589768	0.178659
899.771968	0.178864
899.954151	0.178254
900.136315	0.178257
900.318461	0.177892
900.500588	0.177756
900.682698	0.178006
900.864789	0.177785
901.046862	0.177824
901.228917	0.177719
901.410953	0.177815
901.592971	0.177492
901.774972	0.177383
901.956953	0.177737
902.138917	0.177192
902.320862	0.176859
902.502790	0.176968
902.684699	0.176666
902.866589	0.176193
903.048462	0.175622
903.230316	0.176215
903.412152	0.176167
903.593970	0.175697
903.775770	0.175789
903.957551	0.175389
904.139314	0.175211
904.321059	0.174946
904.502786	0.174817
904.684494	0.174599
904.866185	0.173942
905.047857	0.173453
905.229510	0.172419
905.411146	0.172204
905.592763	0.171582
905.774363	0.171303
905.955943	0.170974
906.137506	0.170877
906.319051	0.170740
906.500577	0.170202
906.682085	0.170120
906.863575	0.170819
907.045046	0.170614
907.226500	0.170465
907.407935	0.170168
907.589352	0.170183
907.770750	0.170091
907.952131	0.169837
908.133493	0.169877
908.314837	0.169235
908.496163	0.168618
908.677470	0.168530
908.858760	0.168611
909.040031	0.168611
909.221284	0.168455
909.402518	0.167959
909.583735	0.167689
909.764933	0.167453
909.946113	0.167253
910.127275	0.167372
910.308418	0.166895
910.489544	0.166818
910.670651	0.166246
910.851740	0.165556
911.032810	0.165229
911.213863	0.164796
911.394897	0.164564
911.575913	0.164354
911.756911	0.163761
911.937890	0.163196
912.118851	0.162315
912.299794	0.161953
912.480719	0.161829
912.661626	0.161340
912.842514	0.161286
913.023384	0.160885
913.204236	0.160454
913.385070	0.159985
913.565886	0.159256
913.746683	0.158900
913.927462	0.158793
914.108223	0.158744
914.288965	0.158088
914.469690	0.157238
914.650396	0.156750
914.831084	0.156437
915.011754	0.156292
915.192405	0.156359
915.373038	0.155721
915.553653	0.155134
915.734250	0.154641
915.914829	0.154583
916.095389	0.154322
916.275931	0.153458
916.456455	0.152987
916.636961	0.152453
916.817448	0.152044
916.997917	0.152215
917.178368	0.151419
917.358801	0.150602
917.539216	0.150378
917.719612	0.149857
917.899990	0.149665
918.080350	0.149331
918.260692	0.148937
918.441015	0.148880
918.621320	0.148401
918.801607	0.148744
918.981876	0.148759
919.162127	0.147994
919.342359	0.147775
919.522573	0.147573
919.702769	0.147616
919.882947	0.147287
920.063106	0.146362
920.243247	0.146064
920.423370	0.144957
920.603475	0.144512
920.783562	0.144554
920.963630	0.144558
921.143680	0.144354
921.323712	0.143557
921.503725	0.143015
921.683721	0.143272
921.863698	0.142876
922.043657	0.142643
922.223598	0.141813
922.403520	0.141379
922.583424	0.140749
922.763311	0.139841
922.943178	0.139486
923.123028	0.139357
923.302859	0.138189
923.482673	0.138033
923.662467	0.137345
923.842244	0.137402
924.022003	0.136829
924.201743	0.136176
924.381465	0.136007
924.561169	0.135606
924.740854	0.135249
924.920522	0.135217
925.100171	0.134175
925.279802	0.133998
925.459414	0.133055
925.639009	0.132655
925.818585	0.132017
925.998143	0.131858
926.177683	0.130907
926.357205	0.129835
926.536708	0.128780
926.716193	0.128491
926.895660	0.127177
927.075109	0.127069
927.254539	0.126017
927.433951	0.125007
927.613345	0.123823
927.792721	0.123422
927.972079	0.122969
928.151418	0.122351
928.330739	0.121244
928.510042	0.121556
928.689327	0.120526
928.868593	0.120457
929.047841	0.120132
929.227071	0.119644
929.406283	0.119394
929.585476	0.118725
929.764652	0.118415
929.943809	0.118223
930.122948	0.117732
930.302068	0.117046
930.481171	0.116418
930.660255	0.116895
930.839321	0.116200
931.018369	0.115104
931.197398	0.114524
931.376409	0.113515
931.555402	0.113074
931.734377	0.112066
931.913334	0.111582
932.092272	0.110888
932.271192	0.109444
932.450094	0.108973
932.628978	0.109158
932.807844	0.108930
932.986691	0.108583
933.165520	0.107674
933.344331	0.107348
933.523123	0.106671
933.701898	0.106126
933.880654	0.105993
934.059392	0.104804
934.238111	0.103087
934.416813	0.101706
934.595496	0.101332
934.774161	0.100758
934.952808	0.099610
935.131437	0.099161
935.310047	0.098849
935.488639	0.096839
935.667213	0.096751
935.845769	0.096295
936.024306	0.096263
936.202825	0.094569
936.381326	0.093429
936.559809	0.092506
936.738274	0.090881
936.916720	0.089729
937.095148	0.089266
937.273558	0.088593
937.451950	0.087985
937.630323	0.087368
937.808678	0.087357
937.987015	0.087423
938.165334	0.086943
938.343635	0.087989
938.521917	0.086986
938.700181	0.086872
938.878427	0.084979
939.056655	0.084467
939.234864	0.083834
939.413055	0.082697
939.591228	0.081734
939.769383	0.081437
939.947519	0.079274
940.125638	0.078836
940.303738	0.077904
940.481820	0.079302
940.659883	0.078586
940.837929	0.076800
941.015956	0.075938
941.193965	0.075218
941.371955	0.074440
941.549928	0.073757
941.727882	0.072875
941.905818	0.072352
942.083736	0.071266
942.261636	0.070802
942.439517	0.070756
942.617380	0.070346
942.795225	0.069932
942.973052	0.069941
943.150860	0.070831
943.328651	0.070518
943.506423	0.069850
943.684176	0.068967
943.861912	0.066604
944.039629	0.065370
944.217328	0.066362
944.395009	0.065374
944.572672	0.063731
944.750317	0.061205
944.927943	0.060132
945.105551	0.059783
945.283141	0.057328
945.460712	0.057938
945.638265	0.057997
945.815801	0.056137
945.993317	0.056044
946.170816	0.054632
946.348297	0.054165
946.525759	0.053634
946.703203	0.052518
946.880629	0.053824
947.058036	0.053255
947.235425	0.052328
947.412797	0.050920
947.590149	0.049576
947.767484	0.050976
947.944800	0.050359
948.122099	0.049538
948.299379	0.050178
948.476640	0.048355
948.653884	0.047908
948.831109	0.047840
949.008316	0.047717
949.185505	0.047287
949.362676	0.046512
949.539828	0.046782
949.716962	0.046258
949.894078	0.044995
950.071176	0.046205
950.248256	0.045770
950.425317	0.044686
950.602360	0.044308
950.779385	0.045238
950.956391	0.044063
951.133380	0.043005
951.310350	0.043865
951.487302	0.043118
951.664235	0.040575
951.841151	0.039624
952.018048	0.038180
952.194927	0.037321
952.371788	0.036474
952.548631	0.036163
952.725455	0.036111
952.902261	0.035479
953.079049	0.034781
953.255819	0.036403
953.432570	0.036871
953.609303	0.038045
953.786018	0.038804
953.962715	0.038282
954.139394	0.037859
954.316054	0.037047
954.492696	0.035473
954.669320	0.035459
954.845926	0.034136
955.022513	0.034215
955.199083	0.033262
955.375634	0.032817
955.552166	0.030826
955.728681	0.029749
955.905177	0.030778
956.081655	0.030553
956.258115	0.030332
956.434557	0.030304
956.610980	0.029118
956.787385	0.028682
956.963772	0.028312
957.140141	0.028050
957.316492	0.028334
957.492824	0.028169
957.669138	0.028645
957.845434	0.028468
958.021712	0.029150
958.197971	0.029657
958.374212	0.029897
958.550435	0.030709
958.726640	0.032920
958.902826	0.032427
959.078995	0.033046
959.255145	0.033186
959.431277	0.032435
959.607390	0.032000
959.783486	0.031132
959.959563	0.031355
960.135622	0.029953
960.311662	0.029959
960.487685	0.029490
960.663689	0.028290
960.839675	0.028512
961.015643	0.030870
961.191593	0.029686
961.367524	0.029503
961.543437	0.031862
961.719332	0.034177
961.895209	0.033517
962.071067	0.035826
962.246907	0.037116
962.422730	0.036082
962.598533	0.034706
962.774319	0.036274
962.950086	0.037542
963.125835	0.036040
963.301566	0.034674
963.477279	0.034985
963.652973	0.033924
963.828650	0.031862
964.004308	0.031941
964.179947	0.031032
964.355569	0.029236
964.531172	0.029344
964.706757	0.030832
964.882324	0.031631
965.057873	0.030077
965.233403	0.031079
965.408916	0.032827
965.584410	0.034225
965.759885	0.035760
965.935343	0.037585
966.110782	0.038438
966.286203	0.034773
966.461606	0.033264
966.636991	0.034220
966.812357	0.034826
966.987705	0.034087
967.163035	0.033059
967.338347	0.032428
967.513641	0.032500
967.688916	0.030982
967.864173	0.031653
968.039412	0.033195
968.214632	0.031658
968.389835	0.031067
968.565019	0.032801
968.740185	0.031436
968.915333	0.031798
969.090462	0.031653
969.265573	0.031686
969.440667	0.033698
969.615741	0.032108
969.790798	0.034473
969.965836	0.033881
970.140856	0.032623
970.315858	0.033321
970.490842	0.034672
970.665808	0.034071
970.840755	0.034834
971.015684	0.035140
971.190595	0.034987
971.365487	0.035489
971.540362	0.035120
971.715218	0.038092
971.890056	0.039750
972.064875	0.039646
972.239677	0.039606
972.414460	0.037950
972.589225	0.038222
972.763972	0.038465
972.938700	0.038905
973.113411	0.038659
973.288103	0.035917
973.462777	0.036802
973.637432	0.035733
973.812070	0.037040
973.986689	0.037801
974.161290	0.036914
974.335873	0.038737
974.510437	0.037004
974.684984	0.037327
974.859512	0.037524
975.034022	0.037148
975.208513	0.036009
975.382987	0.033730
975.557442	0.034330
975.731879	0.032600
975.906298	0.030284
976.080698	0.030443
976.255080	0.032572
976.429445	0.031971
976.603790	0.031730
976.778118	0.032749
976.952427	0.034809
977.126719	0.034549
977.300992	0.036063
977.475246	0.038426
977.649483	0.040208
977.823701	0.038225
977.997901	0.039049
978.172083	0.038406
978.346247	0.038718
978.520392	0.037129
978.694519	0.038692
978.868628	0.036796
979.042719	0.037384
979.216791	0.037467
979.390845	0.038781
979.564882	0.039750
979.738899	0.039003
979.912899	0.038473
980.086880	0.040226
980.260843	0.038822
980.434788	0.041447
980.608715	0.040262
980.782623	0.038530
980.956514	0.038515
981.130386	0.038022
981.304240	0.039178
981.478075	0.039478
981.651892	0.037631
981.825692	0.037446
981.999472	0.037693
982.173235	0.036916
982.346980	0.039042
982.520706	0.038706
982.694414	0.037678
982.868104	0.037447
983.041775	0.037133
983.215428	0.040010
983.389064	0.039174
983.562680	0.040369
983.736279	0.041727
983.909860	0.040019
984.083422	0.041854
984.256966	0.041126
984.430491	0.040185
984.603999	0.040752
984.777488	0.038635
984.950959	0.039367
985.124412	0.037450
985.297847	0.037705
985.471263	0.037483
985.644661	0.036207
985.818041	0.037066
985.991403	0.036386
986.164747	0.036768
986.338072	0.038240
986.511379	0.036916
986.684668	0.036007
986.857938	0.034154
987.031191	0.033001
987.204425	0.033118
987.377641	0.031788
987.550839	0.033292
987.724018	0.032566
987.897179	0.030797
988.070322	0.031877
988.243447	0.031967
988.416554	0.031741
988.589642	0.032961
988.762712	0.032186
988.935764	0.034175
989.108798	0.033180
989.281813	0.031191
989.454811	0.032457
989.627790	0.034401
989.800751	0.036062
989.973693	0.037381
990.146617	0.037463
990.319524	0.037471
990.492412	0.036904
990.665281	0.035983
990.838133	0.037576
991.010966	0.037341
991.183781	0.034811
991.356578	0.032752
991.529356	0.031847
991.702117	0.030770
991.874859	0.029373
992.047583	0.029045
992.220288	0.029129
992.392976	0.029456
992.565645	0.028799
992.738296	0.030012
992.910929	0.031165
993.083543	0.029778
993.256139	0.029217
993.428718	0.030667
993.601277	0.031346
993.773819	0.032660
993.946342	0.030704
994.118848	0.029803
994.291335	0.029485
994.463803	0.030030
994.636254	0.032772
994.808686	0.034040
994.981100	0.033874
995.153496	0.031198
995.325874	0.031440
995.498233	0.034070
995.670574	0.035851
995.842897	0.036416
996.015202	0.036948
996.187488	0.035017
996.359757	0.036648
996.532007	0.035301
996.704239	0.037504
996.876452	0.036714
997.048648	0.036729
997.220825	0.036428
997.392984	0.034435
997.565124	0.034244
997.737247	0.035431
997.909351	0.034817
998.081437	0.035326
998.253505	0.035003
998.425554	0.036817
998.597586	0.035215
998.769599	0.034263
998.941594	0.035290
999.113571	0.034526
999.285529	0.034075
999.457469	0.033957
999.629391	0.034334
999.801295	0.034925
999.973181	0.033636
1000.145048	0.034924
1000.316897	0.034768
1000.488728	0.035088
1000.660541	0.035314
1000.832335	0.034936
1001.004111	0.033977
1001.175869	0.033339
1001.347609	0.033294
1001.519331	0.033277
1001.691034	0.034654
1001.862719	0.035982
1002.034386	0.037067
1002.206035	0.038072
1002.377665	0.039247
1002.549277	0.040109
1002.720871	0.041559
1002.892447	0.042431
1003.064004	0.042475
1003.235544	0.040242
1003.407065	0.040398
1003.578568	0.039152
1003.750052	0.035410
1003.921519	0.036579
1004.092967	0.036301
1004.264397	0.035172
1004.435809	0.035310
1004.607202	0.034226
1004.778577	0.033158
1004.949934	0.031295
1005.121273	0.031660
1005.292594	0.033704
1005.463896	0.031971
1005.635180	0.030713
1005.806446	0.032007
1005.977694	0.030558
1006.148923	0.030541
1006.320135	0.032810
1006.491328	0.034218
1006.662503	0.034414
1006.833659	0.036103
1007.004798	0.036049
1007.175918	0.037960
1007.347020	0.036447
1007.518103	0.036134
1007.689169	0.038053
1007.860216	0.036473
1008.031245	0.036515
1008.202256	0.035582
1008.373248	0.034141
1008.544223	0.034111
1008.715179	0.034057
1008.886117	0.035229
1009.057036	0.034326
1009.227938	0.033005
1009.398821	0.033854
1009.569686	0.035201
1009.740533	0.035656
1009.911361	0.034719
1010.082172	0.035791
1010.252964	0.034697
1010.423738	0.034995
1010.594493	0.037763
1010.765231	0.038467
1010.935950	0.038250
1011.106651	0.038369
1011.277334	0.037355
1011.447998	0.036174
1011.618645	0.034454
1011.789273	0.034756
1011.959882	0.034078
1012.130474	0.034375
1012.301048	0.035201
1012.471603	0.034792
1012.642140	0.032272
1012.812658	0.034212
1012.983159	0.036117
1013.153641	0.036473
1013.324105	0.037376
1013.494551	0.037677
1013.664979	0.035353
1013.835388	0.034999
1014.005779	0.035372
1014.176152	0.036285
1014.346507	0.038412
1014.516843	0.037190
1014.687162	0.037703
1014.857462	0.035285
1015.027744	0.034616
1015.198007	0.034702
1015.368252	0.034152
1015.538480	0.033456
1015.708689	0.033858
1015.878879	0.030844
1016.049052	0.031867
1016.219206	0.031876
1016.389342	0.034569
1016.559460	0.033929
1016.729559	0.034743
1016.899641	0.034161
1017.069704	0.034738
1017.239749	0.033070
1017.409775	0.033240
1017.579784	0.033238
1017.749774	0.032340
1017.919746	0.030987
1018.089700	0.033045
1018.259635	0.031832
1018.429553	0.031445
1018.599452	0.031332
1018.769333	0.032811
1018.939195	0.033295
1019.109040	0.035017
1019.278866	0.036600
1019.448674	0.036997
1019.618464	0.035211
1019.788235	0.034984
1019.957989	0.036044
1020.127724	0.035532
1020.297441	0.035575
1020.467139	0.034815
1020.636820	0.034383
1020.806482	0.033099
1020.976126	0.032791
1021.145752	0.033526
1021.315359	0.035920
1021.484948	0.034280
1021.654519	0.035764
1021.824072	0.033943
1021.993607	0.034179
1022.163123	0.034678
1022.332621	0.036013
1022.502101	0.035791
1022.671563	0.035572
1022.841007	0.034925
1023.010432	0.035237
1023.179839	0.035714
1023.349228	0.035677
1023.518598	0.035188
1023.687951	0.033947
1023.857285	0.034092
1024.026601	0.033776
1024.195899	0.033491
1024.365178	0.033289
1024.534439	0.033816
1024.703682	0.033615
1024.872907	0.034219
1025.042114	0.035401
1025.211302	0.036127
1025.380472	0.034409
1025.549624	0.034865
1025.718758	0.035217
1025.887873	0.035970
1026.056970	0.035642
1026.226049	0.035305
1026.395110	0.036944
1026.564153	0.035161
1026.733177	0.033764
1026.902183	0.035033
1027.071171	0.035894
1027.240141	0.035776
1027.409092	0.033461
1027.578026	0.033235
1027.746940	0.032687
1027.915837	0.032481
1028.084716	0.032756
1028.253576	0.032999
1028.422418	0.033248
1028.591242	0.031654
1028.760048	0.030744
1028.928835	0.033230
1029.097604	0.035832
1029.266355	0.035505
1029.435088	0.033218
1029.603803	0.033830
1029.772499	0.033805
1029.941177	0.033547
1030.109837	0.034231
1030.278478	0.035076
1030.447102	0.033215
1030.615707	0.031213
1030.784294	0.031046
1030.952863	0.032703
1031.121413	0.034278
1031.289945	0.033384
1031.458460	0.032525
1031.626955	0.032833
1031.795433	0.032974
1031.963892	0.033498
1032.132334	0.033618
1032.300756	0.034435
1032.469161	0.033671
1032.637548	0.031966
1032.805916	0.033017
1032.974266	0.031943
1033.142598	0.031951
1033.310911	0.031772
1033.479207	0.032344
1033.647484	0.032607
1033.815743	0.030975
1033.983983	0.031778
1034.152206	0.032709
1034.320410	0.032495
1034.488596	0.034182
1034.656764	0.034002
1034.824914	0.033910
1034.993045	0.034370
1035.161158	0.034386
1035.329253	0.035330
1035.497330	0.036344
1035.665388	0.036308
1035.833428	0.037056
1036.001450	0.037598
1036.169454	0.037236
1036.337440	0.036334
1036.505407	0.035536
1036.673356	0.036188
1036.841287	0.036872
1037.009200	0.036251
1037.177094	0.036548
1037.344970	0.035784
1037.512828	0.033274
1037.680668	0.034777
1037.848489	0.035631
1038.016293	0.036300
1038.184078	0.035242
1038.351845	0.034525
1038.519593	0.034409
1038.687324	0.033589
1038.855036	0.034466
1039.022730	0.035479
1039.190406	0.034826
1039.358063	0.035833
1039.525702	0.035503
1039.693323	0.035303
1039.860926	0.037428
1040.028511	0.036202
1040.196077	0.036326
1040.363625	0.035664
1040.531155	0.036319
1040.698667	0.036237
1040.866161	0.036692
1041.033636	0.036122
1041.201093	0.035919
1041.368532	0.034510
1041.535952	0.035259
1041.703355	0.034414
1041.870739	0.033172
1042.038105	0.032556
1042.205452	0.032093
1042.372782	0.029907
1042.540093	0.029191
1042.707386	0.029324
1042.874661	0.028214
1043.041918	0.027993
1043.209156	0.028166
1043.376376	0.029943
1043.543578	0.029591
1043.710762	0.029060
1043.877927	0.030561
1044.045074	0.030495
1044.212203	0.031075
1044.379314	0.033369
1044.546407	0.032320
1044.713481	0.033625
1044.880537	0.032454
1045.047575	0.033826
1045.214595	0.033292
1045.381596	0.033506
1045.548579	0.033322
1045.715544	0.032780
1045.882491	0.029597
1046.049420	0.030679
1046.216330	0.029224
1046.383222	0.028158
1046.550096	0.028132
1046.716951	0.027596
1046.883789	0.026554
1047.050608	0.027880
1047.217409	0.028272
1047.384192	0.031391
1047.550956	0.031850
1047.717703	0.033003
1047.884431	0.035158
1048.051140	0.034840
1048.217832	0.037105
1048.384505	0.036562
1048.551161	0.035708
1048.717798	0.035440
1048.884416	0.031557
1049.051017	0.032350
1049.217599	0.031174
1049.384163	0.031302
1049.550709	0.033998
1049.717237	0.033482
1049.883746	0.034891
1050.050237	0.035265
1050.216710	0.036267
1050.383165	0.039482
1050.549601	0.038688
1050.716019	0.040201
1050.882420	0.039946
1051.048801	0.038538
1051.215165	0.036756
1051.381510	0.035234
1051.547837	0.035349
1051.714146	0.035204
1051.880437	0.035539
1052.046709	0.034697
1052.212964	0.035059
1052.379200	0.035197
1052.545417	0.033545
1052.711617	0.033809
1052.877798	0.035014
1053.043961	0.034567
1053.210106	0.035245
1053.376233	0.034375
1053.542341	0.033525
1053.708432	0.032108
1053.874504	0.031249
1054.040557	0.032760
1054.206593	0.034198
1054.372610	0.032976
1054.538609	0.032848
1054.704590	0.031774
1054.870553	0.030413
1055.036497	0.031586
1055.202424	0.031814
1055.368331	0.032847
1055.534221	0.031691
1055.700093	0.030773
1055.865946	0.031392
1056.031781	0.031855
1056.197598	0.032383
1056.363397	0.033250
1056.529177	0.033118
1056.694939	0.032741
1056.860683	0.032031
1057.026409	0.031862
1057.192116	0.033702
1057.357806	0.034053
1057.523477	0.033240
1057.689130	0.032752
1057.854764	0.034411
1058.020381	0.034024
1058.185979	0.034204
1058.351559	0.033656
1058.517120	0.034604
1058.682664	0.033825
1058.848189	0.033939
1059.013696	0.035149
1059.179185	0.033613
1059.344656	0.030458
1059.510108	0.030636
1059.675542	0.030900
1059.840958	0.031489
1060.006356	0.029577
1060.171735	0.028144
1060.337096	0.027644
1060.502439	0.026938
1060.667764	0.028671
1060.833071	0.030720
1060.998359	0.031413
1061.163629	0.030017
1061.328881	0.029211
1061.494115	0.029708
1061.659330	0.031762
1061.824527	0.032611
1061.989706	0.032012
1062.154867	0.030225
1062.320010	0.028715
1062.485134	0.027146
1062.650240	0.029348
1062.815328	0.029257
1062.980398	0.030652
1063.145449	0.029051
1063.310482	0.027360
1063.475497	0.027397
1063.640494	0.029611
1063.805473	0.031133
1063.970433	0.031866
1064.135375	0.032290
1064.300299	0.033947
1064.465204	0.034338
1064.630092	0.033907
1064.794961	0.035846
1064.959812	0.037277
1065.124645	0.036573
1065.289459	0.033867
1065.454256	0.034047
1065.619034	0.032971
1065.783793	0.031113
1065.948535	0.029821
1066.113258	0.029870
1066.277964	0.028883
1066.442651	0.027740
1066.607319	0.027828
1066.771970	0.029733
1066.936602	0.031124
1067.101216	0.030471
1067.265812	0.030864
1067.430389	0.029074
1067.594949	0.032426
1067.759490	0.032992
1067.924013	0.034241
1068.088518	0.035528
1068.253004	0.034735
1068.417472	0.033987
1068.581922	0.034858
1068.746354	0.035036
1068.910768	0.036271
1069.075163	0.034436
1069.239540	0.032609
1069.403899	0.030529
1069.568240	0.030176
1069.732562	0.031151
1069.896866	0.032424
1070.061152	0.030276
1070.225420	0.030941
1070.389670	0.031528
1070.553901	0.031910
1070.718114	0.031967
1070.882309	0.034500
1071.046486	0.032757
1071.210644	0.033363
1071.374784	0.032536
1071.538906	0.035401
1071.703010	0.036039
1071.867096	0.033945
1072.031163	0.035144
1072.195212	0.037845
1072.359243	0.036292
1072.523256	0.036963
1072.687250	0.035808
1072.851226	0.036954
1073.015184	0.034147
1073.179124	0.032611
1073.343045	0.034732
1073.506949	0.032018
1073.670834	0.030333
1073.834701	0.032959
1073.998549	0.033867
1074.162380	0.034750
1074.326192	0.034800
1074.489986	0.036976
1074.653761	0.038339
1074.817519	0.038983
1074.981258	0.041003
1075.144979	0.041875
1075.308682	0.039814
1075.472367	0.039132
1075.636033	0.040602
1075.799681	0.039393
1075.963311	0.039049
1076.126923	0.039645
1076.290516	0.039460
1076.454092	0.038168
1076.617649	0.038552
1076.781187	0.037564
1076.944708	0.037063
1077.108210	0.033842
1077.271695	0.033211
1077.435160	0.033129
1077.598608	0.031581
1077.762038	0.032657
1077.925449	0.033713
1078.088842	0.033042
1078.252217	0.035209
1078.415573	0.035585
1078.578912	0.036786
1078.742232	0.035891
1078.905534	0.035941
1079.068817	0.037318
1079.232083	0.036718
1079.395330	0.037188
1079.558559	0.035885
1079.721770	0.034101
1079.884962	0.033960
1080.048136	0.033803
1080.211293	0.034228
1080.374430	0.032632
1080.537550	0.031250
1080.700651	0.030882
1080.863735	0.028818
1081.026800	0.032041
1081.189846	0.032493
1081.352875	0.032473
1081.515885	0.033670
1081.678877	0.034014
1081.841851	0.035389
1082.004807	0.036579
1082.167744	0.036019
1082.330663	0.035771
1082.493564	0.033499
1082.656447	0.032858
1082.819312	0.033435
1082.982158	0.031555
1083.144986	0.030848
1083.307796	0.031044
1083.470587	0.030038
1083.633361	0.028427
1083.796116	0.028110
1083.958853	0.027718
1084.121571	0.029149
1084.284272	0.030859
1084.446954	0.030648
1084.609618	0.031790
1084.772264	0.033708
1084.934892	0.034131
1085.097501	0.035805
1085.260092	0.035354
1085.422665	0.036567
1085.585220	0.037464
1085.747756	0.035070
1085.910274	0.035237
1086.072774	0.033586
1086.235256	0.032770
1086.397720	0.030942
1086.560165	0.029545
1086.722592	0.031345
1086.885001	0.032224
1087.047392	0.032168
1087.209764	0.032381
1087.372119	0.034385
1087.534455	0.036929
1087.696772	0.034120
1087.859072	0.034483
1088.021353	0.035989
1088.183616	0.039283
1088.345861	0.039621
1088.508088	0.037618
1088.670296	0.035663
1088.832486	0.033923
1088.994658	0.034348
1089.156812	0.038311
1089.318948	0.038201
1089.481065	0.038242
1089.643164	0.035837
1089.805245	0.034558
1089.967308	0.034646
1090.129352	0.037359
1090.291378	0.037872
1090.453386	0.036111
1090.615376	0.032858
1090.777347	0.036112
1090.939301	0.035120
1091.101236	0.033702
1091.263153	0.031559
1091.425051	0.031981
1091.586932	0.031901
1091.748794	0.034443
1091.910638	0.035259
1092.072463	0.037423
1092.234271	0.035726
1092.396060	0.035110
1092.557831	0.036002
1092.719584	0.040379
1092.881319	0.042255
1093.043035	0.041370
1093.204733	0.038206
1093.366413	0.036313
1093.528075	0.034624
1093.689718	0.034342
1093.851343	0.038170
1094.012950	0.035937
1094.174539	0.033318
1094.336110	0.028255
1094.497662	0.028386
1094.659196	0.028471
1094.820712	0.027679
1094.982210	0.025462
1095.143689	0.023601
1095.305151	0.021486
1095.466594	0.022892
1095.628018	0.023041
1095.789425	0.025492
1095.950813	0.026333
1096.112183	0.027864
1096.273535	0.030771
1096.434869	0.032910
1096.596184	0.031905
1096.757482	0.031511
1096.918761	0.030713
1097.080021	0.028818
1097.241264	0.031927
1097.402488	0.031713
1097.563694	0.030611
1097.724882	0.032063
1097.886052	0.033430
1098.047203	0.035608
1098.208336	0.037515
1098.369451	0.040605
1098.530548	0.045450
1098.691627	0.043401
1098.852687	0.042817
1099.013729	0.044206
1099.174753	0.044550
1099.335758	0.041565
1099.496746	0.044401
1099.657715	0.046649
1099.818666	0.044360
1099.979599	0.039728
1100.140513	0.039289
1100.301409	0.037743
1100.462287	0.035294
1100.623147	0.033742
1100.783989	0.034635
1100.944812	0.031274
1101.105617	0.029484
1101.266404	0.028047
1101.427173	0.031884
1101.587923	0.031234
1101.748656	0.028887
1101.909370	0.029462
1102.070066	0.025688
1102.230743	0.025909
1102.391403	0.028746
1102.552044	0.023946
1102.712667	0.022896
1102.873271	0.015543
1103.033858	0.015466
1103.194426	0.019190
1103.354976	0.021836
1103.515508	0.024605
1103.676021	0.024899
1103.836517	0.025602
1103.996994	0.026677
1104.157453	0.028031
1104.317893	0.034121
1104.478316	0.033401
1104.638720	0.035693
1104.799106	0.034224
1104.959474	0.032876
1105.119823	0.034096
1105.280155	0.035301
1105.440468	0.034618
1105.600763	0.037460
1105.761039	0.035852
1105.921298	0.040865
1106.081538	0.034694
1106.241760	0.035850
1106.401964	0.037131
1106.562149	0.038099
1106.722316	0.030824
1106.882465	0.034123
1107.042596	0.031169
1107.202709	0.028804
1107.362803	0.022073
1107.522879	0.028583
1107.682937	0.028981
1107.842977	0.032210
1108.002999	0.029716
1108.163002	0.033441
1108.322987	0.032874
1108.482954	0.034479
1108.642902	0.039633
1108.802833	0.042268
1108.962745	0.040777
1109.122639	0.039939
1109.282515	0.036386
1109.442372	0.039399
1109.602211	0.036602
1109.762032	0.037098
1109.921835	0.038092
1110.081620	0.037866
1110.241386	0.035859
1110.401134	0.034208
1110.560864	0.031968
1110.720576	0.032415
1110.880269	0.033068
1111.039945	0.037140
1111.199602	0.036561
1111.359240	0.034224
1111.518861	0.030568
1111.678463	0.032414
1111.838047	0.033561
1111.997613	0.029069
1112.157161	0.027269
1112.316690	0.025998
1112.476202	0.026510
1112.635695	0.029701
1112.795169	0.031123
1112.954626	0.032723
1113.114064	0.037461
1113.273484	0.035376
1113.432886	0.042936
1113.592270	0.045477
1113.751635	0.044907
1113.910983	0.045134
1114.070312	0.039571
1114.229622	0.040427
1114.388915	0.041128
1114.548189	0.033854
1114.707445	0.034013
1114.866683	0.034525
1115.025903	0.035999
1115.185104	0.033703
1115.344287	0.029981
1115.503452	0.036345
1115.662599	0.037458
1115.821727	0.040729
1115.980838	0.042009
1116.139930	0.041006
1116.299004	0.036310
1116.458059	0.035818
1116.617097	0.036165
1116.776116	0.034830
1116.935117	0.032110
1117.094099	0.033905
1117.253064	0.029920
1117.412010	0.036289
1117.570938	0.039395
1117.729848	0.044022
1117.888740	0.044651
1118.047613	0.042960
1118.206468	0.042087
1118.365305	0.041975
1118.524124	0.039066
1118.682924	0.043051
1118.841707	0.038363
1119.000471	0.036678
1119.159216	0.036949
1119.317944	0.034980
1119.476653	0.036322
1119.635344	0.040147
1119.794017	0.041196
1119.952672	0.041079
1120.111308	0.044281
1120.269927	0.043913
1120.428527	0.044564
1120.587108	0.045720
1120.745672	0.045553
1120.904217	0.046689
1121.062744	0.045873
1121.221253	0.045257
1121.379744	0.038917
1121.538216	0.033234
1121.696671	0.041576
1121.855107	0.040504
1122.013524	0.038288
1122.171924	0.044422
1122.330305	0.044920
1122.488668	0.046172
1122.647013	0.043845
1122.805340	0.052605
1122.963648	0.051847
1123.121938	0.038597
1123.280210	0.046744
1123.438464	0.049397
1123.596700	0.043678
1123.754917	0.042526
1123.913116	0.045747
1124.071297	0.046786
1124.229459	0.041386
1124.387604	0.041234
1124.545730	0.049543
1124.703838	0.045282
1124.861928	0.041738
1125.019999	0.040281
1125.178052	0.041385
1125.336088	0.041906
1125.494104	0.034983
1125.652103	0.033092
1125.810083	0.034977
1125.968045	0.035433
1126.125989	0.035340
1126.283915	0.038748
1126.441823	0.035421
1126.599712	0.038432
1126.757583	0.032336
1126.915436	0.040949
1127.073270	0.051114
1127.231087	0.046573
1127.388885	0.043410
1127.546665	0.036842
1127.704426	0.028528
1127.862170	0.034071
1128.019895	0.034438
1128.177602	0.036378
1128.335291	0.035328
1128.492961	0.036189
1128.650614	0.038539
1128.808248	0.036636
1128.965864	0.043913
1129.123461	0.048932
1129.281041	0.044436
1129.438602	0.046764
1129.596145	0.050432
1129.753670	0.048549
1129.911176	0.039178
1130.068665	0.037696
1130.226135	0.039869
1130.383587	0.034853
1130.541020	0.038420
1130.698436	0.039115
1130.855833	0.033214
1131.013212	0.029595
1131.170573	0.029851
1131.327915	0.033799
1131.485239	0.033256
1131.642545	0.038060
1131.799833	0.041021
1131.957103	0.037305
1132.114354	0.043290
1132.271588	0.048027
1132.428803	0.050029
1132.585999	0.052706
1132.743178	0.047706
1132.900338	0.050762
1133.057480	0.049073
1133.214604	0.050382
1133.371710	0.055093
1133.528797	0.046812
1133.685866	0.042334
1133.842917	0.044663
1133.999950	0.048177
1134.156964	0.053419
1134.313960	0.049228
1134.470938	0.047229
1134.627898	0.045448
1134.784840	0.032581
1134.941763	0.038749
1135.098668	0.036760
1135.255555	0.034894
1135.412424	0.032688
1135.569274	0.028860
1135.726107	0.029852
1135.882921	0.026420
1136.039716	0.022618
1136.196494	0.035380
1136.353253	0.034471
1136.509995	0.039921
1136.666717	0.041105
1136.823422	0.035717
1136.980109	0.039502
1137.136777	0.041399
1137.293427	0.050335
1137.450059	0.054684
1137.606672	0.051901
1137.763267	0.053522
1137.919844	0.048670
1138.076403	0.051432
1138.232944	0.056972
1138.389466	0.056152
1138.545971	0.059911
1138.702457	0.054433
1138.858924	0.055778
1139.015374	0.059117
1139.171805	0.061467
1139.328218	0.068532
1139.484613	0.065162
1139.640990	0.067393
1139.797348	0.067564
1139.953688	0.057847
1140.110010	0.056126
1140.266314	0.053710
1140.422600	0.049843
1140.578867	0.045932
1140.735116	0.045352
1140.891347	0.049958
1141.047559	0.045667
1141.203754	0.046797
1141.359930	0.050247
1141.516088	0.049905
1141.672228	0.049705
1141.828349	0.050316
1141.984452	0.047214
1142.140537	0.046334
1142.296604	0.044641
1142.452653	0.047570
1142.608683	0.052865
1142.764695	0.058238
1142.920689	0.057731
1143.076665	0.060635
1143.232622	0.052700
1143.388562	0.057204
1143.544483	0.055919
1143.700385	0.049326
1143.856270	0.052796
1144.012136	0.042749
1144.167985	0.047087
1144.323814	0.049386
1144.479626	0.051654
1144.635420	0.060937
1144.791195	0.057463
1144.946952	0.057295
1145.102691	0.061855
1145.258411	0.054214
1145.414113	0.058144
1145.569798	0.060373
1145.725463	0.062915
1145.881111	0.057715
1146.036741	0.055341
1146.192352	0.067558
1146.347945	0.070720
1146.503519	0.072005
1146.659076	0.066782
1146.814614	0.069272
1146.970134	0.062043
1147.125636	0.065691
1147.281120	0.061304
1147.436585	0.061770
1147.592032	0.060409
1147.747461	0.051978
1147.902872	0.051256
1148.058265	0.060817
1148.213639	0.060260
1148.368995	0.068094
1148.524333	0.062959
1148.679653	0.076064
1148.834954	0.071281
1148.990237	0.056635
1149.145502	0.058182
1149.300749	0.055391
1149.455977	0.055939
1149.611188	0.050461
1149.766380	0.049413
1149.921553	0.044068
1150.076709	0.030838
1150.231846	0.034036
1150.386966	0.041528
1150.542066	0.045671
1150.697149	0.037612
1150.852214	0.036092
1151.007260	0.037728
1151.162288	0.039576
1151.317298	0.043588
1151.472289	0.058576
1151.627263	0.067983
1151.782218	0.079795
1151.937155	0.077037
1152.092073	0.090304
1152.246974	0.087797
1152.401856	0.086898
1152.556720	0.071664
1152.711566	0.073630
1152.866393	0.067987
1153.021203	0.056466
1153.175994	0.040828
1153.330767	0.044791
1153.485521	0.046238
1153.640258	0.043023
1153.794976	0.039345
1153.949676	0.044215
1154.104358	0.047715
1154.259021	0.052966
1154.413667	0.050925
1154.568294	0.062124
1154.722903	0.062666
1154.877493	0.058009
1155.032066	0.075187
1155.186620	0.085779
1155.341156	0.095243
1155.495674	0.079271
1155.650173	0.073329
1155.804654	0.067429
1155.959118	0.056486
1156.113562	0.054092
1156.267989	0.062166
1156.422397	0.048947
1156.576788	0.053392
1156.731160	0.041304
1156.885513	0.052570
1157.039849	0.044352
1157.194166	0.065826
1157.348465	0.075601
1157.502746	0.061859
1157.657009	0.068425
1157.811253	0.068548
1157.965479	0.058140
1158.119687	0.061386
1158.273877	0.062472
1158.428048	0.074892
1158.582201	0.055442
1158.736337	0.057390
1158.890453	0.081115
1159.044552	0.048091
1159.198632	0.051528
1159.352694	0.054531
1159.506738	0.055539
1159.660764	0.047491
1159.814771	0.045793
1159.968761	0.060825
1160.122732	0.058896
1160.276685	0.045558
1160.430619	0.073231
1160.584535	0.071830
1160.738434	0.065085
1160.892313	0.068668
1161.046175	0.068742
1161.200019	0.066090
1161.353844	0.063054
1161.507651	0.042345
1161.661440	0.052113
1161.815210	0.030767
1161.968962	0.019446
1162.122697	0.028322
1162.276412	0.025806
1162.430110	0.039322
1162.583789	0.038540
1162.737451	0.035413
1162.891094	0.051530
1163.044718	0.038657
1163.198325	0.052998
1163.351913	0.052799
1163.505483	0.044230
1163.659035	0.038106
1163.812569	0.036162
1163.966084	0.046486
1164.119581	0.056404
1164.273060	0.052962
1164.426521	0.065152
1164.579964	0.057408
1164.733388	0.064700
1164.886794	0.085222
1165.040182	0.085429
1165.193551	0.070709
1165.346903	0.064694
1165.500236	0.048906
1165.653551	0.052306
1165.806848	0.034966
1165.960126	0.025890
1166.113386	0.020506
1166.266628	0.012440
1166.419852	0.036914
1166.573058	0.029285
1166.726245	0.017872
1166.879414	0.042733
1167.032565	0.048867
1167.185698	0.069784
1167.338812	0.093395
1167.491909	0.087319
1167.644987	0.065367
1167.798046	0.059969
1167.951088	0.069592
1168.104111	0.075041
1168.257117	0.049668
1168.410103	0.031003
1168.563072	0.019644
1168.716023	0.016915
1168.868955	0.022920
1169.021869	0.042407
1169.174765	0.007527
1169.327642	0.022425
1169.480501	0.021496
1169.633343	0.016462
1169.786165	0.025984
1169.938970	0.030539
1170.091757	0.025234
1170.244525	0.034665
1170.397275	0.032177
1170.550007	0.044009
1170.702720	0.021691
1170.855415	0.020763
1171.008092	0.041506
1171.160751	0.050517
1171.313392	0.058403
1171.466014	0.027349
1171.618619	0.167635
1171.771205	0.167635
1171.923772	0.167635
