sample name	sample
index	561
start time	 03-16-2021  02:18:53 PM


Wavelength (nm)	Absorbance
494.344910	0.056117
494.563924	0.056117
494.782919	0.056117
495.001897	-0.139726
495.220856	-0.070548
495.439797	-0.084950
495.658719	-0.092185
495.877624	-0.096653
496.096510	-0.096195
496.315378	-0.073098
496.534227	-0.087949
496.753059	-0.041021
496.971872	-0.033190
497.190667	-0.000337
497.409444	0.006770
497.628203	0.009076
497.846943	0.007392
498.065665	0.007222
498.284369	0.007183
498.503055	0.006760
498.721723	0.006327
498.940372	0.006174
499.159003	0.005574
499.377616	0.005171
499.596210	0.004064
499.814787	0.005166
500.033345	0.006263
500.251885	0.006695
500.470406	0.006535
500.688910	0.006255
500.907395	0.005776
501.125862	0.006491
501.344311	0.005779
501.562742	0.006302
501.781154	0.005671
501.999548	0.005111
502.217924	0.005253
502.436282	0.004642
502.654621	0.004857
502.872942	0.004862
503.091245	0.004483
503.309530	0.004590
503.527797	0.003728
503.746045	0.003363
503.964275	0.004434
504.182487	0.004118
504.400681	0.005400
504.618856	0.005677
504.837013	0.005429
505.055152	0.005478
505.273273	0.006002
505.491376	0.007034
505.709460	0.007191
505.927526	0.006297
506.145574	0.006281
506.363604	0.006206
506.581615	0.005805
506.799608	0.007128
507.017583	0.008394
507.235540	0.007665
507.453478	0.007898
507.671399	0.007428
507.889301	0.006229
508.107185	0.006274
508.325050	0.006276
508.542898	0.006258
508.760727	0.005767
508.978538	0.004382
509.196330	0.005200
509.414105	0.004015
509.631861	0.004232
509.849599	0.005636
510.067319	0.004648
510.285021	0.004545
510.502704	0.004689
510.720369	0.003578
510.938016	0.004477
511.155645	0.004531
511.373255	0.003987
511.590848	0.004724
511.808422	0.003723
512.025977	0.003678
512.243515	0.003101
512.461034	0.003725
512.678536	0.004428
512.896018	0.004166
513.113483	0.003910
513.330930	0.004569
513.548358	0.003911
513.765768	0.004624
513.983160	0.004576
514.200533	0.004326
514.417889	0.003288
514.635226	0.003220
514.852545	0.002927
515.069845	0.003338
515.287128	0.003633
515.504392	0.004015
515.721638	0.003667
515.938866	0.004271
516.156075	0.005297
516.373267	0.005789
516.590440	0.005594
516.807594	0.006749
517.024731	0.006394
517.241850	0.006480
517.458950	0.005573
517.676032	0.005588
517.893095	0.005196
518.110141	0.004315
518.327168	0.003668
518.544177	0.003717
518.761168	0.003158
518.978141	0.002846
519.195095	0.002302
519.412031	0.002525
519.628949	0.002320
519.845849	0.002439
520.062731	0.002212
520.279594	0.002315
520.496439	0.002907
520.713266	0.002146
520.930074	0.002654
521.146865	0.002920
521.363637	0.003142
521.580391	0.003533
521.797127	0.003265
522.013844	0.004011
522.230543	0.004476
522.447224	0.004006
522.663887	0.004715
522.880532	0.004903
523.097158	0.005477
523.313766	0.005461
523.530356	0.004824
523.746928	0.005205
523.963481	0.005042
524.180017	0.004900
524.396534	0.005272
524.613032	0.004625
524.829513	0.003306
525.045975	0.003119
525.262420	0.003449
525.478845	0.003916
525.695253	0.003384
525.911643	0.003581
526.128014	0.003595
526.344367	0.003304
526.560702	0.003582
526.777018	0.004768
526.993316	0.004718
527.209597	0.004632
527.425858	0.004741
527.642102	0.005294
527.858328	0.004855
528.074535	0.004667
528.290724	0.004992
528.506894	0.005127
528.723047	0.005325
528.939181	0.005121
529.155297	0.005274
529.371395	0.005265
529.587475	0.005004
529.803536	0.005428
530.019579	0.005216
530.235604	0.005108
530.451611	0.005046
530.667600	0.004930
530.883570	0.005219
531.099522	0.005177
531.315456	0.004913
531.531372	0.005495
531.747269	0.005533
531.963148	0.005456
532.179009	0.005268
532.394852	0.005375
532.610676	0.004913
532.826482	0.005411
533.042271	0.005493
533.258040	0.005240
533.473792	0.004964
533.689525	0.004182
533.905240	0.004918
534.120937	0.004808
534.336616	0.004477
534.552277	0.004448
534.767919	0.003325
534.983543	0.002991
535.199149	0.003657
535.414736	0.003209
535.630306	0.003389
535.845857	0.002900
536.061390	0.003209
536.276904	0.002971
536.492401	0.003411
536.707879	0.004080
536.923339	0.003867
537.138781	0.003236
537.354204	0.003071
537.569610	0.002822
537.784997	0.002975
538.000366	0.002574
538.215716	0.002970
538.431049	0.002623
538.646363	0.002084
538.861659	0.002607
539.076937	0.003160
539.292196	0.004080
539.507438	0.004437
539.722661	0.004707
539.937866	0.004811
540.153052	0.004674
540.368221	0.004395
540.583371	0.004507
540.798503	0.004516
541.013617	0.004232
541.228712	0.003392
541.443789	0.003559
541.658848	0.003050
541.873889	0.002979
542.088912	0.002710
542.303916	0.002920
542.518902	0.002948
542.733870	0.002856
542.948820	0.003651
543.163752	0.003763
543.378665	0.003571
543.593560	0.003742
543.808437	0.004058
544.023295	0.004238
544.238136	0.004499
544.452958	0.004579
544.667762	0.004690
544.882548	0.004068
545.097315	0.004185
545.312064	0.004412
545.526795	0.004315
545.741508	0.004211
545.956203	0.004350
546.170879	0.004001
546.385537	0.003504
546.600177	0.002961
546.814799	0.002472
547.029402	0.002208
547.243988	0.002003
547.458555	0.002140
547.673103	0.002089
547.887634	0.001655
548.102146	0.001634
548.316640	0.001990
548.531116	0.002346
548.745574	0.003145
548.960013	0.003391
549.174435	0.003547
549.388838	0.003979
549.603222	0.004081
549.817589	0.004545
550.031937	0.004573
550.246267	0.004926
550.460579	0.004479
550.674873	0.003939
550.889148	0.004044
551.103405	0.004158
551.317644	0.003196
551.531865	0.002928
551.746068	0.002883
551.960252	0.002964
552.174418	0.002739
552.388566	0.003077
552.602696	0.002919
552.816807	0.002935
553.030900	0.002877
553.244975	0.003144
553.459032	0.003369
553.673070	0.003550
553.887091	0.003640
554.101093	0.003603
554.315077	0.003311
554.529042	0.003168
554.742990	0.003375
554.956919	0.003145
555.170830	0.003294
555.384722	0.002883
555.598597	0.002723
555.812453	0.002861
556.026291	0.003029
556.240111	0.003418
556.453913	0.004123
556.667696	0.004163
556.881461	0.004313
557.095208	0.004330
557.308937	0.005196
557.522647	0.004931
557.736339	0.004515
557.950013	0.004261
558.163669	0.004441
558.377307	0.004130
558.590926	0.003868
558.804527	0.004094
559.018110	0.004537
559.231675	0.004482
559.445221	0.004643
559.658749	0.004537
559.872259	0.004118
560.085751	0.003636
560.299225	0.003391
560.512680	0.003170
560.726117	0.003171
560.939536	0.002773
561.152937	0.002261
561.366319	0.002499
561.579683	0.002789
561.793029	0.003198
562.006357	0.003638
562.219667	0.003657
562.432958	0.003697
562.646231	0.003084
562.859486	0.003019
563.072723	0.003204
563.285941	0.003213
563.499141	0.003480
563.712323	0.003705
563.925487	0.003435
564.138632	0.003917
564.351760	0.004150
564.564869	0.004329
564.777960	0.004364
564.991032	0.004312
565.204087	0.004202
565.417123	0.003709
565.630141	0.003794
565.843140	0.003637
566.056122	0.004042
566.269085	0.004245
566.482030	0.004535
566.694957	0.004606
566.907866	0.004481
567.120756	0.004206
567.333628	0.004499
567.546482	0.004310
567.759318	0.004722
567.972135	0.003737
568.184935	0.003496
568.397716	0.003131
568.610478	0.002999
568.823223	0.002994
569.035949	0.003436
569.248657	0.003168
569.461347	0.003198
569.674019	0.002913
569.886672	0.003558
570.099308	0.003478
570.311925	0.003923
570.524523	0.003894
570.737104	0.003571
570.949666	0.003180
571.162210	0.003294
571.374736	0.003218
571.587244	0.003577
571.799733	0.003253
572.012205	0.003329
572.224658	0.003339
572.437092	0.003665
572.649509	0.004082
572.861907	0.004159
573.074287	0.004095
573.286649	0.004225
573.498993	0.004117
573.711318	0.004130
573.923625	0.004013
574.135914	0.003723
574.348185	0.003473
574.560438	0.003264
574.772672	0.003389
574.984888	0.003745
575.197086	0.003720
575.409266	0.003453
575.621427	0.003552
575.833570	0.003741
576.045695	0.003896
576.257802	0.004276
576.469890	0.004690
576.681961	0.004690
576.894013	0.004548
577.106046	0.004931
577.318062	0.005094
577.530059	0.005088
577.742039	0.005282
577.954000	0.005059
578.165942	0.004657
578.377867	0.004266
578.589773	0.004262
578.801661	0.003981
579.013531	0.003647
579.225382	0.003465
579.437216	0.003449
579.649031	0.003078
579.860828	0.003457
580.072606	0.003679
580.284367	0.003846
580.496109	0.003678
580.707833	0.003911
580.919539	0.003755
581.131227	0.003946
581.342896	0.004098
581.554547	0.004084
581.766180	0.003596
581.977795	0.003490
582.189391	0.003359
582.400969	0.003020
582.612529	0.002921
582.824071	0.002715
583.035595	0.002727
583.247100	0.002761
583.458587	0.002713
583.670056	0.002964
583.881506	0.002966
584.092939	0.003136
584.304353	0.003375
584.515749	0.003398
584.727127	0.003907
584.938486	0.003997
585.149828	0.003608
585.361151	0.003675
585.572456	0.003556
585.783742	0.003361
585.995011	0.003423
586.206261	0.003926
586.417493	0.003979
586.628706	0.003916
586.839902	0.003986
587.051079	0.004170
587.262238	0.004473
587.473379	0.004259
587.684502	0.004276
587.895606	0.003968
588.106692	0.003718
588.317760	0.003649
588.528810	0.003550
588.739841	0.003250
588.950855	0.003438
589.161850	0.003033
589.372827	0.003647
589.583785	0.003995
589.794726	0.004340
590.005648	0.004591
590.216552	0.004510
590.427437	0.004429
590.638305	0.004350
590.849154	0.004194
591.059985	0.004407
591.270798	0.004106
591.481592	0.003768
591.692369	0.003555
591.903127	0.003175
592.113867	0.003054
592.324588	0.003111
592.535292	0.003080
592.745977	0.002961
592.956644	0.002888
593.167293	0.003026
593.377923	0.003314
593.588536	0.003211
593.799130	0.003489
594.009706	0.003833
594.220263	0.003533
594.430803	0.003818
594.641324	0.003738
594.851827	0.003765
595.062312	0.003617
595.272778	0.003751
595.483227	0.003912
595.693657	0.003896
595.904069	0.003956
596.114462	0.004241
596.324838	0.004286
596.535195	0.004237
596.745534	0.004210
596.955855	0.004144
597.166157	0.004277
597.376441	0.004237
597.586707	0.004037
597.796955	0.003806
598.007185	0.003627
598.217396	0.003385
598.427589	0.003575
598.637764	0.003640
598.847921	0.003870
599.058060	0.003415
599.268180	0.003460
599.478282	0.003549
599.688366	0.003630
599.898431	0.003856
600.108479	0.003911
600.318508	0.004003
600.528519	0.004098
600.738511	0.003878
600.948486	0.003913
601.158442	0.004045
601.368380	0.003941
601.578300	0.003833
601.788202	0.004022
601.998085	0.003861
602.207950	0.003738
602.417797	0.003870
602.627626	0.003895
602.837436	0.003656
603.047228	0.003358
603.257002	0.003528
603.466758	0.003548
603.676496	0.003427
603.886215	0.003798
604.095916	0.003724
604.305599	0.003655
604.515264	0.003866
604.724910	0.004188
604.934538	0.004566
605.144148	0.004423
605.353740	0.004247
605.563314	0.004216
605.772869	0.004125
605.982406	0.004221
606.191925	0.004344
606.401425	0.004394
606.610908	0.004706
606.820372	0.004492
607.029818	0.004670
607.239246	0.004804
607.448655	0.004667
607.658047	0.004650
607.867420	0.004366
608.076775	0.004234
608.286111	0.004012
608.495430	0.003426
608.704730	0.003502
608.914012	0.003474
609.123275	0.003787
609.332521	0.004024
609.541748	0.004256
609.750957	0.004570
609.960148	0.004530
610.169321	0.004532
610.378475	0.004775
610.587611	0.004640
610.796729	0.004667
611.005829	0.004371
611.214910	0.004327
611.423974	0.004008
611.633019	0.003875
611.842045	0.003831
612.051054	0.003853
612.260044	0.003989
612.469017	0.004180
612.677970	0.004066
612.886906	0.004162
613.095824	0.003917
613.304723	0.003824
613.513604	0.003827
613.722467	0.003690
613.931311	0.003637
614.140138	0.003510
614.348946	0.003274
614.557736	0.003306
614.766507	0.003232
614.975261	0.003491
615.183996	0.003739
615.392713	0.003908
615.601412	0.004046
615.810092	0.004057
616.018754	0.004115
616.227399	0.004374
616.436024	0.004455
616.644632	0.004345
616.853222	0.004394
617.061793	0.004166
617.270346	0.004301
617.478880	0.004344
617.687397	0.004202
617.895895	0.004212
618.104375	0.004070
618.312837	0.003970
618.521281	0.004185
618.729706	0.004113
618.938113	0.004185
619.146502	0.004257
619.354873	0.004161
619.563226	0.004505
619.771560	0.004217
619.979876	0.004299
620.188174	0.004308
620.396453	0.004267
620.604715	0.004116
620.812958	0.004074
621.021183	0.003723
621.229390	0.003637
621.437578	0.003708
621.645748	0.003863
621.853900	0.003745
622.062034	0.003937
622.270150	0.004033
622.478247	0.004170
622.686326	0.004311
622.894387	0.004412
623.102430	0.004590
623.310454	0.004587
623.518461	0.004674
623.726449	0.004776
623.934418	0.004609
624.142370	0.004574
624.350303	0.004388
624.558218	0.004077
624.766115	0.004054
624.973994	0.004103
625.181855	0.003828
625.389697	0.003668
625.597521	0.003769
625.805327	0.003702
626.013114	0.003866
626.220883	0.003941
626.428634	0.004157
626.636367	0.004195
626.844082	0.004104
627.051778	0.004354
627.259457	0.004435
627.467117	0.004271
627.674758	0.004285
627.882382	0.004189
628.089987	0.004377
628.297574	0.004458
628.505143	0.004504
628.712694	0.004561
628.920226	0.004282
629.127740	0.004449
629.335236	0.004732
629.542714	0.004805
629.750174	0.004740
629.957615	0.004538
630.165038	0.004444
630.372443	0.004461
630.579829	0.004463
630.787198	0.004743
630.994548	0.004720
631.201880	0.004619
631.409194	0.004794
631.616489	0.004954
631.823766	0.005169
632.031025	0.005328
632.238266	0.005415
632.445489	0.005274
632.652693	0.005169
632.859879	0.005075
633.067047	0.005031
633.274197	0.004836
633.481329	0.004658
633.688442	0.004562
633.895537	0.004592
634.102614	0.004579
634.309672	0.004749
634.516713	0.004799
634.723735	0.004884
634.930739	0.005005
635.137724	0.004793
635.344692	0.004789
635.551641	0.004844
635.758572	0.004717
635.965485	0.004782
636.172379	0.004785
636.379256	0.004698
636.586114	0.004787
636.792954	0.004804
636.999775	0.005115
637.206579	0.005178
637.413364	0.005148
637.620131	0.005259
637.826880	0.005164
638.033610	0.005140
638.240323	0.005142
638.447017	0.005068
638.653692	0.004830
638.860350	0.004581
639.066990	0.004541
639.273611	0.004473
639.480214	0.004499
639.686798	0.004489
639.893365	0.004516
640.099913	0.004570
640.306443	0.004599
640.512955	0.004561
640.719449	0.004775
640.925924	0.004998
641.132381	0.004984
641.338820	0.005093
641.545241	0.004852
641.751644	0.004736
641.958028	0.004457
642.164394	0.004364
642.370742	0.004793
642.577071	0.004577
642.783383	0.004603
642.989676	0.004798
643.195951	0.004609
643.402207	0.004927
643.608446	0.005009
643.814666	0.005347
644.020868	0.005380
644.227052	0.004991
644.433218	0.005269
644.639365	0.004996
644.845494	0.004893
645.051605	0.005028
645.257698	0.004933
645.463772	0.004951
645.669828	0.004959
645.875866	0.005125
646.081886	0.005165
646.287888	0.005175
646.493871	0.005176
646.699836	0.005101
646.905783	0.004974
647.111712	0.004807
647.317622	0.004948
647.523514	0.004737
647.729388	0.004484
647.935244	0.004466
648.141082	0.004597
648.346901	0.004722
648.552702	0.004711
648.758485	0.004836
648.964250	0.005149
649.169996	0.004968
649.375724	0.005146
649.581434	0.005379
649.787126	0.005486
649.992800	0.005453
650.198455	0.005130
650.404092	0.005250
650.609711	0.005079
650.815311	0.004872
651.020894	0.004736
651.226458	0.004665
651.432004	0.004358
651.637532	0.004585
651.843041	0.004449
652.048532	0.004697
652.254006	0.004735
652.459460	0.004813
652.664897	0.004681
652.870315	0.004869
653.075716	0.004950
653.281097	0.005122
653.486461	0.004802
653.691807	0.004628
653.897134	0.004617
654.102443	0.004503
654.307734	0.004525
654.513006	0.004435
654.718261	0.004300
654.923497	0.004255
655.128715	0.004195
655.333915	0.004332
655.539096	0.004676
655.744259	0.004828
655.949404	0.004750
656.154531	0.004874
656.359640	0.005155
656.564730	0.005408
656.769802	0.005604
656.974856	0.005695
657.179892	0.005801
657.384909	0.005579
657.589908	0.005464
657.794889	0.005388
657.999852	0.005298
658.204797	0.005368
658.409723	0.005347
658.614631	0.005020
658.819521	0.005226
659.024393	0.005107
659.229246	0.005220
659.434081	0.005191
659.638898	0.005516
659.843697	0.005456
660.048478	0.005560
660.253240	0.005592
660.457984	0.005896
660.662710	0.005637
660.867417	0.005519
661.072107	0.005443
661.276778	0.005661
661.481431	0.005497
661.686066	0.005612
661.890682	0.005225
662.095281	0.004968
662.299861	0.004880
662.504422	0.004810
662.708966	0.005011
662.913491	0.005064
663.117999	0.004991
663.322488	0.005165
663.526958	0.004909
663.731411	0.005131
663.935845	0.005111
664.140261	0.004935
664.344659	0.004955
664.549038	0.004840
664.753400	0.004850
664.957743	0.004832
665.162068	0.004711
665.366375	0.004819
665.570663	0.004830
665.774933	0.004993
665.979185	0.005118
666.183419	0.005359
666.387635	0.005265
666.591832	0.005177
666.796011	0.005211
667.000172	0.005337
667.204315	0.005505
667.408439	0.005590
667.612545	0.005813
667.816634	0.005780
668.020703	0.005680
668.224755	0.005780
668.428788	0.005790
668.632803	0.005761
668.836800	0.005724
669.040779	0.005456
669.244739	0.005445
669.448681	0.005369
669.652605	0.005341
669.856511	0.005507
670.060399	0.005647
670.264268	0.005731
670.468119	0.005925
670.671952	0.005905
670.875767	0.006204
671.079563	0.006099
671.283341	0.005913
671.487101	0.006041
671.690843	0.005912
671.894567	0.005746
672.098272	0.005723
672.301959	0.005777
672.505628	0.005857
672.709278	0.005769
672.912911	0.005912
673.116525	0.005976
673.320121	0.006134
673.523699	0.006008
673.727258	0.005910
673.930799	0.006032
674.134322	0.005819
674.337827	0.005639
674.541314	0.005731
674.744782	0.005584
674.948232	0.005617
675.151664	0.005506
675.355078	0.005597
675.558474	0.005893
675.761851	0.005750
675.965210	0.005730
676.168551	0.005795
676.371873	0.005800
676.575178	0.005680
676.778464	0.005686
676.981732	0.005678
677.184981	0.005826
677.388213	0.005862
677.591426	0.006089
677.794621	0.006021
677.997798	0.006023
678.200956	0.005932
678.404097	0.006134
678.607219	0.006103
678.810323	0.006098
679.013408	0.006006
679.216476	0.005998
679.419525	0.005781
679.622556	0.005982
679.825569	0.006014
680.028563	0.006145
680.231540	0.006262
680.434498	0.006234
680.637438	0.006284
680.840359	0.006408
681.043263	0.006517
681.246148	0.006470
681.449015	0.006202
681.651864	0.006304
681.854694	0.006240
682.057506	0.006262
682.260301	0.006499
682.463076	0.006632
682.665834	0.006569
682.868573	0.006373
683.071295	0.006407
683.273998	0.006650
683.476682	0.006512
683.679349	0.006405
683.881997	0.006286
684.084627	0.006019
684.287239	0.005971
684.489833	0.005975
684.692408	0.006070
684.894965	0.006177
685.097504	0.006028
685.300025	0.006116
685.502527	0.006250
685.705012	0.006247
685.907478	0.006341
686.109925	0.006415
686.312355	0.006206
686.514766	0.006041
686.717159	0.006134
686.919534	0.006284
687.121891	0.006323
687.324230	0.006376
687.526550	0.006390
687.728852	0.006414
687.931136	0.006253
688.133401	0.006471
688.335649	0.006455
688.537878	0.006351
688.740089	0.006396
688.942281	0.006277
689.144456	0.006275
689.346612	0.006324
689.548750	0.006501
689.750870	0.006526
689.952971	0.006663
690.155055	0.006805
690.357120	0.006908
690.559167	0.006590
690.761195	0.006689
690.963206	0.006513
691.165198	0.006486
691.367172	0.006352
691.569128	0.006439
691.771065	0.006145
691.972984	0.006059
692.174885	0.006008
692.376768	0.006372
692.578633	0.006371
692.780479	0.006545
692.982308	0.006469
693.184118	0.006341
693.385909	0.005991
693.587683	0.005918
693.789438	0.005987
693.991175	0.005877
694.192894	0.005547
694.394595	0.005590
694.596277	0.005471
694.797941	0.005650
694.999587	0.005938
695.201215	0.006310
695.402824	0.006443
695.604416	0.006439
695.805989	0.006524
696.007543	0.006976
696.209080	0.006936
696.410598	0.006935
696.612099	0.006909
696.813580	0.006773
697.015044	0.006584
697.216490	0.006661
697.417917	0.006576
697.619326	0.006577
697.820717	0.006413
698.022089	0.006354
698.223444	0.006417
698.424780	0.006356
698.626098	0.006369
698.827397	0.006407
699.028679	0.006445
699.229942	0.006423
699.431187	0.006443
699.632414	0.006509
699.833622	0.006517
700.034813	0.006424
700.235985	0.006444
700.437139	0.006378
700.638274	0.006410
700.839392	0.006407
701.040491	0.006479
701.241572	0.006356
701.442635	0.006080
701.643679	0.006292
701.844706	0.006336
702.045714	0.006286
702.246704	0.006258
702.447675	0.006140
702.648629	0.006174
702.849564	0.006087
703.050481	0.006271
703.251380	0.006301
703.452260	0.006257
703.653122	0.006319
703.853966	0.006317
704.054792	0.006410
704.255600	0.006509
704.456389	0.006360
704.657160	0.006592
704.857913	0.006486
705.058648	0.006730
705.259365	0.006739
705.460063	0.006731
705.660743	0.006803
705.861405	0.006855
706.062048	0.006879
706.262674	0.006965
706.463281	0.006854
706.663870	0.006929
706.864441	0.006799
707.064993	0.006700
707.265527	0.006667
707.466043	0.006636
707.666541	0.006467
707.867021	0.006511
708.067482	0.006443
708.267925	0.006356
708.468350	0.006310
708.668757	0.006293
708.869145	0.006230
709.069516	0.006197
709.269868	0.006139
709.470201	0.006231
709.670517	0.006289
709.870814	0.006411
710.071093	0.006323
710.271354	0.006233
710.471597	0.006220
710.671821	0.006259
710.872028	0.006279
711.072216	0.006339
711.272385	0.006395
711.472537	0.006253
711.672670	0.006024
711.872785	0.006187
712.072882	0.006053
712.272961	0.005987
712.473021	0.005865
712.673063	0.005944
712.873087	0.005903
713.073093	0.005877
713.273081	0.005840
713.473050	0.005973
713.673001	0.006088
713.872934	0.006268
714.072849	0.006259
714.272745	0.006386
714.472623	0.006476
714.672483	0.006534
714.872325	0.006482
715.072148	0.006526
715.271954	0.006521
715.471741	0.006253
715.671509	0.006165
715.871260	0.006314
716.070992	0.006039
716.270707	0.005822
716.470403	0.005801
716.670080	0.005841
716.869740	0.005789
717.069381	0.005824
717.269004	0.005959
717.468609	0.005909
717.668195	0.006009
717.867764	0.006086
718.067314	0.005917
718.266846	0.005770
718.466360	0.005647
718.665855	0.005543
718.865332	0.005330
719.064791	0.005164
719.264232	0.005127
719.463655	0.004841
719.663059	0.004985
719.862445	0.004976
720.061813	0.004974
720.261163	0.004785
720.460494	0.004803
720.659807	0.005026
720.859102	0.005161
721.058379	0.005332
721.257638	0.005436
721.456878	0.005239
721.656100	0.005192
721.855304	0.005267
722.054490	0.005345
722.253657	0.005384
722.452806	0.005271
722.651937	0.005153
722.851050	0.004922
723.050145	0.004791
723.249221	0.004733
723.448279	0.004939
723.647319	0.004928
723.846340	0.005020
724.045344	0.004952
724.244329	0.004952
724.443296	0.004869
724.642245	0.004959
724.841175	0.004983
725.040088	0.005158
725.238982	0.005085
725.437857	0.005052
725.636715	0.004955
725.835554	0.004900
726.034376	0.004668
726.233179	0.004756
726.431963	0.004674
726.630730	0.004675
726.829478	0.004500
727.028208	0.004326
727.226920	0.004365
727.425614	0.004427
727.624289	0.004259
727.822946	0.004256
728.021585	0.004267
728.220206	0.004466
728.418808	0.004422
728.617392	0.004331
728.815958	0.004437
729.014506	0.004486
729.213036	0.004255
729.411547	0.004563
729.610040	0.004782
729.808515	0.004582
730.006972	0.004404
730.205410	0.004445
730.403831	0.004682
730.602233	0.004478
730.800616	0.004283
730.998982	0.004336
731.197329	0.004126
731.395658	0.004048
731.593969	0.004123
731.792262	0.004085
731.990536	0.004065
732.188793	0.004012
732.387031	0.004082
732.585250	0.004034
732.783452	0.004261
732.981635	0.004281
733.179800	0.003985
733.377947	0.004030
733.576076	0.004062
733.774186	0.003855
733.972278	0.003928
734.170352	0.003874
734.368408	0.003668
734.566446	0.003499
734.764465	0.003383
734.962466	0.003678
735.160449	0.003735
735.358413	0.003730
735.556360	0.003637
735.754288	0.003327
735.952198	0.003555
736.150090	0.003773
736.347963	0.003630
736.545818	0.003734
736.743655	0.003574
736.941474	0.003433
737.139275	0.003184
737.337057	0.003239
737.534821	0.003235
737.732567	0.003195
737.930295	0.003028
738.128005	0.002993
738.325696	0.002757
738.523369	0.002691
738.721024	0.002536
738.918660	0.002656
739.116279	0.002739
739.313879	0.002673
739.511461	0.002639
739.709024	0.002745
739.906570	0.002752
740.104097	0.002754
740.301606	0.002837
740.499097	0.002986
740.696569	0.002917
740.894024	0.002878
741.091460	0.002925
741.288878	0.002809
741.486277	0.002648
741.683659	0.002665
741.881022	0.002817
742.078367	0.002715
742.275694	0.002356
742.473002	0.002774
742.670293	0.002799
742.867565	0.002959
743.064819	0.003100
743.262054	0.003155
743.459272	0.003062
743.656471	0.003218
743.853652	0.003180
744.050815	0.003425
744.247959	0.003070
744.445085	0.003030
744.642194	0.002971
744.839283	0.002751
745.036355	0.002867
745.233408	0.003201
745.430444	0.003282
745.627461	0.003543
745.824459	0.003565
746.021440	0.003601
746.218402	0.003487
746.415346	0.003447
746.612272	0.003508
746.809180	0.003235
747.006069	0.002951
747.202940	0.002725
747.399793	0.002504
747.596628	0.002517
747.793444	0.002431
747.990243	0.002629
748.187023	0.002646
748.383784	0.002776
748.580528	0.003002
748.777253	0.003060
748.973960	0.003058
749.170649	0.003210
749.367320	0.003226
749.563973	0.003257
749.760607	0.003233
749.957223	0.003331
750.153821	0.003394
750.350400	0.003587
750.546962	0.003606
750.743505	0.003392
750.940030	0.003340
751.136536	0.003418
751.333025	0.003671
751.529495	0.003550
751.725947	0.003450
751.922381	0.003379
752.118796	0.003295
752.315194	0.003356
752.511573	0.003681
752.707934	0.003740
752.904276	0.003746
753.100601	0.003420
753.296907	0.003397
753.493195	0.003489
753.689465	0.003512
753.885716	0.003456
754.081949	0.003387
754.278164	0.003175
754.474361	0.003203
754.670540	0.003301
754.866700	0.003489
755.062843	0.003579
755.258967	0.003523
755.455072	0.003439
755.651160	0.003280
755.847229	0.003509
756.043280	0.003623
756.239313	0.003537
756.435328	0.003490
756.631324	0.003589
756.827302	0.003839
757.023262	0.004005
757.219204	0.004114
757.415127	0.004373
757.611033	0.004289
757.806920	0.004209
758.002788	0.004379
758.198639	0.004314
758.394471	0.004129
758.590286	0.003866
758.786081	0.003707
758.981859	0.003718
759.177619	0.003653
759.373360	0.003722
759.569083	0.003821
759.764788	0.003870
759.960474	0.003914
760.156143	0.003928
760.351793	0.003899
760.547425	0.004146
760.743038	0.004220
760.938634	0.004293
761.134211	0.004461
761.329770	0.004488
761.525311	0.004377
761.720833	0.004121
761.916338	0.004227
762.111824	0.004429
762.307292	0.004269
762.502741	0.004144
762.698173	0.004190
762.893586	0.003932
763.088981	0.004132
763.284358	0.004045
763.479716	0.004448
763.675057	0.004501
763.870379	0.004456
764.065683	0.004567
764.260968	0.004554
764.456236	0.004654
764.651485	0.004775
764.846716	0.004631
765.041929	0.004832
765.237123	0.004695
765.432299	0.004499
765.627457	0.004518
765.822597	0.004415
766.017719	0.004484
766.212822	0.004405
766.407907	0.004394
766.602974	0.004472
766.798023	0.004468
766.993054	0.004418
767.188066	0.004551
767.383060	0.004444
767.578036	0.004579
767.772993	0.004557
767.967933	0.004436
768.162854	0.004522
768.357757	0.004497
768.552642	0.004397
768.747508	0.004477
768.942356	0.004507
769.137186	0.004550
769.331998	0.004528
769.526792	0.004618
769.721567	0.004674
769.916324	0.004433
770.111063	0.004413
770.305784	0.004598
770.500486	0.004577
770.695171	0.004679
770.889837	0.004794
771.084484	0.004839
771.279114	0.004792
771.473725	0.004769
771.668318	0.004805
771.862893	0.004931
772.057450	0.004784
772.251988	0.004834
772.446509	0.004709
772.641011	0.004495
772.835494	0.004302
773.029960	0.004190
773.224407	0.004335
773.418836	0.004452
773.613247	0.004248
773.807640	0.004359
774.002014	0.004270
774.196370	0.004192
774.390708	0.004540
774.585028	0.004655
774.779330	0.004874
774.973613	0.004662
775.167878	0.004584
775.362125	0.004824
775.556354	0.004705
775.750564	0.004802
775.944756	0.005070
776.138930	0.004926
776.333086	0.004922
776.527223	0.005065
776.721343	0.005199
776.915444	0.005202
777.109526	0.005015
777.303591	0.005156
777.497637	0.005130
777.691666	0.005125
777.885676	0.005198
778.079667	0.005269
778.273641	0.004983
778.467596	0.005032
778.661533	0.005179
778.855452	0.005035
779.049352	0.005125
779.243235	0.005284
779.437099	0.005277
779.630945	0.005379
779.824773	0.005421
780.018582	0.005452
780.212373	0.005447
780.406146	0.005441
780.599901	0.005723
780.793638	0.005552
780.987356	0.005742
781.181056	0.005649
781.374738	0.005513
781.568402	0.005248
781.762047	0.005213
781.955674	0.005381
782.149283	0.005291
782.342874	0.005171
782.536447	0.005299
782.730001	0.005070
782.923537	0.005315
783.117055	0.005444
783.310555	0.005666
783.504036	0.005861
783.697499	0.005759
783.890944	0.005833
784.084371	0.005932
784.277780	0.005822
784.471170	0.005823
784.664542	0.005722
784.857896	0.005640
785.051231	0.005638
785.244549	0.005449
785.437848	0.005449
785.631129	0.005485
785.824392	0.005500
786.017636	0.005712
786.210863	0.005602
786.404071	0.005609
786.597260	0.005620
786.790432	0.005729
786.983585	0.005955
787.176721	0.006196
787.369838	0.006344
787.562936	0.006373
787.756017	0.006490
787.949079	0.006650
788.142123	0.006691
788.335149	0.006674
788.528156	0.006723
788.721146	0.006667
788.914117	0.006452
789.107070	0.006531
789.300005	0.006566
789.492921	0.006345
789.685819	0.006347
789.878699	0.006369
790.071561	0.006588
790.264405	0.006521
790.457230	0.006555
790.650037	0.006453
790.842826	0.006409
791.035597	0.006426
791.228349	0.006435
791.421084	0.006398
791.613800	0.006382
791.806497	0.006222
791.999177	0.006298
792.191838	0.006492
792.384481	0.006529
792.577106	0.006318
792.769713	0.006305
792.962301	0.006208
793.154871	0.006307
793.347423	0.006412
793.539957	0.006404
793.732473	0.006330
793.924970	0.006106
794.117449	0.006135
794.309910	0.006285
794.502353	0.006475
794.694777	0.006572
794.887183	0.006554
795.079571	0.006527
795.271941	0.006613
795.464293	0.006607
795.656626	0.006631
795.848941	0.006807
796.041238	0.006737
796.233516	0.006470
796.425777	0.006589
796.618019	0.006499
796.810243	0.006188
797.002449	0.005984
797.194636	0.006096
797.386805	0.006176
797.578956	0.006093
797.771089	0.006160
797.963204	0.006261
798.155300	0.006254
798.347378	0.006467
798.539438	0.006788
798.731480	0.006945
798.923503	0.006939
799.115509	0.007003
799.307496	0.007097
799.499465	0.007349
799.691415	0.007302
799.883348	0.007296
800.075262	0.007077
800.267158	0.006958
800.459035	0.006981
800.650895	0.006940
800.842736	0.006795
801.034559	0.006640
801.226364	0.006345
801.418150	0.006370
801.609919	0.006375
801.801669	0.006407
801.993401	0.006525
802.185114	0.006627
802.376810	0.006630
802.568487	0.006709
802.760146	0.006954
802.951787	0.006905
803.143409	0.006741
803.335014	0.006864
803.526600	0.006990
803.718168	0.006651
803.909717	0.006614
804.101249	0.006707
804.292762	0.006816
804.484257	0.006838
804.675734	0.007034
804.867192	0.007436
805.058632	0.007335
805.250054	0.007398
805.441458	0.007704
805.632844	0.007554
805.824211	0.007496
806.015561	0.007413
806.206891	0.007479
806.398204	0.007361
806.589499	0.007240
806.780775	0.007365
806.972033	0.007399
807.163273	0.007268
807.354495	0.007264
807.545698	0.007205
807.736883	0.007262
807.928050	0.006989
808.119199	0.007200
808.310329	0.007381
808.501441	0.007361
808.692535	0.007397
808.883611	0.007559
809.074669	0.007754
809.265708	0.008033
809.456729	0.007848
809.647732	0.007985
809.838717	0.007944
810.029683	0.007780
810.220632	0.007721
810.411562	0.007496
810.602474	0.007418
810.793367	0.007515
810.984242	0.007086
811.175100	0.007102
811.365938	0.007097
811.556759	0.006981
811.747562	0.006754
811.938346	0.006512
812.129112	0.006617
812.319860	0.006669
812.510589	0.006616
812.701300	0.006722
812.891994	0.006821
813.082668	0.006813
813.273325	0.006891
813.463964	0.007066
813.654584	0.007106
813.845186	0.007082
814.035769	0.007058
814.226335	0.007060
814.416882	0.007070
814.607411	0.007229
814.797922	0.007157
814.988415	0.007143
815.178889	0.007252
815.369345	0.007288
815.559783	0.007215
815.750203	0.007341
815.940605	0.007131
816.130988	0.007123
816.321353	0.006920
816.511700	0.006813
816.702028	0.006526
816.892339	0.006185
817.082631	0.006447
817.272905	0.006508
817.463161	0.006249
817.653398	0.006257
817.843617	0.006295
818.033819	0.006331
818.224001	0.006619
818.414166	0.006783
818.604312	0.007090
818.794440	0.007032
818.984550	0.007152
819.174642	0.007223
819.364716	0.007258
819.554771	0.007188
819.744808	0.007115
819.934827	0.007047
820.124827	0.007095
820.314810	0.006993
820.504774	0.006696
820.694720	0.006487
820.884647	0.006493
821.074557	0.006481
821.264448	0.006672
821.454321	0.006900
821.644176	0.006856
821.834012	0.006904
822.023831	0.006785
822.213631	0.006933
822.403413	0.006934
822.593176	0.006956
822.782922	0.006941
822.972649	0.006867
823.162358	0.006600
823.352049	0.006494
823.541721	0.006186
823.731376	0.006252
823.921012	0.005942
824.110629	0.005982
824.300229	0.005829
824.489811	0.005941
824.679374	0.006002
824.868919	0.006006
825.058445	0.005884
825.247954	0.006083
825.437444	0.006090
825.626916	0.006278
825.816370	0.006540
826.005806	0.006554
826.195223	0.006374
826.384622	0.006293
826.574003	0.006358
826.763366	0.006190
826.952711	0.006139
827.142037	0.006219
827.331345	0.006268
827.520635	0.006169
827.709906	0.006538
827.899160	0.006707
828.088395	0.006568
828.277612	0.006548
828.466810	0.006815
828.655991	0.007049
828.845153	0.006999
829.034297	0.007002
829.223423	0.006687
829.412531	0.006544
829.601620	0.006228
829.790691	0.006316
829.979744	0.005965
830.168779	0.005912
830.357795	0.005542
830.546793	0.005508
830.735773	0.005494
830.924735	0.005711
831.113679	0.005540
831.302604	0.005896
831.491511	0.005756
831.680400	0.006038
831.869271	0.006133
832.058123	0.006240
832.246957	0.006339
832.435773	0.006249
832.624571	0.006051
832.813351	0.006163
833.002112	0.006123
833.190855	0.006312
833.379580	0.006313
833.568287	0.006142
833.756975	0.006039
833.945645	0.006084
834.134297	0.006174
834.322931	0.006310
834.511547	0.006080
834.700144	0.005894
834.888723	0.005920
835.077284	0.005993
835.265826	0.005979
835.454351	0.006109
835.642857	0.006007
835.831345	0.006115
836.019815	0.005829
836.208266	0.006005
836.396699	0.005852
836.585114	0.005883
836.773511	0.005904
836.961890	0.006024
837.150250	0.006067
837.338592	0.006066
837.526916	0.005880
837.715222	0.006120
837.903510	0.005925
838.091779	0.005916
838.280030	0.005862
838.468263	0.005788
838.656477	0.005934
838.844674	0.005921
839.032852	0.005869
839.221012	0.005783
839.409153	0.005713
839.597277	0.005865
839.785382	0.006181
839.973469	0.006051
840.161538	0.006230
840.349589	0.005740
840.537621	0.005632
840.725635	0.005749
840.913631	0.005831
841.101609	0.005901
841.289568	0.006222
841.477509	0.006279
841.665432	0.006133
841.853337	0.005796
842.041224	0.006176
842.229092	0.006309
842.416942	0.006327
842.604774	0.006282
842.792588	0.006220
842.980383	0.005920
843.168160	0.005782
843.355919	0.006119
843.543660	0.006357
843.731382	0.006204
843.919087	0.006222
844.106773	0.006123
844.294441	0.006294
844.482090	0.006426
844.669722	0.006501
844.857335	0.006624
845.044930	0.006358
845.232507	0.006459
845.420065	0.006591
845.607605	0.006402
845.795127	0.006285
845.982631	0.006111
846.170117	0.005882
846.357584	0.005778
846.545033	0.005785
846.732464	0.005955
846.919877	0.005840
847.107272	0.005839
847.294648	0.006038
847.482006	0.006056
847.669346	0.006076
847.856667	0.006448
848.043971	0.006634
848.231256	0.006466
848.418523	0.006521
848.605771	0.006806
848.793002	0.006780
848.980214	0.006846
849.167408	0.007010
849.354584	0.007501
849.541742	0.007356
849.728881	0.007343
849.916002	0.007462
850.103105	0.007565
850.290190	0.007500
850.477256	0.007614
850.664304	0.007594
850.851334	0.007582
851.038346	0.007464
851.225340	0.007675
851.412315	0.007643
851.599272	0.007924
851.786211	0.007726
851.973132	0.007701
852.160034	0.007642
852.346918	0.007562
852.533784	0.007650
852.720632	0.007726
852.907462	0.007743
853.094273	0.007665
853.281066	0.007847
853.467841	0.008038
853.654598	0.008250
853.841336	0.008360
854.028056	0.008572
854.214758	0.008736
854.401442	0.008325
854.588107	0.008428
854.774755	0.008669
854.961384	0.008240
855.147995	0.008515
855.334587	0.008191
855.521162	0.008117
855.707718	0.008075
855.894256	0.007924
856.080775	0.008117
856.267277	0.007852
856.453760	0.007787
856.640225	0.007782
856.826672	0.007638
857.013101	0.007893
857.199511	0.008092
857.385903	0.008050
857.572277	0.008127
857.758633	0.008188
857.944970	0.008326
858.131290	0.008579
858.317591	0.008597
858.503873	0.008433
858.690138	0.008561
858.876384	0.008531
859.062612	0.008848
859.248822	0.008753
859.435014	0.008879
859.621188	0.008984
859.807343	0.008881
859.993480	0.009098
860.179599	0.009483
860.365699	0.009156
860.551781	0.009325
860.737846	0.009324
860.923891	0.009682
861.109919	0.009750
861.295929	0.009533
861.481920	0.009580
861.667893	0.009448
861.853848	0.009410
862.039784	0.009646
862.225702	0.009406
862.411603	0.009339
862.597484	0.008999
862.783348	0.008823
862.969193	0.009150
863.155021	0.009118
863.340830	0.009282
863.526620	0.009357
863.712393	0.009279
863.898147	0.009376
864.083883	0.009424
864.269601	0.009782
864.455301	0.009900
864.640982	0.009763
864.826645	0.009947
865.012290	0.009923
865.197917	0.009506
865.383526	0.009709
865.569116	0.009840
865.754688	0.009745
865.940242	0.009621
866.125777	0.009456
866.311295	0.009290
866.496794	0.009289
866.682275	0.009228
866.867737	0.009273
867.053182	0.009226
867.238608	0.009107
867.424016	0.009371
867.609406	0.009163
867.794778	0.009409
867.980131	0.009737
868.165466	0.009559
868.350783	0.009833
868.536082	0.010237
868.721362	0.010008
868.906625	0.010111
869.091869	0.010120
869.277094	0.010393
869.462302	0.010363
869.647491	0.010259
869.832662	0.010435
870.017815	0.010146
870.202950	0.010090
870.388066	0.010288
870.573165	0.010407
870.758245	0.010020
870.943306	0.010342
871.128350	0.010338
871.313375	0.010445
871.498382	0.010260
871.683371	0.010556
871.868342	0.010195
872.053294	0.010539
872.238229	0.010179
872.423144	0.010416
872.608042	0.010031
872.792922	0.010172
872.977783	0.010152
873.162626	0.010383
873.347451	0.010458
873.532258	0.010539
873.717046	0.010176
873.901816	0.010628
874.086568	0.010503
874.271302	0.010440
874.456017	0.010232
874.640715	0.010417
874.825394	0.010423
875.010055	0.010189
875.194697	0.010336
875.379322	0.010897
875.563928	0.010636
875.748516	0.010779
875.933085	0.010746
876.117637	0.010970
876.302170	0.010863
876.486685	0.010558
876.671182	0.010568
876.855661	0.010524
877.040121	0.010137
877.224563	0.010098
877.408987	0.010288
877.593393	0.010419
877.777780	0.010321
877.962150	0.010351
878.146501	0.010716
878.330833	0.010517
878.515148	0.010692
878.699444	0.010431
878.883722	0.010935
879.067982	0.010827
879.252224	0.011026
879.436447	0.011131
879.620653	0.011242
879.804840	0.011182
879.989008	0.011452
880.173159	0.011406
880.357291	0.011643
880.541405	0.011497
880.725501	0.011752
880.909579	0.011829
881.093638	0.011848
881.277680	0.012108
881.461703	0.012004
881.645707	0.012041
881.829694	0.011917
882.013662	0.011761
882.197612	0.010994
882.381544	0.010802
882.565458	0.010766
882.749353	0.010806
882.933230	0.010738
883.117089	0.010718
883.300930	0.010498
883.484753	0.010337
883.668557	0.010298
883.852343	0.010771
884.036111	0.010900
884.219861	0.010863
884.403592	0.010726
884.587305	0.010405
884.771000	0.010496
884.954677	0.010985
885.138335	0.011404
885.321976	0.011446
885.505598	0.011638
885.689201	0.011345
885.872787	0.011095
886.056354	0.011324
886.239904	0.011417
886.423434	0.011283
886.606947	0.011149
886.790442	0.011152
886.973918	0.011318
887.157376	0.011284
887.340816	0.011220
887.524237	0.011604
887.707641	0.011726
887.891026	0.011368
888.074393	0.011181
888.257741	0.010873
888.441072	0.010738
888.624384	0.010487
888.807678	0.010646
888.990954	0.010793
889.174211	0.010742
889.357451	0.010436
889.540672	0.010686
889.723875	0.011312
889.907059	0.011434
890.090226	0.011550
890.273374	0.011863
890.456504	0.011942
890.639616	0.012125
890.822709	0.012219
891.005785	0.012225
891.188842	0.012313
891.371881	0.011756
891.554901	0.011893
891.737904	0.011835
891.920888	0.011818
892.103854	0.011722
892.286802	0.011317
892.469731	0.010962
892.652643	0.011003
892.835536	0.011072
893.018410	0.011153
893.201267	0.011252
893.384106	0.011030
893.566926	0.010911
893.749728	0.010690
893.932511	0.010832
894.115277	0.010613
894.298024	0.010612
894.480753	0.010410
894.663464	0.010550
894.846157	0.010583
895.028831	0.010792
895.211487	0.010690
895.394125	0.010852
895.576745	0.010770
895.759346	0.011115
895.941930	0.011072
896.124495	0.011121
896.307041	0.010946
896.489570	0.010701
896.672080	0.010319
896.854573	0.010461
897.037046	0.010435
897.219502	0.010467
897.401940	0.010606
897.584359	0.010822
897.766760	0.010855
897.949143	0.011059
898.131507	0.010982
898.313854	0.011330
898.496182	0.011504
898.678492	0.011402
898.860783	0.011064
899.043057	0.010861
899.225312	0.010583
899.407549	0.010508
899.589768	0.010435
899.771968	0.010666
899.954151	0.010704
900.136315	0.010815
900.318461	0.010717
900.500588	0.011170
900.682698	0.011516
900.864789	0.011691
901.046862	0.011996
901.228917	0.012422
901.410953	0.012146
901.592971	0.012235
901.774972	0.012078
901.956953	0.012107
902.138917	0.012100
902.320862	0.011778
902.502790	0.011986
902.684699	0.011842
902.866589	0.011437
903.048462	0.011764
903.230316	0.011590
903.412152	0.011240
903.593970	0.011424
903.775770	0.011469
903.957551	0.011411
904.139314	0.010989
904.321059	0.011094
904.502786	0.011072
904.684494	0.010758
904.866185	0.010999
905.047857	0.011229
905.229510	0.011761
905.411146	0.011574
905.592763	0.011284
905.774363	0.011350
905.955943	0.011103
906.137506	0.010858
906.319051	0.011054
906.500577	0.011040
906.682085	0.011313
906.863575	0.010645
907.045046	0.010556
907.226500	0.010834
907.407935	0.011094
907.589352	0.010798
907.770750	0.010938
907.952131	0.011043
908.133493	0.010822
908.314837	0.010418
908.496163	0.010090
908.677470	0.010233
908.858760	0.010202
909.040031	0.010364
909.221284	0.010667
909.402518	0.010835
909.583735	0.010710
909.764933	0.010686
909.946113	0.010611
910.127275	0.011086
910.308418	0.010972
910.489544	0.010693
910.670651	0.010104
910.851740	0.010100
911.032810	0.009849
911.213863	0.009889
911.394897	0.009776
911.575913	0.009576
911.756911	0.009223
911.937890	0.009277
912.118851	0.009430
912.299794	0.009797
912.480719	0.009552
912.661626	0.009956
912.842514	0.009520
913.023384	0.008984
913.204236	0.009167
913.385070	0.009341
913.565886	0.009229
913.746683	0.009138
913.927462	0.008784
914.108223	0.008792
914.288965	0.008652
914.469690	0.008889
914.650396	0.009587
914.831084	0.009611
915.011754	0.009269
915.192405	0.009295
915.373038	0.009178
915.553653	0.009324
915.734250	0.009183
915.914829	0.008418
916.095389	0.008235
916.275931	0.007781
916.456455	0.007534
916.636961	0.007402
916.817448	0.006849
916.997917	0.007176
917.178368	0.006560
917.358801	0.006179
917.539216	0.006395
917.719612	0.006626
917.899990	0.006656
918.080350	0.006677
918.260692	0.006829
918.441015	0.007198
918.621320	0.006899
918.801607	0.007193
918.981876	0.007127
919.162127	0.006622
919.342359	0.006296
919.522573	0.006356
919.702769	0.005720
919.882947	0.005541
920.063106	0.005074
920.243247	0.005216
920.423370	0.005233
920.603475	0.005442
920.783562	0.005783
920.963630	0.005786
921.143680	0.005269
921.323712	0.005697
921.503725	0.005658
921.683721	0.005676
921.863698	0.005544
922.043657	0.005489
922.223598	0.005373
922.403520	0.005932
922.583424	0.005518
922.763311	0.006011
922.943178	0.005830
923.123028	0.005738
923.302859	0.006010
923.482673	0.005542
923.662467	0.005426
923.842244	0.005363
924.022003	0.004704
924.201743	0.004709
924.381465	0.004343
924.561169	0.004693
924.740854	0.004313
924.920522	0.004113
925.100171	0.004228
925.279802	0.003927
925.459414	0.003263
925.639009	0.002815
925.818585	0.003000
925.998143	0.002734
926.177683	0.002064
926.357205	0.002508
926.536708	0.002390
926.716193	0.001666
926.895660	0.001740
927.075109	0.002079
927.254539	0.002356
927.433951	0.001513
927.613345	0.001727
927.792721	0.001994
927.972079	0.001879
928.151418	0.001702
928.330739	0.002305
928.510042	0.001920
928.689327	0.001726
928.868593	0.001309
929.047841	0.001447
929.227071	0.000948
929.406283	0.000484
929.585476	-0.000193
929.764652	-0.000386
929.943809	-0.001130
930.122948	-0.001636
930.302068	-0.001185
930.481171	-0.001210
930.660255	-0.000734
930.839321	-0.000637
931.018369	-0.000851
931.197398	-0.000881
931.376409	-0.001116
931.555402	-0.000924
931.734377	-0.000891
931.913334	-0.001582
932.092272	-0.001531
932.271192	-0.002906
932.450094	-0.003716
932.628978	-0.003432
932.807844	-0.003278
932.986691	-0.003191
933.165520	-0.003549
933.344331	-0.003656
933.523123	-0.003816
933.701898	-0.004036
933.880654	-0.003836
934.059392	-0.003294
934.238111	-0.003726
934.416813	-0.004162
934.595496	-0.004252
934.774161	-0.004544
934.952808	-0.004597
935.131437	-0.004636
935.310047	-0.005197
935.488639	-0.004455
935.667213	-0.004967
935.845769	-0.005223
936.024306	-0.004966
936.202825	-0.004884
936.381326	-0.004502
936.559809	-0.004328
936.738274	-0.004517
936.916720	-0.004592
937.095148	-0.005743
937.273558	-0.006044
937.451950	-0.006105
937.630323	-0.006700
937.808678	-0.007261
937.987015	-0.007534
938.165334	-0.008138
938.343635	-0.008978
938.521917	-0.008642
938.700181	-0.008759
938.878427	-0.008503
939.056655	-0.009475
939.234864	-0.010635
939.413055	-0.010584
939.591228	-0.010549
939.769383	-0.010616
939.947519	-0.010311
940.125638	-0.010509
940.303738	-0.009788
940.481820	-0.009446
940.659883	-0.008585
940.837929	-0.007666
941.015956	-0.008552
941.193965	-0.009246
941.371955	-0.008972
941.549928	-0.008785
941.727882	-0.009864
941.905818	-0.010050
942.083736	-0.010847
942.261636	-0.011196
942.439517	-0.011346
942.617380	-0.010484
942.795225	-0.010980
942.973052	-0.011791
943.150860	-0.011718
943.328651	-0.011206
943.506423	-0.012515
943.684176	-0.012444
943.861912	-0.012449
944.039629	-0.012827
944.217328	-0.014015
944.395009	-0.013834
944.572672	-0.014055
944.750317	-0.014157
944.927943	-0.014178
945.105551	-0.014125
945.283141	-0.013595
945.460712	-0.014100
945.638265	-0.013925
945.815801	-0.012745
945.993317	-0.012785
946.170816	-0.013204
946.348297	-0.013427
946.525759	-0.013817
946.703203	-0.012185
946.880629	-0.011887
947.058036	-0.012360
947.235425	-0.011864
947.412797	-0.013023
947.590149	-0.012881
947.767484	-0.012529
947.944800	-0.013096
948.122099	-0.013222
948.299379	-0.013939
948.476640	-0.015609
948.653884	-0.015063
948.831109	-0.016072
949.008316	-0.015507
949.185505	-0.015569
949.362676	-0.016497
949.539828	-0.016472
949.716962	-0.017161
949.894078	-0.018390
950.071176	-0.017913
950.248256	-0.017454
950.425317	-0.016182
950.602360	-0.016883
950.779385	-0.016896
950.956391	-0.015246
951.133380	-0.014745
951.310350	-0.013243
951.487302	-0.012858
951.664235	-0.012891
951.841151	-0.013333
952.018048	-0.014790
952.194927	-0.014393
952.371788	-0.014162
952.548631	-0.014026
952.725455	-0.015401
952.902261	-0.015927
953.079049	-0.015613
953.255819	-0.015613
953.432570	-0.014291
953.609303	-0.014202
953.786018	-0.014341
953.962715	-0.015961
954.139394	-0.016143
954.316054	-0.015338
954.492696	-0.014449
954.669320	-0.015524
954.845926	-0.016945
955.022513	-0.018495
955.199083	-0.017135
955.375634	-0.016595
955.552166	-0.014324
955.728681	-0.014339
955.905177	-0.011972
956.081655	-0.012168
956.258115	-0.010586
956.434557	-0.009470
956.610980	-0.008710
956.787385	-0.009372
956.963772	-0.009622
957.140141	-0.011696
957.316492	-0.011860
957.492824	-0.013745
957.669138	-0.013775
957.845434	-0.015311
958.021712	-0.015604
958.197971	-0.015605
958.374212	-0.015756
958.550435	-0.015023
958.726640	-0.012665
958.902826	-0.011319
959.078995	-0.011874
959.255145	-0.010777
959.431277	-0.010250
959.607390	-0.009443
959.783486	-0.009533
959.959563	-0.010274
960.135622	-0.010116
960.311662	-0.009482
960.487685	-0.009664
960.663689	-0.008099
960.839675	-0.009695
961.015643	-0.008648
961.191593	-0.006411
961.367524	-0.005655
961.543437	-0.004945
961.719332	-0.005106
961.895209	-0.006724
962.071067	-0.007942
962.246907	-0.008245
962.422730	-0.006360
962.598533	-0.005487
962.774319	-0.007504
962.950086	-0.007976
963.125835	-0.006695
963.301566	-0.005228
963.477279	-0.005583
963.652973	-0.005113
963.828650	-0.006470
964.004308	-0.008959
964.179947	-0.009247
964.355569	-0.007832
964.531172	-0.008140
964.706757	-0.009726
964.882324	-0.012383
965.057873	-0.011291
965.233403	-0.011363
965.408916	-0.009262
965.584410	-0.008451
965.759885	-0.008641
965.935343	-0.009665
966.110782	-0.008748
966.286203	-0.006063
966.461606	-0.004785
966.636991	-0.003845
966.812357	-0.002986
966.987705	-0.004713
967.163035	-0.002503
967.338347	-0.002532
967.513641	-0.003834
967.688916	-0.003931
967.864173	-0.006295
968.039412	-0.004671
968.214632	-0.005184
968.389835	-0.006272
968.565019	-0.005978
968.740185	-0.005968
968.915333	-0.005819
969.090462	-0.003673
969.265573	-0.004140
969.440667	-0.001912
969.615741	-0.001424
969.790798	-0.000701
969.965836	0.000787
970.140856	0.001696
970.315858	0.001705
970.490842	0.001854
970.665808	0.002174
970.840755	0.002075
971.015684	0.000338
971.190595	-0.001159
971.365487	-0.002448
971.540362	-0.004701
971.715218	-0.004167
971.890056	-0.003143
972.064875	-0.001861
972.239677	-0.002453
972.414460	-0.001612
972.589225	-0.001800
972.763972	-0.003911
972.938700	-0.003441
973.113411	-0.000065
973.288103	-0.000522
973.462777	-0.002283
973.637432	-0.003882
973.812070	-0.003599
973.986689	-0.002781
974.161290	-0.003380
974.335873	0.000482
974.510437	-0.001024
974.684984	-0.002289
974.859512	-0.001153
975.034022	-0.002509
975.208513	-0.002938
975.382987	-0.001963
975.557442	-0.002963
975.731879	-0.001164
975.906298	-0.003356
976.080698	-0.001381
976.255080	-0.001391
976.429445	-0.001907
976.603790	0.001131
976.778118	0.003216
976.952427	-0.000363
977.126719	0.001178
977.300992	0.000204
977.475246	0.003014
977.649483	0.002723
977.823701	0.003647
977.997901	0.004018
978.172083	0.002720
978.346247	0.001448
978.520392	0.003441
978.694519	0.000568
978.868628	0.002288
979.042719	0.000235
979.216791	0.000721
979.390845	0.001097
979.564882	0.002481
979.738899	0.000708
979.912899	0.000680
980.086880	0.001673
980.260843	0.003152
980.434788	0.001807
980.608715	0.001083
980.782623	0.002247
980.956514	-0.001074
981.130386	-0.001946
981.304240	-0.002492
981.478075	-0.001421
981.651892	-0.000964
981.825692	-0.002337
981.999472	-0.001784
982.173235	0.000074
982.346980	-0.003274
982.520706	-0.002357
982.694414	-0.001940
982.868104	0.001089
983.041775	0.001066
983.215428	0.000249
983.389064	0.001646
983.562680	0.000088
983.736279	-0.001874
983.909860	-0.001535
984.083422	0.001823
984.256966	0.001751
984.430491	-0.000693
984.603999	-0.000071
984.777488	-0.001924
984.950959	-0.002870
985.124412	-0.002217
985.297847	-0.001035
985.471263	0.000677
985.644661	-0.000407
985.818041	-0.001161
985.991403	-0.000387
986.164747	-0.002459
986.338072	-0.001704
986.511379	-0.001943
986.684668	-0.003232
986.857938	-0.003276
987.031191	-0.003045
987.204425	-0.004914
987.377641	-0.004453
987.550839	-0.004199
987.724018	-0.004001
987.897179	-0.003820
988.070322	-0.000493
988.243447	0.000037
988.416554	-0.000092
988.589642	-0.000514
988.762712	-0.000536
988.935764	-0.002659
989.108798	-0.001568
989.281813	-0.000926
989.454811	-0.001257
989.627790	-0.004549
989.800751	-0.002796
989.973693	-0.003733
990.146617	-0.004860
990.319524	-0.003498
990.492412	-0.002577
990.665281	-0.004537
990.838133	-0.004180
991.010966	-0.003878
991.183781	-0.001776
991.356578	-0.001573
991.529356	-0.000319
991.702117	0.000722
991.874859	-0.000190
992.047583	0.000939
992.220288	0.002300
992.392976	0.002239
992.565645	0.003944
992.738296	0.002147
992.910929	0.002050
993.083543	0.002161
993.256139	0.002987
993.428718	0.005402
993.601277	0.004953
993.773819	0.004862
993.946342	0.002463
994.118848	0.002018
994.291335	0.002111
994.463803	0.000836
994.636254	0.000291
994.808686	-0.000049
994.981100	-0.002493
995.153496	-0.001230
995.325874	-0.001609
995.498233	0.000389
995.670574	-0.000046
995.842897	-0.001621
996.015202	0.000507
996.187488	0.001176
996.359757	0.001749
996.532007	0.000997
996.704239	0.000329
996.876452	-0.000055
997.048648	-0.000994
997.220825	-0.001781
997.392984	-0.000235
997.565124	-0.001394
997.737247	-0.001216
997.909351	-0.000909
998.081437	0.001301
998.253505	0.000630
998.425554	-0.000720
998.597586	-0.000324
998.769599	0.000940
998.941594	0.002019
999.113571	0.001582
999.285529	0.000573
999.457469	0.000144
999.629391	0.002205
999.801295	0.001496
999.973181	0.005696
1000.145048	0.005708
1000.316897	0.004080
1000.488728	0.004341
1000.660541	0.004340
1000.832335	0.003341
1001.004111	0.003906
1001.175869	0.000468
1001.347609	0.001460
1001.519331	-0.002421
1001.691034	-0.000814
1001.862719	-0.000589
1002.034386	-0.001733
1002.206035	-0.002053
1002.377665	-0.002397
1002.549277	-0.004053
1002.720871	-0.004023
1002.892447	-0.002799
1003.064004	-0.001287
1003.235544	-0.001526
1003.407065	-0.000231
1003.578568	-0.000255
1003.750052	0.000354
1003.921519	0.002385
1004.092967	0.002242
1004.264397	0.003187
1004.435809	0.000650
1004.607202	0.000116
1004.778577	0.000831
1004.949934	0.000582
1005.121273	0.000636
1005.292594	-0.000510
1005.463896	-0.000769
1005.635180	-0.001012
1005.806446	0.000151
1005.977694	0.003277
1006.148923	0.003766
1006.320135	0.002532
1006.491328	0.003330
1006.662503	0.004852
1006.833659	0.004922
1007.004798	0.002973
1007.175918	0.003532
1007.347020	0.001690
1007.518103	0.000802
1007.689169	0.001108
1007.860216	0.001147
1008.031245	0.000123
1008.202256	-0.000993
1008.373248	0.001870
1008.544223	0.004588
1008.715179	0.004148
1008.886117	0.004233
1009.057036	0.004869
1009.227938	0.006126
1009.398821	0.006407
1009.569686	0.006886
1009.740533	0.007898
1009.911361	0.006843
1010.082172	0.006556
1010.252964	0.007600
1010.423738	0.009084
1010.594493	0.008217
1010.765231	0.005333
1010.935950	0.005563
1011.106651	0.005753
1011.277334	0.004218
1011.447998	0.004621
1011.618645	0.003625
1011.789273	0.002765
1011.959882	0.000893
1012.130474	0.001575
1012.301048	0.002541
1012.471603	0.003170
1012.642140	0.003588
1012.812658	0.003157
1012.983159	0.003234
1013.153641	0.003138
1013.324105	0.002483
1013.494551	0.003930
1013.664979	0.002260
1013.835388	0.002610
1014.005779	0.003451
1014.176152	0.001072
1014.346507	0.002353
1014.516843	0.002421
1014.687162	0.003029
1014.857462	0.003949
1015.027744	0.004664
1015.198007	0.004993
1015.368252	0.005744
1015.538480	0.004907
1015.708689	0.005630
1015.878879	0.004806
1016.049052	0.005263
1016.219206	0.004428
1016.389342	0.002762
1016.559460	0.000661
1016.729559	-0.001009
1016.899641	-0.001375
1017.069704	-0.002271
1017.239749	-0.002660
1017.409775	-0.004556
1017.579784	-0.005826
1017.749774	-0.004834
1017.919746	-0.003190
1018.089700	-0.000827
1018.259635	0.000355
1018.429553	0.000355
1018.599452	0.001207
1018.769333	0.001672
1018.939195	0.004923
1019.109040	0.003893
1019.278866	0.004851
1019.448674	0.005741
1019.618464	0.003738
1019.788235	0.002913
1019.957989	0.005060
1020.127724	0.004064
1020.297441	0.005432
1020.467139	0.004820
1020.636820	0.005247
1020.806482	0.003817
1020.976126	0.003107
1021.145752	0.002502
1021.315359	0.003348
1021.484948	-0.000359
1021.654519	-0.000697
1021.824072	-0.003050
1021.993607	-0.002110
1022.163123	-0.000692
1022.332621	-0.001963
1022.502101	-0.001415
1022.671563	0.000518
1022.841007	0.001044
1023.010432	0.000293
1023.179839	0.001550
1023.349228	0.003551
1023.518598	0.002747
1023.687951	0.000965
1023.857285	0.002753
1024.026601	0.001645
1024.195899	-0.000108
1024.365178	0.000405
1024.534439	0.003239
1024.703682	0.002457
1024.872907	0.002211
1025.042114	0.001639
1025.211302	0.003260
1025.380472	0.002677
1025.549624	0.004864
1025.718758	0.004891
1025.887873	0.004590
1026.056970	0.004099
1026.226049	0.003545
1026.395110	0.003668
1026.564153	0.005144
1026.733177	0.004453
1026.902183	0.004003
1027.071171	0.001543
1027.240141	0.002818
1027.409092	0.002938
1027.578026	0.002314
1027.746940	0.002688
1027.915837	0.003525
1028.084716	0.002745
1028.253576	0.002179
1028.422418	0.003283
1028.591242	0.002851
1028.760048	0.002120
1028.928835	0.003530
1029.097604	0.004175
1029.266355	0.005762
1029.435088	0.004450
1029.603803	0.006377
1029.772499	0.007797
1029.941177	0.007386
1030.109837	0.007966
1030.278478	0.008792
1030.447102	0.005988
1030.615707	0.005597
1030.784294	0.004099
1030.952863	0.005014
1031.121413	0.003111
1031.289945	0.002945
1031.458460	0.002960
1031.626955	0.003638
1031.795433	0.003046
1031.963892	0.003048
1032.132334	0.002567
1032.300756	0.003463
1032.469161	0.003234
1032.637548	0.003419
1032.805916	0.002726
1032.974266	0.002435
1033.142598	0.001086
1033.310911	0.001792
1033.479207	0.002007
1033.647484	0.002873
1033.815743	0.001721
1033.983983	0.001323
1034.152206	-0.001415
1034.320410	-0.001345
1034.488596	-0.000373
1034.656764	-0.000736
1034.824914	-0.000971
1034.993045	-0.001281
1035.161158	-0.000035
1035.329253	0.000309
1035.497330	-0.000116
1035.665388	0.001768
1035.833428	0.000773
1036.001450	0.001953
1036.169454	0.005937
1036.337440	0.005625
1036.505407	0.005949
1036.673356	0.003741
1036.841287	0.003227
1037.009200	0.002195
1037.177094	0.002205
1037.344970	0.002809
1037.512828	-0.000836
1037.680668	-0.002138
1037.848489	-0.002384
1038.016293	-0.001008
1038.184078	-0.001076
1038.351845	-0.001102
1038.519593	0.000687
1038.687324	0.000321
1038.855036	0.000814
1039.022730	0.002459
1039.190406	0.002898
1039.358063	0.001932
1039.525702	0.000322
1039.693323	0.000883
1039.860926	0.002224
1040.028511	0.002083
1040.196077	0.003855
1040.363625	0.003753
1040.531155	0.002285
1040.698667	0.000840
1040.866161	0.001883
1041.033636	0.002400
1041.201093	0.001812
1041.368532	0.000993
1041.535952	0.001204
1041.703355	0.001591
1041.870739	0.001612
1042.038105	0.004066
1042.205452	0.003110
1042.372782	0.001833
1042.540093	0.001705
1042.707386	0.002003
1042.874661	0.001649
1043.041918	0.003764
1043.209156	0.002974
1043.376376	0.003045
1043.543578	0.002684
1043.710762	0.004104
1043.877927	0.006923
1044.045074	0.007886
1044.212203	0.010141
1044.379314	0.010097
1044.546407	0.007764
1044.713481	0.007974
1044.880537	0.008185
1045.047575	0.008574
1045.214595	0.008735
1045.381596	0.008695
1045.548579	0.009574
1045.715544	0.007865
1045.882491	0.009757
1046.049420	0.011123
1046.216330	0.011501
1046.383222	0.009323
1046.550096	0.010224
1046.716951	0.011921
1046.883789	0.011023
1047.050608	0.010367
1047.217409	0.010633
1047.384192	0.008310
1047.550956	0.006193
1047.717703	0.005481
1047.884431	0.009222
1048.051140	0.008010
1048.217832	0.004893
1048.384505	0.004061
1048.551161	0.003652
1048.717798	0.003342
1048.884416	0.006360
1049.051017	0.006434
1049.217599	0.005503
1049.384163	0.003588
1049.550709	0.001889
1049.717237	0.002696
1049.883746	0.002570
1050.050237	0.002622
1050.216710	0.002692
1050.383165	-0.000778
1050.549601	-0.001421
1050.716019	-0.000140
1050.882420	0.000193
1051.048801	0.001275
1051.215165	0.002260
1051.381510	0.003472
1051.547837	0.003486
1051.714146	0.004400
1051.880437	0.004053
1052.046709	0.004066
1052.212964	0.003662
1052.379200	0.002265
1052.545417	0.002699
1052.711617	0.003116
1052.877798	0.003362
1053.043961	0.004288
1053.210106	0.004417
1053.376233	0.004215
1053.542341	0.004300
1053.708432	0.003148
1053.874504	0.003825
1054.040557	0.001357
1054.206593	-0.002341
1054.372610	-0.002967
1054.538609	-0.005321
1054.704590	-0.005883
1054.870553	-0.004582
1055.036497	-0.003111
1055.202424	-0.002454
1055.368331	-0.002422
1055.534221	-0.001256
1055.700093	0.001231
1055.865946	0.001753
1056.031781	0.003867
1056.197598	0.003580
1056.363397	0.004112
1056.529177	0.003824
1056.694939	0.002848
1056.860683	0.004622
1057.026409	0.005191
1057.192116	0.005377
1057.357806	0.005010
1057.523477	0.002552
1057.689130	0.002603
1057.854764	0.003961
1058.020381	0.004065
1058.185979	0.004311
1058.351559	0.004549
1058.517120	0.004061
1058.682664	0.003736
1058.848189	0.002901
1059.013696	0.004319
1059.179185	0.003188
1059.344656	0.001713
1059.510108	0.000518
1059.675542	0.002056
1059.840958	0.000975
1060.006356	0.000566
1060.171735	0.001359
1060.337096	0.003073
1060.502439	0.003068
1060.667764	0.004211
1060.833071	0.004566
1060.998359	0.003656
1061.163629	0.003168
1061.328881	0.002313
1061.494115	0.003852
1061.659330	0.004172
1061.824527	0.001978
1061.989706	0.002699
1062.154867	0.001976
1062.320010	0.004150
1062.485134	0.005013
1062.650240	0.004735
1062.815328	0.003386
1062.980398	0.002905
1063.145449	0.000074
1063.310482	0.000012
1063.475497	-0.000678
1063.640494	-0.001329
1063.805473	-0.003336
1063.970433	-0.002146
1064.135375	-0.001567
1064.300299	-0.000184
1064.465204	0.000873
1064.630092	0.001822
1064.794961	0.003691
1064.959812	0.005558
1065.124645	0.006426
1065.289459	0.004697
1065.454256	0.002352
1065.619034	-0.000768
1065.783793	0.000637
1065.948535	-0.000636
1066.113258	-0.000534
1066.277964	-0.002707
1066.442651	-0.005174
1066.607319	-0.004901
1066.771970	-0.004692
1066.936602	-0.003119
1067.101216	-0.001695
1067.265812	-0.002865
1067.430389	-0.002659
1067.594949	-0.002653
1067.759490	-0.002771
1067.924013	-0.002868
1068.088518	-0.004373
1068.253004	-0.004828
1068.417472	-0.005167
1068.581922	-0.003714
1068.746354	-0.003942
1068.910768	-0.002268
1069.075163	-0.003591
1069.239540	-0.003122
1069.403899	-0.001957
1069.568240	-0.000157
1069.732562	0.002240
1069.896866	0.002020
1070.061152	0.002843
1070.225420	0.003280
1070.389670	0.001470
1070.553901	0.003079
1070.718114	0.003984
1070.882309	0.003983
1071.046486	0.003825
1071.210644	0.002796
1071.374784	0.002806
1071.538906	0.002315
1071.703010	0.001992
1071.867096	-0.000637
1072.031163	-0.001414
1072.195212	-0.003294
1072.359243	-0.003789
1072.523256	-0.003943
1072.687250	-0.004186
1072.851226	-0.005064
1073.015184	-0.005655
1073.179124	-0.005896
1073.343045	-0.003928
1073.506949	-0.003239
1073.670834	-0.002765
1073.834701	-0.001963
1073.998549	-0.001958
1074.162380	-0.002197
1074.326192	-0.000438
1074.489986	-0.000325
1074.653761	-0.001044
1074.817519	0.001715
1074.981258	0.002041
1075.144979	0.004790
1075.308682	0.004211
1075.472367	0.002830
1075.636033	0.003917
1075.799681	0.003800
1075.963311	0.003252
1076.126923	0.003824
1076.290516	0.002663
1076.454092	0.001955
1076.617649	-0.001289
1076.781187	-0.001389
1076.944708	-0.000986
1077.108210	0.002030
1077.271695	0.003856
1077.435160	0.006163
1077.598608	0.005799
1077.762038	0.004640
1077.925449	0.004920
1078.088842	0.004887
1078.252217	0.004758
1078.415573	0.006709
1078.578912	0.003077
1078.742232	0.001426
1078.905534	-0.000484
1079.068817	-0.001522
1079.232083	-0.002871
1079.395330	-0.002451
1079.558559	-0.000720
1079.721770	-0.000453
1079.884962	0.000394
1080.048136	0.000313
1080.211293	0.002181
1080.374430	0.002957
1080.537550	0.002846
1080.700651	0.002436
1080.863735	0.002349
1081.026800	0.003016
1081.189846	0.001484
1081.352875	-0.000359
1081.515885	-0.000202
1081.678877	-0.004289
1081.841851	-0.008574
1082.004807	-0.008085
1082.167744	-0.007445
1082.330663	-0.007067
1082.493564	-0.008620
1082.656447	-0.007684
1082.819312	-0.008259
1082.982158	-0.008209
1083.144986	-0.006415
1083.307796	-0.002035
1083.470587	-0.000161
1083.633361	0.000870
1083.796116	0.000810
1083.958853	-0.000186
1084.121571	0.000889
1084.284272	0.002579
1084.446954	0.002162
1084.609618	0.000306
1084.772264	-0.000724
1084.934892	-0.001599
1085.097501	0.000542
1085.260092	-0.000122
1085.422665	0.003377
1085.585220	0.000873
1085.747756	-0.000565
1085.910274	-0.001539
1086.072774	-0.000919
1086.235256	0.000953
1086.397720	0.001236
1086.560165	-0.003935
1086.722592	-0.002120
1086.885001	-0.002212
1087.047392	-0.000102
1087.209764	-0.001168
1087.372119	-0.000641
1087.534455	-0.001044
1087.696772	-0.002642
1087.859072	-0.004272
1088.021353	-0.000469
1088.183616	-0.002260
1088.345861	-0.005487
1088.508088	-0.004304
1088.670296	-0.002796
1088.832486	-0.003229
1088.994658	-0.001000
1089.156812	-0.004911
1089.318948	-0.002824
1089.481065	-0.002814
1089.643164	-0.002651
1089.805245	-0.001319
1089.967308	-0.004265
1090.129352	-0.004228
1090.291378	0.000457
1090.453386	0.000417
1090.615376	0.005391
1090.777347	0.004438
1090.939301	0.001188
1091.101236	0.001925
1091.263153	-0.000373
1091.425051	-0.000047
1091.586932	0.001698
1091.748794	-0.000967
1091.910638	-0.001978
1092.072463	-0.003116
1092.234271	-0.002280
1092.396060	-0.000972
1092.557831	-0.002898
1092.719584	-0.000352
1092.881319	0.000578
1093.043035	-0.001335
1093.204733	-0.001635
1093.366413	0.000306
1093.528075	-0.001194
1093.689718	-0.003488
1093.851343	0.000255
1094.012950	0.001415
1094.174539	0.002538
1094.336110	0.001577
1094.497662	0.000334
1094.659196	-0.001842
1094.820712	-0.003016
1094.982210	-0.003484
1095.143689	-0.000016
1095.305151	-0.002817
1095.466594	-0.001440
1095.628018	-0.004198
1095.789425	-0.007744
1095.950813	-0.007126
1096.112183	-0.006413
1096.273535	-0.005820
1096.434869	-0.007106
1096.596184	-0.006301
1096.757482	-0.006954
1096.918761	-0.007204
1097.080021	-0.006480
1097.241264	-0.002313
1097.402488	-0.000681
1097.563694	-0.000492
1097.724882	-0.003509
1097.886052	0.001093
1098.047203	-0.001084
1098.208336	-0.002327
1098.369451	-0.002645
1098.530548	-0.001458
1098.691627	-0.000220
1098.852687	-0.003793
1099.013729	-0.005670
1099.174753	-0.005279
1099.335758	-0.008755
1099.496746	-0.011922
1099.657715	-0.011399
1099.818666	-0.011931
1099.979599	-0.011806
1100.140513	-0.012617
1100.301409	-0.011510
1100.462287	-0.009904
1100.623147	-0.007393
1100.783989	-0.008737
1100.944812	-0.002965
1101.105617	0.000478
1101.266404	0.001421
1101.427173	0.000147
1101.587923	-0.000424
1101.748656	0.001421
1101.909370	0.001456
1102.070066	0.001013
1102.230743	0.002119
1102.391403	0.000742
1102.552044	-0.001001
1102.712667	-0.001207
1102.873271	-0.000885
1103.033858	-0.000188
1103.194426	-0.000150
1103.354976	-0.001786
1103.515508	-0.000355
1103.676021	0.001704
1103.836517	0.000102
1103.996994	0.001747
1104.157453	-0.000228
1104.317893	-0.001961
1104.478316	-0.000489
1104.638720	0.002032
1104.799106	0.000455
1104.959474	-0.001295
1105.119823	-0.002458
1105.280155	-0.001296
1105.440468	-0.002610
1105.600763	-0.003401
1105.761039	-0.000245
1105.921298	-0.003527
1106.081538	-0.006696
1106.241760	-0.003335
1106.401964	-0.005805
1106.562149	-0.006463
1106.722316	-0.006095
1106.882465	-0.009046
1107.042596	-0.007163
1107.202709	-0.008173
1107.362803	-0.008241
1107.522879	-0.008721
1107.682937	-0.006790
1107.842977	-0.004926
1108.002999	-0.004946
1108.163002	-0.005951
1108.322987	-0.003005
1108.482954	-0.003266
1108.642902	-0.004488
1108.802833	-0.002975
1108.962745	-0.006166
1109.122639	-0.007620
1109.282515	-0.007396
1109.442372	-0.004886
1109.602211	-0.009385
1109.762032	-0.011572
1109.921835	-0.011018
1110.081620	-0.008048
1110.241386	-0.007143
1110.401134	-0.005957
1110.560864	-0.005057
1110.720576	-0.004858
1110.880269	-0.003852
1111.039945	0.003253
1111.199602	0.003343
1111.359240	0.002257
1111.518861	-0.001826
1111.678463	-0.006488
1111.838047	-0.004244
1111.997613	-0.008465
1112.157161	-0.009730
1112.316690	-0.010257
1112.476202	-0.013827
1112.635695	-0.012150
1112.795169	-0.010099
1112.954626	-0.008515
1113.114064	-0.006470
1113.273484	-0.008282
1113.432886	-0.004030
1113.592270	-0.006051
1113.751635	-0.005885
1113.910983	-0.005667
1114.070312	-0.003055
1114.229622	-0.001183
1114.388915	-0.003610
1114.548189	0.000419
1114.707445	0.004833
1114.866683	0.002244
1115.025903	0.002535
1115.185104	0.000554
1115.344287	0.001609
1115.503452	-0.000371
1115.662599	-0.006599
1115.821727	-0.002055
1115.980838	-0.005229
1116.139930	-0.009456
1116.299004	-0.004394
1116.458059	-0.001518
1116.617097	-0.000446
1116.776116	-0.001468
1116.935117	-0.005436
1117.094099	-0.003205
1117.253064	-0.005863
1117.412010	-0.006719
1117.570938	-0.006440
1117.729848	-0.010798
1117.888740	-0.007765
1118.047613	-0.010599
1118.206468	-0.010824
1118.365305	-0.005975
1118.524124	-0.004722
1118.682924	-0.003717
1118.841707	-0.000631
1119.000471	0.000539
1119.159216	-0.000429
1119.317944	-0.002479
1119.476653	-0.002023
1119.635344	-0.000254
1119.794017	-0.004025
1119.952672	-0.007781
1120.111308	-0.012368
1120.269927	-0.015899
1120.428527	-0.017846
1120.587108	-0.015787
1120.745672	-0.020363
1120.904217	-0.016376
1121.062744	-0.013361
1121.221253	-0.015291
1121.379744	-0.015064
1121.538216	-0.010959
1121.696671	-0.008185
1121.855107	-0.008880
1122.013524	-0.008937
1122.171924	-0.005042
1122.330305	-0.007620
1122.488668	-0.013233
1122.647013	-0.012195
1122.805340	-0.011040
1122.963648	-0.012269
1123.121938	-0.013375
1123.280210	-0.008967
1123.438464	-0.009277
1123.596700	-0.010624
1123.754917	-0.010806
1123.913116	-0.007988
1124.071297	-0.008075
1124.229459	-0.006624
1124.387604	-0.007128
1124.545730	-0.009579
1124.703838	-0.012067
1124.861928	-0.013285
1125.019999	-0.013317
1125.178052	-0.015116
1125.336088	-0.020266
1125.494104	-0.019553
1125.652103	-0.020020
1125.810083	-0.020989
1125.968045	-0.016915
1126.125989	-0.017054
1126.283915	-0.012405
1126.441823	-0.010187
1126.599712	-0.004223
1126.757583	-0.005116
1126.915436	-0.005172
1127.073270	-0.004664
1127.231087	0.002940
1127.388885	0.000043
1127.546665	0.001065
1127.704426	-0.004275
1127.862170	-0.006454
1128.019895	-0.011863
1128.177602	-0.008997
1128.335291	-0.008676
1128.492961	-0.007665
1128.650614	-0.011203
1128.808248	-0.013187
1128.965864	-0.013587
1129.123461	-0.011700
1129.281041	-0.009743
1129.438602	-0.005036
1129.596145	-0.005209
1129.753670	-0.003726
1129.911176	-0.006314
1130.068665	-0.011125
1130.226135	-0.009059
1130.383587	-0.009918
1130.541020	-0.009879
1130.698436	-0.013977
1130.855833	-0.019505
1131.013212	-0.018117
1131.170573	-0.016947
1131.327915	-0.017961
1131.485239	-0.015309
1131.642545	-0.017895
1131.799833	-0.015757
1131.957103	-0.015990
1132.114354	-0.012501
1132.271588	-0.009941
1132.428803	-0.005389
1132.585999	-0.009629
1132.743178	-0.007469
1132.900338	-0.009050
1133.057480	-0.006631
1133.214604	-0.012285
1133.371710	-0.013110
1133.528797	-0.016509
1133.685866	-0.015276
1133.842917	-0.021319
1133.999950	-0.017828
1134.156964	-0.022534
1134.313960	-0.020546
1134.470938	-0.016206
1134.627898	-0.010478
1134.784840	-0.007740
1134.941763	-0.006315
1135.098668	-0.009817
1135.255555	-0.009802
1135.412424	-0.012697
1135.569274	-0.007386
1135.726107	-0.007275
1135.882921	-0.011140
1136.039716	-0.014278
1136.196494	-0.016510
1136.353253	-0.016241
1136.509995	-0.016973
1136.666717	-0.015444
1136.823422	-0.015565
1136.980109	-0.013896
1137.136777	-0.014440
1137.293427	-0.013166
1137.450059	-0.009058
1137.606672	-0.010989
1137.763267	-0.010152
1137.919844	-0.002395
1138.076403	-0.000795
1138.232944	-0.000328
1138.389466	-0.004011
1138.545971	-0.002091
1138.702457	-0.005577
1138.858924	-0.008760
1139.015374	-0.007667
1139.171805	-0.002593
1139.328218	-0.011105
1139.484613	-0.011697
1139.640990	-0.011236
1139.797348	-0.008310
1139.953688	-0.010227
1140.110010	-0.005481
1140.266314	-0.008581
1140.422600	-0.009200
1140.578867	-0.015089
1140.735116	-0.008064
1140.891347	-0.008958
1141.047559	-0.008450
1141.203754	-0.007562
1141.359930	-0.003891
1141.516088	-0.004182
1141.672228	-0.002384
1141.828349	0.001580
1141.984452	0.001590
1142.140537	-0.005199
1142.296604	-0.007734
1142.452653	-0.000211
1142.608683	-0.003342
1142.764695	-0.006936
1142.920689	-0.012894
1143.076665	-0.010369
1143.232622	-0.008989
1143.388562	-0.006121
1143.544483	-0.002413
1143.700385	0.004714
1143.856270	0.003660
1144.012136	0.005758
1144.167985	0.006034
1144.323814	0.004494
1144.479626	-0.002229
1144.635420	-0.006882
1144.791195	-0.010098
1144.946952	-0.009985
1145.102691	-0.015568
1145.258411	-0.018469
1145.414113	-0.019787
1145.569798	-0.023826
1145.725463	-0.020270
1145.881111	-0.017191
1146.036741	-0.013740
1146.192352	-0.010670
1146.347945	-0.008260
1146.503519	-0.003351
1146.659076	-0.010164
1146.814614	-0.012522
1146.970134	-0.006334
1147.125636	-0.006143
1147.281120	-0.009196
1147.436585	-0.015393
1147.592032	-0.014473
1147.747461	-0.015929
1147.902872	-0.020370
1148.058265	-0.015381
1148.213639	-0.017697
1148.368995	-0.020770
1148.524333	-0.017317
1148.679653	-0.015024
1148.834954	-0.016547
1148.990237	-0.015667
1149.145502	-0.014922
1149.300749	-0.013908
1149.455977	-0.018554
1149.611188	-0.011630
1149.766380	-0.013088
1149.921553	-0.013907
1150.076709	-0.010094
1150.231846	-0.001394
1150.386966	-0.006661
1150.542066	-0.005788
1150.697149	-0.006070
1150.852214	-0.000956
1151.007260	-0.006675
1151.162288	-0.004874
1151.317298	-0.008936
1151.472289	-0.010777
1151.627263	-0.015499
1151.782218	-0.010669
1151.937155	-0.016075
1152.092073	-0.015014
1152.246974	-0.017665
1152.401856	-0.012289
1152.556720	-0.013136
1152.711566	-0.013073
1152.866393	-0.014961
1153.021203	-0.015368
1153.175994	-0.023146
1153.330767	-0.024313
1153.485521	-0.027225
1153.640258	-0.024117
1153.794976	-0.019461
1153.949676	-0.013726
1154.104358	-0.012454
1154.259021	-0.009539
1154.413667	-0.014176
1154.568294	-0.005235
1154.722903	-0.002986
1154.877493	0.000751
1155.032066	-0.003523
1155.186620	-0.007658
1155.341156	-0.014164
1155.495674	-0.013286
1155.650173	-0.010525
1155.804654	-0.000961
1155.959118	-0.003724
1156.113562	-0.008868
1156.267989	-0.015436
1156.422397	-0.010087
1156.576788	-0.015154
1156.731160	-0.015411
1156.885513	-0.015806
1157.039849	-0.019322
1157.194166	-0.028049
1157.348465	-0.029251
1157.502746	-0.023450
1157.657009	-0.019828
1157.811253	-0.015951
1157.965479	-0.013645
1158.119687	-0.006393
1158.273877	-0.005628
1158.428048	-0.003478
1158.582201	0.003840
1158.736337	0.000359
1158.890453	-0.001431
1159.044552	-0.000204
1159.198632	-0.007350
1159.352694	-0.009993
1159.506738	-0.017018
1159.660764	-0.018641
1159.814771	-0.019732
1159.968761	-0.022816
1160.122732	-0.017845
1160.276685	-0.015101
1160.430619	-0.016113
1160.584535	-0.015980
1160.738434	-0.014818
1160.892313	-0.022474
1161.046175	-0.021562
1161.200019	-0.019000
1161.353844	-0.013118
1161.507651	-0.018021
1161.661440	-0.015631
1161.815210	-0.014138
1161.968962	-0.010866
1162.122697	-0.012058
1162.276412	0.000619
1162.430110	0.006631
1162.583789	0.000201
1162.737451	-0.002719
1162.891094	-0.007097
1163.044718	-0.004039
1163.198325	-0.009970
1163.351913	-0.016071
1163.505483	-0.009166
1163.659035	-0.009984
1163.812569	-0.012360
1163.966084	-0.012785
1164.119581	-0.011446
1164.273060	-0.009955
1164.426521	-0.016012
1164.579964	-0.011649
1164.733388	-0.018470
1164.886794	-0.021373
1165.040182	-0.025713
1165.193551	-0.025779
1165.346903	-0.020627
1165.500236	-0.018233
1165.653551	-0.012168
1165.806848	-0.003392
1165.960126	-0.008093
1166.113386	0.002946
1166.266628	0.003763
1166.419852	0.014298
1166.573058	0.006140
1166.726245	0.006093
1166.879414	-0.009505
1167.032565	-0.010017
1167.185698	-0.022165
1167.338812	-0.012891
1167.491909	-0.017409
1167.644987	-0.031079
1167.798046	-0.036996
1167.951088	-0.034577
1168.104111	-0.032689
1168.257117	-0.018096
1168.410103	-0.030475
1168.563072	-0.031545
1168.716023	-0.033549
1168.868955	-0.031214
1169.021869	-0.017745
1169.174765	-0.012038
1169.327642	-0.004331
1169.480501	-0.007433
1169.633343	-0.019680
1169.786165	-0.011860
1169.938970	-0.009859
1170.091757	-0.014347
1170.244525	-0.014184
1170.397275	-0.013872
1170.550007	-0.018481
1170.702720	-0.029677
1170.855415	-0.024558
1171.008092	-0.024032
1171.160751	-0.025513
1171.313392	-0.031124
1171.466014	0.039328
1171.618619	-0.070618
1171.771205	-0.070618
1171.923772	-0.070618
