sample name	sample
index	1223
start time	 04-29-2021  10:47:11 AM
880	-0.030612
Peak Time (s)	92.035
Peak Height 	-0.03061
calc peak height	90,93
Baseline Time (s)	9.537
Baseline Value 	-0.003663
subtract baseline	10,4
Abs	-0.008635
Peak Time (s)	90.037
Peak Height 	-0.008635
calc peak height	90,93
Baseline Time (s)	10.037
Baseline Value 	0.002858
subtract baseline	10,3
PK_550	-0.004736
Peak Time (s)	92.535
Peak Height 	-0.004736
calc peak height	90,93
Baseline Time (s)	10.037
Baseline Value 	9.12E-4
subtract baseline	10,2
PK_880	-0.011078
Peak Time (s)	91.035
Peak Height 	-0.01108
calc peak height	90,93
Baseline Time (s)	10.037
Baseline Value 	5.6476E-4
subtract baseline	10,1


Time (s)	A880-A510	A880-A775	A880-A975	A880	I510	I775	I975	I880	
0.034000	-0.003914	-0.001371	-0.009945	0.006659	6126.337469	43717.970166	3827.912927	22562.848261
0.537500	-0.001635	-0.001203	-0.004400	0.003919	6164.094074	43992.364324	3846.629424	22687.510714
1.037500	-0.003252	-0.000334	0.000038	0.003808	6152.714023	44085.118567	3857.057749	22692.542722
1.538000	-0.000453	-0.000541	-0.005289	0.003871	6173.417598	44059.551514	3844.712188	22689.680581
2.036000	-0.000121	-0.000227	-0.002151	0.001725	6192.268849	44293.348079	3856.814398	22787.858934
2.536000	0.001072	-0.000047	-0.000438	0.000064	6214.124530	44469.323879	3864.617813	22864.207629
3.036000	-0.000515	-0.000458	-0.001267	-0.000497	6206.248229	44483.634956	3863.995570	22890.030195
3.536500	-0.001152	-0.000346	-0.005705	0.003527	6170.723206	44110.636201	3844.548554	22705.382934
4.037000	-0.000548	0.000105	-0.002323	0.001272	6192.474042	44368.280849	3857.462789	22808.659658
4.536500	0.000780	0.000145	0.005244	0.000950	6205.084907	44402.909803	3875.816248	22823.440829
5.037500	-0.000492	-0.001072	-0.001515	0.000147	6201.494889	44363.290878	3861.928144	22860.357338
5.535000	-0.002290	-0.000544	-0.003175	0.000091	6188.190083	44419.066193	3858.220573	22862.934466
6.035000	0.002374	-0.000758	-0.000698	0.000562	6220.299795	44353.657960	3862.858806	22841.259027
6.535500	0.001676	-0.000159	-0.000352	0.000425	6215.989600	44423.986218	3863.977908	22847.568047
7.035500	0.000458	-0.000585	-0.004994	0.000197	6208.390580	44405.089506	3853.789026	22858.070578
7.536000	-0.001882	-0.000696	-0.000734	0.000450	6188.566130	44370.319249	3863.035523	22846.441473
8.036500	0.001086	0.000635	-0.003048	0.000745	6209.002800	44469.347957	3857.002975	22832.838316
8.536000	-0.000438	0.000254	-0.002633	0.000603	6198.422869	44446.450161	3858.289170	22839.387983
9.037000	0.000957	-0.000758	0.000129	-0.000632	6218.589077	44467.821158	3867.556324	22896.268102
9.536500	-0.000221	-0.000246	0.000060	0.000000	6204.696755	44456.332068	3865.922944	22867.131437
10.037000	0.000000	0.000000	0.000000	-0.000108	6207.218463	44490.233044	3866.035263	22872.111463
10.537500	0.001048	0.000101	-0.000904	0.000125	6213.470856	44477.536822	3863.394654	22861.358930
11.035000	0.001225	-0.000549	-0.004649	-0.000430	6219.098676	44468.485909	3856.024682	22886.958088
11.535500	-0.000238	0.000268	0.000173	0.000140	6203.495240	44492.197780	3865.861025	22860.701399
12.035000	-0.000916	0.000074	-0.001687	0.003587	6172.052491	44144.870101	3853.597816	22702.643437
12.536500	0.000111	0.000737	-0.000533	0.000504	6203.378685	44502.235126	3863.377526	22843.958884
13.036500	-0.000455	-0.000479	0.005074	-0.002329	6220.787901	44657.483531	3883.142807	22974.678285
13.538000	0.001174	0.001179	-0.002052	-0.001269	6225.168158	44715.002115	3863.964688	22925.655312
14.037000	0.000318	0.000681	0.001402	0.003422	6182.687414	44218.275542	3861.099955	22710.201761
14.537000	-0.001947	-0.000230	0.000364	0.001107	6183.063906	44352.057460	3864.056954	22816.211764
15.037500	0.003212	0.000139	-0.000824	-0.001734	6244.511963	44659.643129	3867.901563	22947.136701
15.535000	-0.000414	-0.000207	0.001696	-0.001862	6217.512121	44638.680259	3874.089776	22953.069384
16.035000	-0.002813	-0.000395	-0.005604	0.004265	6152.589959	44036.080959	3843.100825	22671.731710
16.535500	0.002258	0.000231	-0.000589	-0.001691	6236.793424	44664.369445	3868.349947	22945.163954
17.036000	0.002174	-0.000950	0.002784	-0.004107	6254.879141	44783.294463	3881.931440	23057.155667
17.536000	-0.000283	-0.000005	-0.002747	0.001969	6189.175139	44291.275200	3854.880104	22776.680855
18.036500	-0.001445	-0.000320	-0.003886	0.001972	6180.299503	44260.967896	3852.257603	22776.523443
18.537000	-0.003455	-0.000524	-0.001682	-0.000138	6181.060739	44442.913362	3862.199519	22873.479141
19.036500	0.000678	0.000612	-0.005058	0.000477	6207.932810	44492.857641	3852.999844	22845.194958
19.537000	0.000295	0.000098	-0.000724	0.000147	6207.525141	44475.225557	3863.762202	22860.376982
20.038000	-0.001128	-0.000266	-0.002305	0.001833	6183.778056	44279.393639	3856.210711	22782.926704
20.535000	-0.000664	0.000910	0.002741	0.001040	6193.355637	44467.375659	3869.745313	22819.287598
21.035500	-0.001522	0.000582	-0.000001	0.000904	6187.848621	44449.005508	3863.682864	22825.542591
21.536000	-0.000266	-0.000400	0.002196	0.000023	6204.169813	44439.404615	3870.848182	22866.060236
22.036000	0.000079	-0.000021	0.001758	0.002034	6191.445951	44283.557029	3865.142161	22773.710992
22.536000	0.001264	0.000309	0.002685	0.000871	6209.405874	44426.144132	3870.011059	22827.077968
23.036500	0.001025	-0.000668	-0.001892	0.000269	6212.185791	44390.190657	3860.772980	22854.743121
23.537000	-0.000752	-0.000255	0.002249	0.000511	6196.722971	44406.550479	3869.831864	22843.597616
24.034500	-0.002442	-0.000423	0.003068	0.001814	6173.930112	44266.169246	3868.703071	22783.767005
24.537500	0.001806	0.000668	0.001392	0.001153	6211.396392	44433.478693	3866.339999	22814.105275
25.035500	-0.001621	0.000561	0.001711	0.001053	6185.959488	44432.806435	3867.315744	22818.726111
25.535000	0.000687	-0.000843	0.003805	-0.000062	6212.132134	44405.147569	3874.813150	22869.967381
26.035500	-0.001515	-0.000532	-0.001817	0.001720	6181.690252	44264.789206	3857.595473	22788.087788
26.536000	-0.001739	0.000259	-0.002447	0.000542	6188.954678	44452.809862	3858.860031	22842.195317
27.036000	0.001879	-0.000526	-0.001378	0.000340	6218.207249	44397.055147	3861.798094	22851.479943
27.536500	-0.000999	-0.000462	-0.007246	0.003966	6168.552199	44057.998933	3840.052765	22685.357001
28.036500	-0.003743	0.000207	-0.003186	0.004696	6142.338298	44052.249673	3847.626204	22652.062470
28.537000	-0.000540	0.000148	0.003142	-0.002269	6219.666231	44711.925097	3878.439730	22971.874319
29.037000	0.000838	0.000139	-0.003411	-0.001696	6225.872476	44655.967242	3861.804549	22945.390701
29.538000	-0.002404	0.000222	-0.000508	0.004039	6157.378725	44115.985098	3855.268911	22682.037000
30.035500	-0.001263	-0.000533	0.003638	0.003974	6166.491027	44050.507137	3865.002799	22684.980061
30.534500	-0.000924	-0.000142	0.000433	-0.002130	6215.648434	44670.684193	3871.761269	22965.464680
31.035500	-0.001345	-0.000113	0.001610	0.001687	6183.232587	44307.876302	3865.604610	22789.619225
31.538500	-0.001389	-0.000006	-0.001210	0.003155	6171.747790	44178.308202	3855.687636	22722.387365
32.036500	-0.000463	-0.000486	0.001444	-0.002905	6225.161093	44712.197578	3875.944732	23001.340548
32.536500	-0.000402	-0.000669	-0.000845	-0.002836	6225.094095	44687.875046	3870.422038	22998.148185
33.037000	0.000616	0.000096	0.003340	-0.001734	6224.449513	44655.484426	3877.646554	22947.116790
33.534500	-0.002607	0.000181	0.000598	0.003265	6161.692676	44185.609054	3859.604216	22717.382219
34.039000	0.000652	0.000539	0.003367	0.001236	6201.918320	44413.266304	3870.751337	22810.318666
34.535000	0.000299	-0.000287	-0.001886	0.000887	6201.884574	44367.634592	3859.359126	22826.329740
35.035500	0.000135	-0.000420	0.002653	0.000540	6203.287922	44388.003977	3870.707459	22842.279544
35.536000	-0.001016	0.000194	-0.004420	0.000992	6191.036256	44403.578802	3853.281892	22821.519911
36.036000	0.001406	-0.000748	-0.004647	0.000577	6212.754977	44353.258513	3853.714577	22840.603932
36.536500	-0.000001	-0.000160	-0.002506	0.000622	6201.616236	44404.985154	3858.537858	22838.496426
37.036500	-0.001059	-0.000515	-0.003855	0.000176	6196.939973	44413.746209	3856.455938	22859.032469
37.536500	0.000347	0.000315	-0.003177	0.001281	6199.241024	44387.433874	3855.473360	22808.227880
38.037500	-0.000789	0.000128	0.002868	0.000475	6196.716598	44446.726377	3871.362994	22845.284266
38.535000	0.000433	0.000170	-0.002353	0.000892	6202.876300	44410.799361	3858.267912	22826.097847
39.035000	-0.001413	0.000411	-0.001434	0.000900	6188.706351	44433.012723	3860.370797	22825.713933
39.535500	-0.000196	0.000405	0.001446	0.001010	6197.157469	44421.985538	3866.799142	22820.686798
40.035500	-0.001544	0.000265	-0.000975	0.002408	6176.235263	44275.152043	3857.948820	22756.545300
40.536000	-0.000107	-0.000825	0.000217	0.000380	6202.661423	44364.692158	3865.406031	22849.647285
41.036500	0.000452	-0.000310	0.000422	0.000505	6205.977965	44401.828063	3865.591011	22843.872434
41.536000	0.000566	-0.000509	0.003834	0.000806	6204.556879	44354.199041	3872.848955	22830.069667
42.036500	-0.000113	-0.000352	-0.002751	0.002442	6186.865936	44213.194658	3853.785205	22755.019431
42.537000	-0.002649	-0.000751	0.001092	0.000738	6180.535577	44337.575526	3866.607776	22833.189747
43.036500	-0.000648	0.000236	-0.000204	0.001770	6187.914828	44333.277681	3861.205975	22785.807436
43.537500	-0.000624	-0.000426	0.004894	0.000539	6197.485492	44387.548774	3875.959002	22842.329838
44.037000	-0.001592	-0.000448	0.003373	0.002472	6175.389884	44201.240953	3867.881423	22753.654555
44.536500	-0.000442	-0.000652	-0.001769	-0.001852	6217.208259	44594.886207	3865.976358	22952.567638
45.035500	0.002214	0.000320	0.005770	-0.001605	6235.785738	44664.604041	3883.073229	22941.157878
45.536000	-0.000418	-0.000030	0.001557	0.003872	6173.672743	44107.840819	3860.416173	22689.624330
46.036000	-0.001851	-0.000559	0.002754	0.003503	6165.609629	44092.707410	3864.042821	22706.469333
46.536500	0.000709	0.000520	0.001072	-0.001228	6221.269782	44647.573572	3871.143226	22923.746247
47.036500	0.001520	-0.000226	0.001486	-0.001328	6228.288203	44585.563892	3872.348654	22928.394998
47.536500	0.000324	-0.000446	-0.000853	0.001700	6195.856199	44274.868649	3859.866055	22788.989456
48.037000	-0.002109	-0.000549	-0.001771	0.003496	6163.713086	44094.317285	3853.613222	22706.808849
48.535000	0.000959	0.000185	0.005548	-0.001421	6224.680151	44633.948706	3882.112735	22932.648098
49.035000	0.001904	0.000129	0.002293	-0.001601	6233.364626	44645.933504	3874.878218	22941.004554
49.535500	-0.002538	-0.000464	-0.003254	0.001057	6178.950208	44334.479703	3855.811455	22818.498944
50.036000	-0.002885	-0.000305	-0.000879	0.003643	6156.737650	44103.539165	3855.327593	22700.110165
50.536000	0.001672	-0.000620	0.002767	0.000290	6216.998767	44392.828090	3871.558715	22853.784514
51.036000	0.024023	-0.015797	0.012013	0.349667	4450.489785	20819.305357	3320.171772	11809.384479
51.536500	0.008300	-0.021858	-0.003703	0.064572	5801.894942	36975.022848	3718.914786	20104.404026
52.037000	-0.004253	-0.026131	-0.005605	-0.069078	6742.194110	48802.585643	4024.661322	26314.689458
52.537000	-0.014693	-0.035715	-0.011314	-0.165405	7587.203742	58952.188592	4295.770689	32136.533512
53.037500	0.003022	-0.027092	0.005496	-0.161780	7742.487392	59601.148918	4340.144293	31893.263926
53.535000	0.003731	-0.016110	0.007315	-0.098418	7088.986847	53157.932355	4144.078165	27953.296916
54.035500	0.000083	-0.017836	0.005942	-0.063836	6734.141520	49126.448186	4041.748501	26033.421088
54.535500	-0.010197	-0.016097	-0.006541	-0.058239	6595.719394	48717.576706	3993.409706	25736.833767
55.035500	-0.011795	-0.011704	-0.007606	-0.073008	6710.198037	50784.765233	4029.864184	26527.842471
55.536500	-0.012225	-0.010857	-0.011575	-0.078448	6754.659121	51483.051926	4033.847708	26826.041570
56.036500	-0.007420	-0.006987	-0.013464	-0.091814	6920.291470	53450.230164	4065.382955	27574.737181
56.537000	-0.005412	-0.008361	-0.009133	-0.120305	7214.376209	56707.624414	4160.307479	29249.765084
57.039500	-0.004242	-0.005782	-0.005439	-0.106784	7092.790211	55368.747114	4131.131172	28441.156389
57.540000	-0.006600	-0.006091	-0.012734	-0.085538	6869.833682	52827.736165	4050.038773	27220.298853
58.034500	-0.005326	-0.004124	-0.005815	-0.065577	6701.715050	50801.156110	4014.720456	26126.480472
58.535500	-0.006271	-0.006001	-0.010849	-0.056673	6615.974784	49626.459182	3978.129989	25654.511603
59.035500	-0.007557	-0.006630	-0.010478	-0.049576	6544.517761	48802.491544	3960.889917	25285.241124
59.535500	-0.008033	-0.003709	-0.006882	-0.040323	6463.289920	48138.016122	3946.594070	24812.726081
60.036000	-0.011516	-0.006364	-0.013989	-0.026488	6323.135830	46452.252083	3895.261387	24124.713991
60.536000	-0.008403	-0.005254	-0.011031	-0.017691	6278.339114	45688.078167	3881.384180	23698.522807
61.037000	-0.012400	-0.005034	-0.013230	-0.009285	6182.605742	44888.970186	3856.656083	23299.269977
61.536500	-0.014487	-0.008965	-0.014715	-0.002563	6116.243619	43871.258889	3837.925987	22985.471847
62.037500	-0.018264	-0.009559	-0.014504	0.001828	6055.918320	43403.723237	3828.523671	22783.160821
62.537500	-0.017259	-0.006992	-0.017649	-0.005047	6114.096476	44294.010998	3836.908240	23100.856922
63.035000	-0.015653	-0.004669	-0.011646	-0.011540	6175.011909	45143.062417	3865.536908	23405.594048
63.535000	-0.015372	-0.003266	-0.014402	-0.017764	6224.769729	45891.593575	3873.629514	23702.029457
64.036000	-0.012236	-0.003293	-0.016587	-0.028308	6331.871393	46945.571697	3893.400734	24213.965106
64.536000	-0.014598	-0.003550	-0.010930	-0.036137	6375.629198	47720.414660	3926.115933	24602.232316
65.036500	-0.012521	-0.003211	-0.021265	-0.040065	6424.323006	48163.034588	3910.448322	24799.696144
65.536500	-0.015545	-0.004144	-0.017680	-0.040896	6406.463086	48152.324379	3921.221198	24841.668873
66.037000	-0.019081	-0.005379	-0.019165	-0.039094	6363.357917	47836.913220	3913.191026	24750.687643
66.537000	-0.015585	-0.004207	-0.016073	-0.044943	6439.160067	48569.398676	3935.175867	25047.352540
67.039500	-0.017554	-0.005681	-0.020161	-0.046007	6431.751863	48526.335166	3927.688686	25101.760213
67.537500	-0.021010	-0.005631	-0.015185	-0.042686	6376.723249	48183.951535	3931.779728	24932.404682
68.035000	-0.018371	-0.005997	-0.018981	-0.043100	6401.407218	48188.896041	3923.438279	24953.452284
68.535000	-0.017219	-0.004829	-0.023151	-0.040076	6386.258636	47995.765332	3905.905281	24800.224209
69.035500	-0.019049	-0.005097	-0.015906	-0.038027	6355.066536	47755.894291	3918.541065	24697.028856
69.535500	-0.020027	-0.004307	-0.017833	-0.033829	6313.863889	47405.088884	3903.661362	24487.041199
70.036500	-0.024179	-0.004662	-0.022679	-0.027847	6234.624047	46760.417743	3877.869403	24191.350971
70.537000	-0.017294	-0.004050	-0.020299	-0.031337	6315.770907	47176.645171	3891.772001	24363.355760
71.036500	-0.016034	-0.003822	-0.020365	-0.029672	6312.567165	47030.332011	3887.653538	24281.113639
71.537500	-0.019497	-0.004292	-0.014903	-0.026933	6263.869404	46705.444490	3894.138757	24146.498198
72.034500	-0.021399	-0.004952	-0.021328	-0.021403	6206.420566	46085.423953	3865.957957	23877.321971
72.535000	-0.018527	-0.004695	-0.018719	-0.026357	6266.941720	46606.752424	3883.695627	24118.296738
73.035000	-0.018197	-0.004558	-0.013429	-0.025673	6264.182999	46551.752401	3894.653414	24084.879868
73.535500	-0.019562	-0.005229	-0.015241	-0.024397	6243.653293	46356.489359	3887.294631	24022.637063
74.038500	-0.019742	-0.004588	-0.025321	-0.018143	6194.158031	45798.417893	3849.235244	23720.228147
74.536000	-0.017268	-0.004407	-0.019701	-0.024569	6262.810828	46456.042631	3877.162244	24030.993129
75.036000	-0.017759	-0.004976	-0.020478	-0.025625	6267.221075	46504.950234	3877.820189	24082.511140
75.537000	-0.019375	-0.004807	-0.015940	-0.023842	6240.802672	46343.154387	3884.321709	23995.611996
76.037000	-0.021175	-0.004828	-0.017974	-0.019471	6193.354550	45905.976393	3869.269800	23784.055753
76.540000	-0.015431	-0.004929	-0.016747	-0.026259	6290.417454	46573.384270	3888.139947	24113.532689
77.035000	-0.013851	-0.005033	-0.017364	-0.026897	6307.893323	46627.138709	3888.189833	24144.762035
77.535000	-0.016128	-0.005194	-0.019997	-0.026399	6286.044806	46560.823383	3880.776275	24120.368477
78.035000	-0.019277	-0.005659	-0.019406	-0.022309	6229.706028	46105.124760	3872.554290	23921.166050
78.535500	-0.016640	-0.006299	-0.013870	-0.029919	6309.729934	46804.344145	3903.791567	24293.316177
79.035500	-0.017220	-0.006897	-0.015899	-0.031020	6313.845756	46855.232468	3901.553743	24347.670340
79.536500	-0.016502	-0.006505	-0.021308	-0.030796	6317.758609	46872.212857	3888.083676	24336.602143
80.036500	-0.018938	-0.005956	-0.021177	-0.026081	6261.582286	46452.311006	3877.247074	24104.787348
80.537000	-0.014893	-0.006851	-0.010693	-0.032800	6346.498567	47040.479880	3918.506431	24435.889663
81.042500	-0.014805	-0.006614	-0.014307	-0.033353	6351.624348	47120.789362	3911.043728	24463.379113
81.537000	-0.013288	-0.006722	-0.011358	-0.032929	6360.373103	47066.741220	3917.196498	24442.307902
82.035000	-0.011601	-0.006860	-0.017594	-0.034528	6386.821348	47215.503983	3905.926832	24521.869511
82.535000	-0.012533	-0.006845	-0.017327	-0.034460	6378.744104	47210.029731	3906.407234	24518.449586
83.038000	-0.012105	-0.006869	-0.009975	-0.034604	6383.358705	47222.284153	3924.691562	24525.629739
83.536000	-0.011625	-0.007074	-0.010098	-0.034372	6385.366813	47177.797957	3923.818979	24514.093035
84.036000	-0.012555	-0.006713	-0.015013	-0.035677	6388.399504	47348.026731	3914.980759	24579.227250
84.536000	-0.012947	-0.006943	-0.009805	-0.036130	6388.895021	47370.846652	3928.872546	24601.891655
85.036500	-0.011798	-0.005936	-0.013356	-0.035876	6396.131235	47447.982838	3919.514711	24589.166612
85.536500	-0.008395	-0.006487	-0.011657	-0.036643	6430.077164	47470.184884	3925.572649	24627.585017
86.037000	-0.016843	-0.006398	-0.012874	-0.031506	6320.687691	46955.099402	3910.039064	24371.742063
86.537500	-0.008323	-0.006177	-0.008952	-0.037870	6440.715396	47628.208657	3935.297207	24689.137624
87.035500	-0.010551	-0.006769	-0.013611	-0.038675	6429.058806	47650.190993	3925.762431	24729.599408
87.535500	-0.011903	-0.005654	-0.013745	-0.038412	6415.884635	47738.112242	3924.787288	24716.382219
88.038500	-0.010404	-0.006369	-0.014377	-0.039296	6435.341634	47755.468879	3925.404729	24760.860007
88.535500	-0.011385	-0.006233	-0.012841	-0.039323	6427.539941	47772.300036	3929.261508	24762.238783
89.036500	-0.012295	-0.006388	-0.014234	-0.039615	6422.489162	47786.445731	3926.544263	24776.957294
89.536500	-0.011974	-0.006295	-0.006675	-0.038636	6417.132248	47695.030365	3942.884847	24727.656769
90.036500	-0.017680	-0.006311	-0.008635	-0.032590	6322.645550	47074.064063	3923.035426	24425.477463
90.539500	-0.012242	-0.006282	-0.012106	-0.038367	6412.752584	47668.577990	3928.715970	24714.116004
91.034500	-0.011078	-0.005504	-0.013067	-0.037783	6417.473364	47688.602841	3924.904721	24684.726388
91.535000	-0.011210	-0.005225	-0.016397	-0.036896	6409.179612	47625.945695	3914.578197	24640.235638
92.035000	-0.017870	-0.005334	-0.020602	-0.030612	6305.488860	46972.245064	3889.324565	24327.507777
92.535500	-0.011718	-0.004736	-0.013441	-0.035748	6395.747133	47558.113787	3918.993736	24582.769698
93.036000	-0.011708	-0.005051	-0.015565	-0.035729	6395.669760	47523.698922	3913.761576	24581.806455
93.538500	-0.012432	-0.003826	-0.011680	-0.033994	6375.808204	47471.336168	3919.012223	24495.249325
94.042000	-0.017693	-0.004140	-0.018796	-0.027670	6283.735702	46795.263568	3886.625118	24182.650510
94.536500	-0.011997	-0.003760	-0.009806	-0.033360	6374.209396	47413.147102	3922.052537	24463.730696
95.036500	-0.011217	-0.004640	-0.011484	-0.033006	6377.634044	47286.728641	3917.075382	24446.102094
95.537000	-0.014511	-0.004124	-0.018788	-0.032130	6344.191983	47250.016151	3897.280046	24402.627707
96.037500	-0.017968	-0.003556	-0.016011	-0.025770	6266.724669	46662.398612	3888.727333	24089.614108
