sample name	sample
index	144
start time	 02-15-2021  02:04:26 PM
880	0.444794
Peak Time (s)	92.535
Peak Height 	0.4448
calc peak height	90,93
Baseline Time (s)	9.037
Baseline Value 	-0.00424
subtract baseline	10,4
Abs	0.320103
Peak Time (s)	90.036
Peak Height 	0.3201
calc peak height	90,93
Baseline Time (s)	9.037
Baseline Value 	0.004475
subtract baseline	10,3
PK_550	0.154417
Peak Time (s)	91.538
Peak Height 	0.1544
calc peak height	90,93
Baseline Time (s)	11.036
Baseline Value 	0.001143
subtract baseline	10,2
PK_880	0.301992
Peak Time (s)	91.037
Peak Height 	0.302
calc peak height	90,93
Baseline Time (s)	9.037
Baseline Value 	0.002587
subtract baseline	10,1


Time (s)	A880-A510	A880-A775	A880-A975	A880	I510	I775	I975	I880	
0.034500	0.002412	-0.000119	0.003650	0.002872	4106.510563	13836.002297	3243.355325	8052.354763
0.537500	-0.003861	0.000418	-0.005925	0.004116	4088.005270	13818.483244	3237.090166	8037.949272
1.035000	-0.000696	-0.001482	-0.014302	0.004466	4094.896859	13762.951003	3232.148403	8033.900449
1.535500	-0.007305	-0.002133	0.006034	-0.000222	4090.188530	13862.811162	3246.587674	8088.370811
2.038500	0.002354	0.001414	0.005541	0.001684	4109.320669	13903.679150	3245.166850	8066.154131
2.536000	-0.004045	-0.001077	-0.012971	0.000387	4096.692955	13873.949328	3235.200508	8081.264713
3.035500	0.001500	-0.000622	-0.010830	-0.000381	4112.337746	13904.398210	3236.856507	8090.222242
3.536000	-0.007590	-0.002716	-0.015746	-0.001477	4092.563002	13879.521689	3234.683595	8103.048354
4.036000	-0.002064	-0.000869	-0.004083	0.000743	4100.698400	13870.234879	3240.090664	8077.107901
4.536500	0.001646	-0.000586	-0.002335	-0.000703	4113.507590	13913.336659	3241.946068	8093.994774
5.037500	-0.010547	-0.001794	-0.009765	-0.001615	4085.676847	13905.951413	3238.173653	8104.666028
5.537500	0.000256	-0.002028	0.005713	-0.001116	4111.066516	13887.660749	3246.928180	8098.817121
6.035000	-0.004608	-0.000631	0.008688	-0.001122	4099.021082	13922.675709	3248.707017	8098.892803
6.538000	0.003276	0.000070	-0.014382	0.000635	4114.236316	13896.317159	3234.259930	8078.363978
7.035500	-0.003004	-0.000402	0.002404	-0.000784	4102.147303	13919.944599	3244.772328	8094.935997
7.536000	-0.001657	0.000885	-0.014366	0.000474	4102.367813	13920.664868	3234.360080	8080.241430
8.039000	-0.004932	-0.001559	-0.004551	-0.001146	4098.281931	13900.117466	3240.914567	8099.172523
8.536000	0.001382	-0.000275	-0.012424	0.000094	4110.858507	13901.188257	3235.677226	8084.674083
9.036500	0.000000	0.000443	0.000000	0.000000	4107.652985	13921.490661	3242.899573	8085.777079
9.537000	-0.000822	-0.000664	0.005039	-0.000148	4105.976952	13897.520518	3245.953485	8087.499915
10.037500	-0.004379	0.000119	0.001168	-0.000026	4096.884512	13914.033070	3243.599433	8086.077826
10.535000	-0.000102	0.000526	0.003004	0.000808	4105.392499	13903.370908	3244.188316	8076.351584
11.035500	0.002839	0.000000	-0.020317	0.001121	4111.932251	13882.480859	3230.656572	8072.711558
11.535500	0.002562	-0.000970	-0.025299	-0.001234	4117.131651	13917.022489	3229.197499	8100.209523
12.035500	0.002463	0.000503	0.001486	0.000648	4112.174254	13906.793906	3243.390337	8078.217786
12.536500	-0.002020	-0.001046	-0.010293	-0.000749	4104.496823	13902.994239	3237.374022	8094.527743
13.036500	-0.001498	-0.001429	-0.006457	-0.000382	4104.882604	13884.305701	3239.368564	8090.236051
13.536500	-0.004985	-0.001502	-0.000680	-0.000489	4096.534749	13885.180567	3242.788303	8091.494984
14.037000	-0.005157	-0.001674	0.007812	0.000378	4093.981518	13859.315800	3247.288361	8081.365483
14.537000	0.000910	-0.001512	0.000592	0.000478	4108.727718	13860.843680	3242.966138	8080.199438
15.034500	-0.002212	-0.001197	-0.008486	0.000566	4100.770487	13866.505415	3237.656672	8079.178952
15.535000	0.003767	-0.001419	0.003334	-0.000521	4118.364589	13888.026596	3245.166093	8091.864646
16.035000	-0.007091	-0.000308	-0.003325	-0.000634	4091.721477	13918.560092	3241.329677	8093.189997
16.535500	-0.002198	0.000170	-0.001525	0.000331	4101.384634	13906.382648	3241.815329	8081.908710
17.035500	-0.000298	-0.001075	0.007622	-0.002292	4112.620956	13940.837632	3248.768780	8112.607103
17.539000	-0.004780	-0.001609	-0.006767	-0.000186	4096.293587	13874.977107	3239.077272	8087.954736
18.036500	0.004228	0.001592	0.008609	0.002822	4111.155303	13879.765660	3246.309311	8052.940042
18.536500	-0.002751	-0.000958	0.001648	0.000223	4100.285493	13880.975923	3243.735043	8083.170050
19.037000	-0.003086	0.000973	0.010297	0.002051	4094.957829	13883.523817	3247.771689	8061.885390
19.537500	0.000222	-0.001471	0.000994	0.000014	4108.170638	13873.414235	3243.474186	8085.617017
20.034500	-0.005123	-0.000244	0.015041	0.001182	4092.094560	13874.890570	3251.142146	8072.001624
20.535500	-0.002489	0.001285	0.022025	0.002819	4094.538006	13872.204046	3254.393052	8052.975145
21.035500	-0.001085	-0.001053	-0.018533	-0.000179	4105.403715	13888.609022	3232.380410	8087.865215
21.536000	-0.006912	-0.000288	0.000898	0.000650	4089.019131	13887.021541	3243.044582	8078.193781
22.039000	-0.003097	-0.001072	-0.005333	0.000238	4099.395449	13877.776480	3239.659632	8083.000425
22.536000	-0.001108	-0.002452	-0.005370	-0.000203	4105.404357	13854.410882	3239.893136	8088.145929
23.036500	0.000843	-0.000648	-0.018458	0.001367	4106.352851	13860.249517	3231.556663	8069.845475
23.537000	0.000472	-0.001517	-0.018357	-0.000580	4110.273214	13887.050765	3232.705062	8092.556860
24.037000	-0.002820	-0.000080	-0.008397	0.001892	4096.001385	13861.281342	3236.948170	8063.732009
24.537500	-0.001999	-0.001904	0.003070	-0.000039	4102.790403	13863.954682	3244.725592	8086.228440
25.035000	-0.000326	0.000537	-0.004581	0.001512	4103.094759	13886.108461	3239.358201	8068.155336
25.535500	-0.002009	-0.001782	-0.001931	-0.000015	4102.708731	13866.403754	3241.780919	8085.953409
26.035500	-0.002061	-0.001771	0.013233	-0.000861	4104.673359	13887.730622	3251.284366	8095.838567
26.536000	-0.003612	-0.000663	-0.000959	0.000816	4096.702442	13873.564914	3241.862667	8076.262606
27.036000	-0.002365	-0.001933	-0.000966	-0.001614	4105.788162	13902.452792	3243.279360	8104.657427
27.536500	0.001688	0.000691	0.000240	-0.001364	4115.266581	13961.828316	3243.839926	8101.723721
28.036500	-0.004001	0.000152	0.006844	-0.000918	4100.016118	13937.158925	3247.483566	8096.503079
28.537000	-0.001501	-0.000012	0.016678	0.000664	4102.284609	13893.571875	3252.447414	8078.033001
29.037000	-0.002519	-0.000625	0.000100	-0.000692	4103.120797	13912.076738	3243.363140	8093.856854
29.535000	-0.003001	-0.001361	0.006363	-0.000479	4101.402520	13888.422601	3246.935995	8091.377220
30.035000	-0.000325	-0.000813	-0.011597	-0.001744	4111.184998	13933.666585	3237.197013	8106.173429
30.535500	0.000128	-0.001692	-0.012511	0.000905	4105.724623	13845.800725	3235.167302	8075.226569
31.035500	0.003516	-0.000506	0.003649	0.001911	4111.649437	13850.238208	3243.918749	8063.510586
31.538500	0.001408	-0.001342	-0.001267	-0.001604	4115.164453	13916.943753	3243.096343	8104.532590
32.036500	-0.004218	-0.000946	-0.010895	-0.001101	4099.934644	13914.297055	3237.231647	8098.652217
32.536500	-0.000311	-0.000539	0.020300	0.000038	4106.787695	13896.038305	3255.040014	8085.338954
33.037000	-0.003474	0.000853	0.000211	0.001008	4096.570571	13906.566890	3242.433751	8074.026292
33.537000	-0.003373	-0.000912	0.012584	-0.003511	4107.995880	13975.508737	3252.496783	8126.937637
34.037000	-0.002493	-0.002082	-0.017718	-0.000665	4103.117783	13875.106453	3233.111978	8093.547476
34.535000	-0.003063	-0.002423	0.011658	0.000130	4099.744322	13846.862616	3249.737313	8084.258909
35.035500	-0.001102	-0.000676	-0.001739	0.001529	4101.134330	13855.510530	3240.993905	8067.961706
35.535500	-0.003205	-0.000124	0.003493	0.001675	4095.588479	13865.595484	3243.965621	8066.253909
36.036000	-0.004502	0.000116	0.006351	0.001539	4092.742157	13874.966889	3245.732151	8067.846798
36.536000	-0.000774	-0.000789	0.005760	0.001294	4102.523202	13858.547026	3245.526807	8070.690801
37.036000	-0.001459	0.000535	0.007067	0.001874	4099.398859	13877.027500	3245.956790	8063.941158
37.536500	-0.002878	0.000543	0.014066	0.001053	4097.926734	13897.700896	3250.631688	8073.501594
38.037000	0.001578	-0.000011	-0.004910	0.001564	4107.687571	13871.174912	3239.138209	8067.551887
38.537000	0.001089	0.000219	-0.002437	0.001698	4106.139456	13873.576962	3240.491126	8065.994222
39.034500	-0.003704	-0.001177	0.003388	0.001182	4095.574842	13851.687846	3244.194255	8071.999127
39.535000	-0.002741	0.000222	-0.002333	0.002045	4095.820946	13865.004763	3240.349801	8061.954335
40.035000	-0.002519	-0.000267	-0.019147	0.000715	4099.642689	13885.932239	3231.535696	8077.433554
40.535500	-0.004308	0.000813	-0.012589	0.002348	4091.234211	13872.166143	3234.305616	8058.438481
41.038500	-0.004094	-0.001687	0.001215	0.000353	4096.654960	13859.629645	3243.404918	8081.660365
41.536000	0.000711	0.001499	-0.003560	0.002791	4102.496027	13878.206158	3239.209285	8053.298813
42.036000	-0.003924	-0.000383	0.003228	0.000175	4097.511851	13896.492447	3244.692834	8083.735265
42.536500	-0.005251	0.000011	-0.008560	0.001878	4090.078004	13863.916999	3236.862893	8063.902175
43.036500	-0.006492	-0.001567	-0.002618	0.000373	4090.721104	13862.082104	3241.154992	8081.422216
43.537000	-0.001665	-0.001219	0.004954	0.000391	4102.555071	13870.304624	3245.584663	8081.213968
44.038000	-0.001739	-0.000089	0.006582	-0.003296	4111.530462	13990.755306	3248.746987	8124.399041
44.535000	0.005903	0.000102	-0.011277	0.000103	4122.168299	13910.402941	3236.325325	8084.576802
45.035500	-0.006095	-0.000035	-0.003265	0.000640	4091.040283	13893.583136	3240.624480	8078.313593
45.536000	-0.002878	-0.001207	-0.005704	-0.000991	4102.971831	13905.017459	3240.155956	8097.354812
46.036000	0.000359	0.000255	-0.002658	0.000039	4108.449894	13915.823927	3241.325701	8085.323373
46.536500	-0.007498	-0.002052	-0.002959	0.001988	4084.328342	13810.032261	3240.020725	8062.620260
47.036500	-0.003084	-0.001120	-0.014138	-0.000016	4100.052532	13882.893124	3234.766841	8085.962735
47.537000	-0.001443	0.002488	0.003491	0.003782	4094.743792	13878.154613	3242.729621	8041.816137
48.037000	0.001369	-0.001034	-0.008169	-0.001603	4115.067069	13924.616752	3239.085243	8104.524922
48.537500	0.002655	0.003156	0.018849	0.005465	4100.691087	13852.934254	3250.854985	8022.373071
49.035000	-0.001261	0.000535	0.011785	-0.000420	4105.564490	13934.288836	3250.144452	8090.687290
49.535500	0.001802	0.001792	0.014251	-0.000669	4113.812539	13972.023739	3251.783771	8093.588987
50.035500	-0.000244	0.000788	0.001946	-0.003079	4114.723285	14007.382995	3245.857690	8121.853136
50.538500	-0.003401	-0.000637	0.003142	0.008891	4077.524650	13675.156646	3239.556693	7983.028421
51.036500	-0.037864	-0.030697	0.008735	0.269832	3559.644673	8496.024377	3128.043345	5739.443979
51.535500	-0.019463	-0.018070	-0.005597	0.114353	3821.378438	11061.167995	3181.553674	6912.032605
52.036500	0.005017	-0.001338	0.001283	-0.080442	4342.428362	16076.369868	3295.530020	9117.523722
52.537000	0.001704	-0.007121	-0.000883	-0.009899	4136.884458	13979.969090	3248.231280	8202.668020
53.034500	0.004453	-0.004718	0.018186	0.005646	4104.692134	13654.760437	3250.346559	8020.288692
53.535000	0.004700	-0.000390	0.029284	0.002601	4112.883216	13836.002370	3259.006721	8055.500956
54.035000	0.012117	0.003727	0.031014	-0.029942	4217.434366	14784.356296	3281.202758	8447.681895
54.535500	0.031300	0.007400	0.048277	0.010262	4161.237489	13839.229297	3266.152948	7967.380149
55.037500	0.065529	0.022511	0.080443	0.030589	4198.097331	13710.613554	3273.820082	7740.941033
55.536000	0.087053	0.029497	0.113436	0.091234	4097.309276	12473.800872	3256.232068	7125.075612
56.036500	0.108885	0.042889	0.139355	0.119126	4082.494350	12164.990292	3255.019581	6869.442526
56.536000	0.138273	0.056895	0.150968	0.170877	4029.572413	11407.829549	3231.509996	6436.506097
57.036500	0.157536	0.065439	0.170825	0.209900	3985.028668	10842.678809	3221.027878	6142.520543
57.537500	0.179780	0.080827	0.195851	0.254695	3936.606409	10333.738227	3210.689563	5836.059527
58.034500	0.196036	0.087114	0.227245	0.288343	3900.939386	9890.167572	3209.539959	5625.776897
58.535000	0.213480	0.097731	0.232071	0.318571	3875.620815	9589.010434	3196.993788	5450.271324
59.035000	0.221954	0.104565	0.230367	0.341903	3847.114609	9345.983273	3185.326003	5322.917224
59.535500	0.240663	0.112158	0.264243	0.360492	3847.342234	9189.052977	3192.370807	5226.238749
60.035500	0.250029	0.118458	0.262552	0.372116	3843.093205	9114.494238	3186.220981	5167.851046
60.536000	0.253467	0.124929	0.272557	0.376020	3842.220455	9150.330048	3189.015241	5148.589007
61.036500	0.255331	0.127425	0.266744	0.378028	3841.950339	9157.154255	3185.440354	5138.748552
61.535500	0.267904	0.137768	0.287994	0.348378	3925.050216	9744.420046	3209.904047	5288.773908
62.036500	0.281285	0.147523	0.283400	0.361346	3925.902562	9695.212002	3201.137281	5221.893693
62.537500	0.273125	0.141696	0.278547	0.340046	3953.482310	9935.548556	3209.336423	5332.804307
63.038000	0.276605	0.143391	0.292611	0.346764	3946.609347	9856.601956	3213.100334	5297.238115
63.546000	0.276804	0.142111	0.277444	0.345292	3950.150649	9859.581598	3206.134421	5304.981170
64.035500	0.272948	0.142099	0.307625	0.347089	3938.224684	9831.357042	3220.819229	5295.526346
64.538500	0.279065	0.147340	0.290108	0.357088	3930.126194	9757.671924	3206.569137	5243.631730
65.035500	0.282857	0.144038	0.291971	0.351236	3950.380596	9797.070974	3210.474305	5273.858850
65.536000	0.286862	0.147846	0.271416	0.354339	3952.301053	9808.014443	3198.716732	5257.784484
66.039000	0.288017	0.147461	0.294547	0.355882	3951.474104	9778.153534	3209.419669	5249.830745
66.537000	0.284817	0.146354	0.291570	0.363496	3928.765386	9644.775110	3204.102387	5210.998489
67.034500	0.285697	0.147529	0.310405	0.359978	3937.931790	9716.215980	3215.479036	5228.854501
67.537500	0.294405	0.147843	0.301772	0.363452	3948.963858	9668.019491	3209.244536	5211.220033
68.037000	0.292031	0.151939	0.313320	0.368070	3934.255999	9660.086518	3212.791623	5187.994330
68.535500	0.284908	0.147864	0.284817	0.373022	3909.409230	9524.508469	3196.177632	5163.364250
69.035500	0.289722	0.151884	0.314852	0.374180	3916.858789	9567.197637	3210.442373	5157.646345
69.536000	0.294808	0.150529	0.292649	0.373071	3929.627909	9563.513821	3199.929597	5163.121801
70.078000	0.296587	0.155509	0.306652	0.381539	3915.849572	9511.563771	3202.638959	5121.653851
70.536500	0.283107	0.148114	0.307179	0.383078	3885.672915	9380.394769	3202.141205	5114.203662
71.037000	0.292830	0.152116	0.317877	0.383337	3904.565818	9435.017775	3207.333463	5112.951946
71.537000	0.286877	0.150400	0.300948	0.383484	3892.341920	9407.778224	3198.904190	5112.242616
72.040000	0.289318	0.151136	0.312276	0.387699	3888.818356	9357.196568	3202.374933	5091.989479
72.538000	0.281924	0.151225	0.308522	0.394685	3860.783951	9258.126550	3197.155701	5058.854163
73.042500	0.291728	0.151550	0.299805	0.393594	3881.940304	9278.335643	3193.527624	5063.996657
73.535000	0.293019	0.152798	0.296518	0.393779	3884.115907	9293.555662	3191.896878	5063.123958
74.038500	0.288488	0.151543	0.306714	0.396703	3869.547084	9233.944223	3195.327272	5049.381773
74.535500	0.287970	0.153483	0.315507	0.399204	3863.716837	9225.985304	3198.342797	5037.701435
75.036000	0.294167	0.154855	0.301770	0.402743	3868.847509	9195.331599	3190.166945	5021.290166
75.536500	0.288786	0.152653	0.299119	0.399893	3863.960174	9204.481078	3190.259435	5034.495051
76.035500	0.296798	0.154898	0.295229	0.403839	3871.823529	9180.503520	3186.655629	5016.235267
76.537000	0.294095	0.155194	0.312372	0.405644	3863.112275	9159.315281	3193.771732	5007.939210
77.037500	0.298718	0.152798	0.302773	0.404968	3873.364035	9135.240969	3189.601421	5011.043022
77.534500	0.298842	0.154153	0.310628	0.407235	3869.202015	9122.517977	3192.202887	5000.653352
78.035000	0.291989	0.154223	0.322519	0.407348	3855.818155	9121.910466	3197.797035	5000.133138
78.535500	0.291205	0.152498	0.297788	0.408632	3851.885242	9080.118960	3185.639758	4994.275326
79.036000	0.292086	0.153893	0.310550	0.409549	3851.816317	9086.728035	3191.084766	4990.100497
79.536000	0.296824	0.151189	0.288788	0.410498	3859.035682	9036.334723	3180.773718	4985.791536
80.036500	0.295200	0.150242	0.313393	0.408979	3858.833552	9044.199910	3192.681412	4992.694260
80.536500	0.290717	0.155181	0.314313	0.414440	3840.029684	9037.026390	3190.560039	4967.990843
81.037000	0.301191	0.154860	0.306999	0.415106	3858.575146	9023.474419	3186.884555	4964.995685
81.537500	0.296176	0.155573	0.302123	0.417309	3844.886041	9003.076506	3183.680521	4955.130652
82.119000	0.302665	0.153542	0.295635	0.417087	3857.606247	8978.416326	3180.887845	4956.125179
83.383500	0.295097	0.152258	0.313982	0.418603	3840.434487	8940.431849	3188.482096	4949.361941
83.489500	0.301719	0.155593	0.322957	0.423073	3844.472047	8925.119068	3190.565220	4929.561036
83.593000	0.295422	0.155628	0.297907	0.422570	3833.651646	8932.367441	3179.472047	4931.777859
84.035500	0.304111	0.155633	0.323444	0.423889	3847.437691	8914.649846	3190.411880	4925.965018
84.536000	0.292733	0.155617	0.295262	0.425936	3822.497144	8886.954157	3176.849771	4916.981620
85.037000	0.299460	0.154413	0.274275	0.425464	3835.775468	8877.161405	3168.169331	4919.050776
85.536500	0.298371	0.158118	0.325616	0.429863	3825.633741	8867.891038	3188.653924	4899.866435
86.037000	0.302355	0.154714	0.294320	0.430426	3831.940285	8815.146964	3174.511125	4897.423225
86.537000	0.295028	0.155186	0.308745	0.436733	3807.097320	8738.474075	3178.017329	4870.292935
87.035000	0.297137	0.153063	0.301371	0.431748	3819.927065	8775.961966	3176.978702	4891.705197
87.538000	0.303842	0.152340	0.305446	0.430272	3834.984784	8785.868189	3179.400524	4898.094053
88.038500	0.300636	0.153740	0.336199	0.433587	3822.957730	8760.700675	3191.836991	4883.776006
88.536000	0.298007	0.148231	0.297996	0.434671	3816.192131	8674.953177	3174.267911	4879.119434
89.036000	0.306180	0.155650	0.312812	0.438126	3824.801011	8726.357294	3179.186695	4864.353936
89.536000	0.306190	0.153130	0.300735	0.437374	3826.200060	8703.380964	3174.283318	4867.556410
90.036000	0.301199	0.152956	0.320103	0.438296	3815.407229	8689.173196	3182.335351	4863.628452
90.537000	0.300385	0.152281	0.305220	0.443115	3805.260116	8618.533656	3173.747694	4843.235440
91.037000	0.301992	0.153102	0.318952	0.439708	3814.284026	8672.813721	3181.195972	4857.628962
91.537500	0.300565	0.154417	0.310078	0.442166	3807.284232	8658.087962	3176.238492	4847.233665
92.034500	0.300288	0.152355	0.309105	0.441269	3808.397108	8643.123103	3176.205511	4851.021601
92.535500	0.297467	0.150823	0.308317	0.444794	3797.076446	8578.582942	3174.352741	4836.180964
93.035500	0.306390	0.155552	0.297873	0.444610	3813.374318	8641.274017	3170.018572	4836.954786
93.535500	0.298640	0.152589	0.327468	0.442315	3803.570495	8632.695904	3183.832743	4846.603269
94.036000	0.304854	0.153624	0.310671	0.444045	3811.618984	8623.805813	3175.683641	4839.324117
94.536500	0.304255	0.153310	0.305663	0.447402	3804.515531	8577.051455	3172.117017	4825.282842
95.036500	0.308861	0.152443	0.322146	0.442601	3821.514657	8627.160384	3181.329172	4845.397486
95.537000	0.302703	0.153788	0.305891	0.443589	3808.568062	8631.741405	3173.831474	4841.241636
96.034500	0.302983	0.155229	0.314715	0.447123	3802.741372	8605.002211	3176.100249	4826.445848
