sample name	sample
index	790
start time	 03-31-2021  02:10:21 PM
880	0.652696
Peak Time (s)	92.535
Peak Height 	0.6527
calc peak height	90,93
Baseline Time (s)	8.536
Baseline Value 	-0.001306
subtract baseline	10,4
Abs	0.445913
Peak Time (s)	92.535
Peak Height 	0.4459
calc peak height	90,93
Baseline Time (s)	11.037
Baseline Value 	8.2071E-4
subtract baseline	10,3
PK_550	0.063637
Peak Time (s)	90.036
Peak Height 	0.06364
calc peak height	90,93
Baseline Time (s)	11.037
Baseline Value 	1.2426E-4
subtract baseline	10,2
PK_880	0.425698
Peak Time (s)	92.535
Peak Height 	0.4257
calc peak height	90,93
Baseline Time (s)	11.037
Baseline Value 	9.6427E-4
subtract baseline	10,1


Time (s)	A880-A510	A880-A775	A880-A975	A880	I510	I775	I975	I880	
0.036000	-0.002003	-0.000338	-0.003501	0.001015	6763.176595	40589.900318	4075.211278	22229.741251
0.536500	-0.000788	-0.000783	-0.001881	0.002431	6761.494039	40429.886357	4075.673037	22167.541071
1.037000	-0.003174	-0.000802	-0.002848	0.002139	6743.987143	40453.312948	4074.152648	22180.352351
1.537000	-0.001739	-0.000085	-0.004357	0.001035	6765.224427	40610.000517	4073.241144	22228.869064
2.034500	-0.001668	0.000010	-0.007811	0.000870	6767.209214	40632.495296	4065.868762	22236.151341
2.535000	0.000696	0.001030	-0.001315	0.002020	6777.412800	40621.255945	4077.878259	22185.565111
3.035500	0.001111	-0.000071	0.001634	-0.002005	6814.987978	40874.344385	4093.769167	22363.141468
3.536000	-0.001493	0.000205	-0.007268	-0.000150	6777.250790	40737.499108	4069.365361	22281.094840
4.038500	-0.001684	0.000661	0.001403	0.000213	6772.585792	40745.468410	4088.158941	22265.061053
4.536000	0.000767	-0.000486	0.003022	0.000077	6794.403922	40658.071615	4092.177341	22271.068875
5.036500	-0.000553	-0.000879	-0.002295	-0.000609	6789.056100	40683.461898	4081.613922	22301.372524
5.537000	-0.000167	0.000694	-0.000141	0.000941	6779.227672	40685.376499	4082.983587	22232.992606
6.037500	-0.002685	-0.000187	0.000223	-0.000464	6769.871786	40730.674956	4087.012797	22294.959182
6.537000	-0.002980	-0.000716	-0.004274	0.004890	6722.714877	40225.164037	4064.791284	22059.961587
7.035000	-0.000278	-0.000189	-0.006492	-0.000287	6788.650901	40715.201865	4071.413249	22287.131991
7.535000	-0.001860	-0.000220	0.003202	-0.000442	6776.625526	40725.963655	4093.780219	22293.982734
8.035500	0.000612	0.000180	-0.001105	0.000282	6791.361646	40697.860298	4082.291542	22262.024773
8.536000	0.000412	0.000296	0.001556	0.000000	6792.062308	40732.369225	4088.995393	22274.474036
9.036000	0.001087	0.000639	-0.001752	0.000018	6797.616855	40760.526892	4081.422935	22273.701682
9.536000	-0.001383	-0.000292	0.001135	-0.000849	6784.073455	40754.972824	4089.975269	22311.962467
10.036500	0.001402	0.000526	0.003181	0.000190	6798.825929	40735.757781	4092.280641	22266.074108
10.537000	-0.006122	-0.001176	-0.002548	0.004486	6700.080519	40220.279591	4069.552062	22077.566634
11.037500	0.000000	0.000000	0.000000	-0.000311	6791.206010	40733.654397	4086.154708	22288.202979
11.535000	-0.000550	-0.000256	-0.000565	-0.000778	6790.503718	40751.960864	4085.931342	22308.845299
12.035000	-0.001994	0.000000	0.003851	-0.000173	6773.232796	40721.783785	4094.655659	22282.125974
12.535000	-0.004103	-0.000127	-0.002069	0.005097	6711.700053	40257.658478	4069.257018	22050.903738
13.036000	0.000191	0.000298	0.000334	0.000719	6784.122567	40670.372985	4084.569337	22242.792994
13.536500	-0.002457	0.000119	-0.002165	0.000791	6761.254557	40648.666610	4078.735901	22239.605772
14.036500	-0.002824	-0.000106	0.002196	0.002210	6746.312354	40507.022709	4085.413225	22177.225321
14.536500	-0.002058	0.000194	-0.004506	0.002719	6748.461029	40489.007492	4069.124402	22154.892106
15.037000	-0.001222	-0.000586	-0.000676	0.000227	6776.369146	40636.567536	4083.393137	22264.479233
15.534000	-0.000849	-0.000309	-0.003054	0.000689	6775.606230	40620.494716	4076.955101	22244.084991
16.037500	-0.000021	-0.000809	0.001096	0.000163	6787.027932	40622.803600	4087.574190	22267.287170
16.539500	-0.001030	-0.000761	-0.002302	0.000238	6777.888950	40620.494367	4079.678199	22263.993403
17.035500	-0.001425	0.000199	-0.001015	-0.001289	6787.433279	40835.668258	4086.071462	22331.432456
17.535500	-0.001100	0.000581	0.000427	0.001466	6766.973289	40630.322752	4083.081637	22209.914417
18.038500	-0.002406	-0.000012	0.000815	0.001291	6757.487706	40594.217445	4084.360620	22217.590275
18.536000	-0.002760	-0.000082	-0.005231	0.001365	6753.905889	40581.880809	4070.535622	22214.353836
19.036500	0.000866	0.000329	0.000520	0.002191	6777.400102	40546.065634	4081.645699	22178.037827
19.536500	-0.002346	-0.000643	-0.001708	0.000929	6761.029402	40571.101807	4079.457915	22233.547747
20.037000	0.000432	0.000330	-0.000256	0.001874	6776.414552	40573.417613	4080.605264	22191.962720
20.537500	-0.002872	-0.000285	-0.001916	0.001229	6754.103968	40576.058745	4078.307863	22220.321324
21.037500	-0.001553	-0.000555	0.001940	0.000814	6768.644529	40588.534928	4088.015293	22238.603638
21.535000	-0.002482	0.000267	0.001097	0.001938	6751.443669	40562.532153	4083.534152	22189.185287
22.035000	-0.002140	-0.000363	-0.003656	0.001245	6760.100079	40567.911867	4074.344771	22219.609344
22.538000	-0.002253	0.000534	0.001636	0.001933	6753.400095	40586.009189	4084.769568	22189.391488
23.036000	-0.001173	-0.001191	-0.000136	0.000689	6772.889457	40544.516496	4083.568718	22244.112723
23.536000	-0.001086	-0.000219	0.001388	0.001180	6769.492379	40585.960263	4085.919172	22222.495460
24.036500	-0.000868	-0.000594	-0.001882	0.001202	6771.138174	40551.766243	4078.444523	22221.501927
24.534000	-0.001780	0.000162	0.004807	0.001752	6758.867882	40569.518281	4092.427750	22197.328805
25.040000	-0.001645	0.000027	-0.000024	0.001569	6761.538458	40573.676453	4081.824223	22205.398262
25.537500	-0.001109	-0.000417	-0.006269	0.001087	6770.078758	40576.866704	4068.831700	22226.571413
26.034500	-0.000927	0.000803	0.000124	0.001773	6765.846529	40622.906854	4081.696789	22196.399192
26.535000	-0.001594	-0.000031	-0.004258	0.002037	6758.034904	40528.326066	4071.210092	22184.796223
27.038000	-0.000238	0.000224	0.002599	0.001971	6769.974012	40556.038179	4086.877256	22187.723667
27.537500	-0.002489	0.000321	0.000878	0.000486	6763.542712	40692.491021	4086.340135	22253.066824
28.036000	-0.001801	-0.000336	0.001819	0.000404	6770.010525	40642.875437	4088.675114	22256.675329
28.539000	0.000404	0.000360	0.002766	0.001104	6782.670897	40642.465021	4089.240104	22225.847647
29.036500	-0.000970	-0.000483	0.000542	0.000785	6773.786665	40597.258776	4084.891958	22239.862603
29.537000	-0.000516	0.000038	0.000926	0.000797	6777.509295	40641.199057	4085.741629	22239.366630
30.037000	-0.002232	-0.000023	-0.002663	0.000735	6763.609364	40641.219656	4077.735505	22242.066579
30.534500	-0.005164	0.000009	-0.002573	0.006376	6692.415193	40160.234719	4065.270636	21995.253583
31.035000	-0.002099	0.000118	-0.003395	0.003090	6745.013801	40450.645595	4070.783862	22138.622789
31.538000	-0.001125	-0.000266	0.000554	0.001001	6770.666669	40597.308032	4084.426807	22230.347228
32.035500	-0.001334	-0.000006	-0.001270	0.000408	6773.897636	40670.961728	4081.632702	22256.500046
32.536000	-0.000278	-0.000031	-0.003210	0.000614	6781.047138	40650.987726	4076.771775	22247.386670
33.036000	0.000496	0.000379	-0.003758	0.000994	6784.374748	40653.572443	4074.680612	22230.674173
33.536500	-0.000389	0.000058	0.001369	0.000728	6779.158105	40648.864365	4086.905659	22242.370122
34.036500	0.000571	-0.000225	0.007879	-0.002037	6810.669580	40863.753946	4108.292821	22364.549572
34.537000	-0.002516	-0.000237	-0.000303	0.002164	6749.263521	40499.630157	4079.840938	22179.226915
35.037500	-0.002006	0.000038	0.000859	0.001568	6758.525876	40574.715291	4083.833861	22205.433609
35.534500	-0.002255	-0.000195	0.001482	0.001890	6753.744818	40526.888971	4084.516215	22191.274928
36.035000	-0.002135	-0.000564	-0.000703	0.001616	6757.032703	40518.735793	4080.176486	22203.304894
36.535000	-0.003064	-0.000108	-0.002118	0.001931	6746.642106	40530.837247	4076.266654	22189.483659
37.036000	-0.000168	0.000161	0.000299	0.002047	6769.922479	40544.029835	4081.471547	22184.366912
37.535500	-0.002823	-0.000543	-0.003990	0.001909	6748.840238	40495.379333	4072.100784	22190.456854
38.038500	0.000118	0.000487	0.000334	0.002123	6771.684335	40565.512564	4081.380486	22181.045229
38.536500	-0.000718	0.000335	-0.004022	0.002776	6759.185825	40496.207397	4070.080696	22152.382510
39.036500	-0.000747	0.000468	0.001680	0.002511	6761.164287	40530.491084	4083.554740	22164.012401
39.537000	-0.002010	-0.000831	0.000708	0.001652	6757.780352	40492.655070	4083.297945	22201.714952
40.037500	-0.000078	0.000675	0.001091	0.002681	6765.349431	40533.676721	4081.830902	22156.559538
40.535000	-0.000724	-0.000246	-0.001712	0.002143	6764.439920	40500.683643	4076.704159	22180.148014
41.038000	-0.001541	-0.000455	-0.001751	0.002169	6757.378167	40480.531771	4076.557877	22179.018667
41.535000	-0.002804	-0.000118	-0.004773	0.002091	6747.467622	40516.181618	4069.932383	22182.430169
42.036000	0.002074	0.000078	0.000153	0.002388	6785.926272	40507.488734	4080.368076	22169.413078
42.536000	-0.003015	-0.000481	0.001869	0.001452	6751.053194	40539.975668	4086.397456	22210.537838
43.036000	-0.002683	-0.000870	-0.002796	0.000989	6757.700459	40546.367193	4076.862612	22230.905822
43.536500	0.000424	0.000656	-0.000051	0.002392	6772.001685	40556.937398	4079.898346	22169.251305
44.037000	0.001410	-0.000485	0.000776	0.001262	6789.823215	40556.004122	4084.338604	22218.873244
44.537500	0.001601	0.000455	0.004081	0.001093	6792.871025	40651.577678	4092.276354	22226.311909
45.037500	-0.001751	-0.000889	-0.002189	0.000287	6771.414318	40605.234633	4079.821642	22261.828020
45.538000	-0.001049	0.000340	0.001381	0.001600	6766.276481	40597.943265	4084.948006	22204.011818
46.035500	-0.001653	0.000088	0.001662	0.001509	6761.969299	40584.026912	4085.795043	22208.016030
46.535500	-0.000989	0.000679	-0.003229	0.001426	6768.237453	40642.246153	4074.898262	22211.665053
47.036000	-0.002143	-0.000849	-0.000582	0.000118	6769.529040	40623.218630	4083.853175	22269.261933
47.536000	-0.003762	-0.000803	-0.003683	0.001328	6745.849594	40522.975668	4074.098339	22215.980659
48.036500	-0.002151	-0.000663	-0.003720	0.002229	6751.778954	40457.483846	4071.988309	22176.398944
48.536500	-0.001830	-0.000348	0.000067	0.001929	6756.969707	40510.365598	4081.214218	22189.553596
49.034500	-0.001378	-0.000759	0.002566	0.000477	6772.947215	40600.054413	4090.216520	22253.452577
49.534500	0.000532	0.000777	0.004002	0.001344	6781.723293	40657.724957	4091.518570	22215.250211
50.035500	0.002552	0.000294	0.003190	-0.001856	6825.992673	40893.132733	4097.006853	22356.533687
50.535000	-0.000928	-0.000447	-0.004901	0.002297	6761.445175	40470.253475	4069.187147	22173.422796
51.036000	0.000976	-0.000316	0.002091	0.002977	6771.720156	40423.056639	4083.429132	22143.579176
51.535500	-0.039429	-0.000997	0.005586	0.281551	4872.495823	22746.072587	3620.214921	13133.951174
52.036000	-0.022374	-0.007315	0.001684	-0.001904	6619.722020	40241.747725	4093.650530	22358.637946
52.536000	-0.007225	-0.045508	0.026401	-0.224583	9170.706535	59872.109056	4859.335204	35249.470806
53.036500	0.016558	-0.050313	0.056545	-0.238858	9724.756117	61122.503573	5049.209796	36323.255732
53.536500	0.040467	-0.033594	0.075060	-0.191953	9384.194527	57230.179407	4925.625723	32923.558695
54.037000	0.069472	-0.015897	0.105683	-0.138151	9036.591986	52916.116482	4830.546723	29450.237130
54.537000	0.105837	0.003967	0.139224	-0.058007	8469.354794	46466.932486	4654.074340	25012.347233
55.035000	0.141368	0.024302	0.168381	0.002618	8169.091825	42629.403428	4545.191464	22159.335978
55.535500	0.182159	0.041312	0.202501	0.039696	8212.434747	40846.821695	4535.355928	20600.857416
56.035500	0.212217	0.056577	0.226987	0.112006	7740.431160	36206.932570	4385.290932	17918.829056
56.536000	0.236904	0.070412	0.258013	0.181134	7291.123741	32255.522610	4277.017526	15740.370253
57.035500	0.260573	0.081855	0.275269	0.244264	6928.915370	28990.010302	4158.649983	14032.186817
57.536000	0.284665	0.093727	0.301350	0.324500	6467.150054	25226.864548	4034.094743	12190.514002
58.036000	0.289624	0.095978	0.309187	0.362732	6220.365953	23471.723527	3970.700130	11425.694279
58.537000	0.302159	0.100940	0.326419	0.372721	6238.593275	23237.914438	3985.406731	11236.713517
59.037000	0.313657	0.107266	0.333296	0.420630	5987.875816	21403.991815	3905.243652	10388.369453
59.540000	0.330211	0.109432	0.345018	0.440848	5963.791518	20660.899056	3889.570997	10057.508838
60.035500	0.341566	0.111387	0.360862	0.469208	5854.633870	19628.099193	3867.033025	9618.605617
60.535500	0.339671	0.111279	0.364905	0.480347	5773.812561	19206.909881	3854.539908	9453.903199
61.035500	0.342544	0.111402	0.364962	0.491963	5720.945419	18787.633798	3834.622182	9286.594477
61.536000	0.347094	0.111224	0.361629	0.502029	5688.130203	18423.153115	3812.188957	9145.182979
62.036000	0.354724	0.118701	0.365479	0.511824	5675.368988	18341.863500	3802.454398	9010.689695
62.536000	0.361774	0.118843	0.372956	0.512050	5715.822207	18338.943935	3814.346307	9007.627065
63.036500	0.362841	0.118933	0.366336	0.511108	5727.849064	18375.038658	3805.017322	9020.415333
63.537500	0.364252	0.117278	0.369229	0.511827	5732.011035	18292.100880	3808.574994	9010.656425
64.037000	0.365644	0.115511	0.376327	0.514713	5723.041128	18130.750130	3815.516946	8971.597842
64.538000	0.368665	0.117249	0.376856	0.520671	5705.500386	17985.891075	3806.580607	8891.793126
65.035000	0.369942	0.114201	0.385425	0.523035	5699.047692	17802.239548	3816.804639	8860.439456
65.535500	0.373775	0.114231	0.378413	0.528633	5688.585502	17615.596917	3796.181201	8786.844250
66.036000	0.371947	0.113117	0.385950	0.532230	5656.714234	17459.528999	3802.559281	8740.051518
66.536000	0.373796	0.111804	0.379025	0.535137	5650.544996	17321.214419	3786.748382	8702.528703
67.036500	0.373148	0.109876	0.383344	0.536756	5637.373493	17205.960967	3791.054906	8681.731889
67.539500	0.375845	0.109418	0.387351	0.539662	5636.166000	17097.533405	3792.818646	8644.608965
68.037000	0.378305	0.108691	0.384590	0.543638	5627.401138	16947.358743	3782.097153	8594.216633
68.540000	0.375433	0.107545	0.383121	0.547739	5587.479751	16781.664425	3773.356224	8542.710657
69.034500	0.377922	0.105986	0.387453	0.550468	5586.115090	16647.771141	3775.859192	8508.702283
69.537500	0.376601	0.105215	0.390290	0.554202	5557.595296	16508.524548	3774.458198	8462.530804
70.035000	0.379752	0.104621	0.393466	0.557460	5556.990339	16390.549579	3774.329422	8422.553681
70.535500	0.382623	0.105956	0.389716	0.560929	5553.636147	16325.681236	3763.149922	8380.321922
71.035500	0.381640	0.102731	0.394951	0.561637	5544.191820	16206.935351	3770.140623	8371.755860
71.536000	0.382737	0.102039	0.393488	0.564304	5535.439854	16106.346555	3763.760219	8339.560476
72.036500	0.383881	0.100816	0.386342	0.566461	5529.818704	16005.934548	3749.613805	8313.683675
72.536500	0.390450	0.100957	0.398014	0.570251	5545.281722	15898.396794	3761.580250	8268.501941
73.037000	0.386540	0.099297	0.389222	0.570900	5519.967795	15830.813471	3747.272526	8260.806294
73.537000	0.385122	0.097746	0.400207	0.573183	5499.614181	15719.378400	3760.448823	8233.828092
74.035000	0.387108	0.096000	0.394496	0.575923	5495.480077	15590.230622	3747.648337	8201.624582
74.535000	0.390183	0.096308	0.397887	0.579670	5491.816341	15492.140280	3747.115726	8157.931568
75.035500	0.392126	0.097657	0.399161	0.582592	5486.477906	15447.528290	3744.649871	8124.111317
75.536000	0.394557	0.096411	0.407499	0.585389	5484.482052	15333.597784	3752.975913	8091.946522
76.036000	0.393844	0.092864	0.406564	0.585637	5479.261703	15227.631435	3751.189038	8089.107996
76.536000	0.398016	0.094029	0.412671	0.590447	5475.795898	15126.700210	3753.147741	8034.311079
77.036500	0.397177	0.090228	0.406215	0.590926	5468.660280	15009.277272	3742.741208	8028.894761
77.537000	0.401457	0.090093	0.413183	0.593051	5480.338412	14947.755443	3749.991045	8004.905730
78.037000	0.398141	0.088671	0.408717	0.594596	5454.079846	14867.422121	3741.005113	7987.535701
78.540500	0.400380	0.088637	0.414876	0.598601	5444.610271	14758.983811	3744.210868	7942.806199
79.035000	0.398186	0.087160	0.410385	0.598129	5435.418619	14732.172510	3738.241443	7948.056353
79.535000	0.400368	0.086359	0.414686	0.601962	5426.636514	14609.251186	3738.933109	7905.582565
80.035500	0.400731	0.084613	0.419710	0.603839	5418.608036	14514.079696	3743.607112	7884.917263
80.535000	0.402897	0.084476	0.413643	0.605488	5421.348327	14467.471256	3732.208136	7866.845786
81.036500	0.403869	0.084226	0.410008	0.607770	5414.421460	14401.690290	3723.600581	7841.937131
81.538000	0.402830	0.081189	0.418529	0.608240	5406.462648	14311.212229	3735.339821	7836.818520
82.037000	0.406857	0.080388	0.413301	0.609850	5419.221195	14249.450823	3725.356953	7819.354402
82.540500	0.408122	0.080251	0.420850	0.613792	5405.096751	14145.683605	3730.603004	7776.834139
83.037000	0.411520	0.077348	0.428089	0.613907	5422.429088	14069.594294	3741.095795	7775.606970
83.534500	0.409413	0.078103	0.427727	0.617802	5390.844142	13990.932828	3734.805781	7733.990934
84.035000	0.413944	0.078925	0.431579	0.621362	5395.922194	13922.811483	3735.234558	7696.272984
84.535500	0.412274	0.075993	0.424572	0.621341	5387.303829	13850.853777	3725.037345	7696.495942
85.036000	0.411385	0.075278	0.425557	0.624182	5367.925883	13763.632947	3722.355784	7666.623201
85.536000	0.413994	0.073129	0.423881	0.624825	5378.117710	13695.625458	3719.020874	7659.887336
86.036500	0.417200	0.072138	0.426641	0.627454	5381.118039	13608.111786	3719.208935	7632.451068
86.536500	0.415289	0.070646	0.431710	0.629511	5360.559923	13523.009319	3723.544154	7611.102275
87.039500	0.416677	0.069713	0.434035	0.630460	5362.825844	13478.174561	3725.534496	7601.286092
87.537000	0.416001	0.065928	0.434441	0.629902	5362.218910	13401.753425	3726.933838	7607.059798
88.037500	0.418295	0.067567	0.433722	0.635093	5347.320632	13318.267681	3718.408839	7553.683077
88.535000	0.418697	0.066890	0.437411	0.636872	5340.269057	13260.923653	3721.151784	7535.530442
89.035500	0.419702	0.065531	0.435132	0.637915	5340.074092	13205.193712	3716.389577	7524.928103
89.535500	0.421570	0.067710	0.443242	0.642166	5327.937004	13157.343240	3721.924820	7481.971311
90.036000	0.421843	0.063637	0.434136	0.641864	5330.859811	13070.852586	3709.369337	7485.011531
90.535500	0.422950	0.062495	0.436738	0.643655	5327.378639	13004.081287	3710.514071	7467.020218
91.036000	0.424536	0.061698	0.444073	0.646432	5321.332922	12923.351630	3716.994022	7439.273755
91.537000	0.425694	0.061741	0.441601	0.649048	5313.961972	12865.638294	3709.765667	7413.307616
92.037000	0.421124	0.058909	0.445608	0.649372	5289.388184	12795.294014	3714.989254	7410.096450
92.534500	0.425698	0.060725	0.445913	0.652696	5295.639786	12761.877228	3710.703921	7377.348843
93.035000	0.425691	0.056681	0.442797	0.652827	5294.947574	12669.947789	3706.126625	7376.061573
93.535000	0.425270	0.055780	0.456392	0.654882	5282.591854	12605.404314	3722.551505	7355.950207
94.035500	0.428133	0.057242	0.453703	0.659672	5273.020300	12533.229296	3711.856675	7309.419415
94.535000	0.424862	0.054318	0.444667	0.658633	5261.988925	12492.603998	3700.623606	7319.466468
95.036000	0.429767	0.053079	0.456188	0.661077	5274.160351	12413.747542	3713.389390	7295.876244
95.536500	0.430667	0.053148	0.461372	0.664442	5261.971385	12343.725475	3715.980630	7263.604423
96.036500	0.428064	0.051253	0.457909	0.664808	5247.384626	12295.976334	3710.539529	7260.101324
96.537000	0.433654	0.052083	0.461923	0.669051	5253.990635	12224.417709	3710.216461	7219.801855
