sample name	sample
index	587
start time	 03-16-2021  04:14:16 PM


Wavelength (nm)	Absorbance
494.344910	-0.118766
494.563924	-0.118766
494.782919	-0.118766
495.001897	NaN
495.220856	-0.198130
495.439797	-0.224284
495.658719	-0.186372
495.877624	-0.194117
496.096510	-0.278980
496.315378	-0.131839
496.534227	-0.098791
496.753059	-0.222885
496.971872	-0.269077
497.190667	-0.006138
497.409444	0.014222
497.628203	0.019507
497.846943	0.021395
498.065665	0.022044
498.284369	0.021969
498.503055	0.021690
498.721723	0.022612
498.940372	0.024756
499.159003	0.022379
499.377616	0.022625
499.596210	0.022135
499.814787	0.021847
500.033345	0.022170
500.251885	0.022518
500.470406	0.023451
500.688910	0.023137
500.907395	0.023089
501.125862	0.025840
501.344311	0.025288
501.562742	0.025830
501.781154	0.026029
501.999548	0.025766
502.217924	0.025386
502.436282	0.024490
502.654621	0.025587
502.872942	0.024483
503.091245	0.024156
503.309530	0.025718
503.527797	0.024932
503.746045	0.025529
503.964275	0.025770
504.182487	0.025657
504.400681	0.026469
504.618856	0.026393
504.837013	0.026309
505.055152	0.026576
505.273273	0.025038
505.491376	0.025237
505.709460	0.024800
505.927526	0.025349
506.145574	0.025896
506.363604	0.026222
506.581615	0.025728
506.799608	0.026966
507.017583	0.026542
507.235540	0.026539
507.453478	0.026626
507.671399	0.026292
507.889301	0.024699
508.107185	0.024364
508.325050	0.022879
508.542898	0.022260
508.760727	0.021486
508.978538	0.021335
509.196330	0.021464
509.414105	0.020686
509.631861	0.020681
509.849599	0.022135
510.067319	0.021942
510.285021	0.022645
510.502704	0.022175
510.720369	0.022063
510.938016	0.021673
511.155645	0.021664
511.373255	0.021861
511.590848	0.021995
511.808422	0.021488
512.025977	0.021820
512.243515	0.022796
512.461034	0.024246
512.678536	0.024123
512.896018	0.024225
513.113483	0.024008
513.330930	0.023876
513.548358	0.023889
513.765768	0.023815
513.983160	0.023369
514.200533	0.022624
514.417889	0.022648
514.635226	0.022961
514.852545	0.023358
515.069845	0.024259
515.287128	0.023967
515.504392	0.023994
515.721638	0.024150
515.938866	0.024291
516.156075	0.024200
516.373267	0.024568
516.590440	0.023736
516.807594	0.023575
517.024731	0.023134
517.241850	0.024295
517.458950	0.024459
517.676032	0.024244
517.893095	0.024078
518.110141	0.023890
518.327168	0.023258
518.544177	0.023717
518.761168	0.023519
518.978141	0.023338
519.195095	0.022344
519.412031	0.021817
519.628949	0.022198
519.845849	0.022305
520.062731	0.022437
520.279594	0.021742
520.496439	0.022315
520.713266	0.022419
520.930074	0.021833
521.146865	0.023193
521.363637	0.023176
521.580391	0.022291
521.797127	0.022792
522.013844	0.022602
522.230543	0.022682
522.447224	0.022579
522.663887	0.021946
522.880532	0.022422
523.097158	0.021658
523.313766	0.022058
523.530356	0.022636
523.746928	0.022588
523.963481	0.022548
524.180017	0.023255
524.396534	0.023061
524.613032	0.023824
524.829513	0.024222
525.045975	0.023516
525.262420	0.023476
525.478845	0.024152
525.695253	0.023497
525.911643	0.023414
526.128014	0.023285
526.344367	0.023219
526.560702	0.023071
526.777018	0.023072
526.993316	0.023525
527.209597	0.022975
527.425858	0.021487
527.642102	0.021606
527.858328	0.021157
528.074535	0.021062
528.290724	0.021057
528.506894	0.020780
528.723047	0.020799
528.939181	0.020398
529.155297	0.020332
529.371395	0.021103
529.587475	0.021195
529.803536	0.022194
530.019579	0.022058
530.235604	0.021954
530.451611	0.022202
530.667600	0.022105
530.883570	0.022238
531.099522	0.022336
531.315456	0.022386
531.531372	0.022993
531.747269	0.022132
531.963148	0.022214
532.179009	0.022444
532.394852	0.022518
532.610676	0.022378
532.826482	0.022329
533.042271	0.022206
533.258040	0.021846
533.473792	0.021164
533.689525	0.021990
533.905240	0.022033
534.120937	0.021899
534.336616	0.021481
534.552277	0.022076
534.767919	0.022150
534.983543	0.022345
535.199149	0.022283
535.414736	0.022818
535.630306	0.022478
535.845857	0.022460
536.061390	0.022591
536.276904	0.022522
536.492401	0.021598
536.707879	0.021814
536.923339	0.021325
537.138781	0.022331
537.354204	0.022099
537.569610	0.022504
537.784997	0.022257
538.000366	0.021881
538.215716	0.021941
538.431049	0.022413
538.646363	0.022476
538.861659	0.023415
539.076937	0.022643
539.292196	0.022496
539.507438	0.021836
539.722661	0.022115
539.937866	0.022432
540.153052	0.022803
540.368221	0.022714
540.583371	0.022950
540.798503	0.022910
541.013617	0.023122
541.228712	0.024091
541.443789	0.024428
541.658848	0.024046
541.873889	0.023704
542.088912	0.023594
542.303916	0.024120
542.518902	0.023698
542.733870	0.023811
542.948820	0.023636
543.163752	0.023107
543.378665	0.022895
543.593560	0.022946
543.808437	0.022897
544.023295	0.023191
544.238136	0.022439
544.452958	0.022690
544.667762	0.022671
544.882548	0.022864
545.097315	0.022445
545.312064	0.022606
545.526795	0.022846
545.741508	0.022976
545.956203	0.022654
546.170879	0.022578
546.385537	0.022704
546.600177	0.022227
546.814799	0.022034
547.029402	0.021573
547.243988	0.021735
547.458555	0.021812
547.673103	0.021912
547.887634	0.021895
548.102146	0.022313
548.316640	0.022132
548.531116	0.022164
548.745574	0.022116
548.960013	0.022447
549.174435	0.021581
549.388838	0.021335
549.603222	0.020846
549.817589	0.020936
550.031937	0.020969
550.246267	0.020597
550.460579	0.020665
550.674873	0.020775
550.889148	0.021553
551.103405	0.022097
551.317644	0.022490
551.531865	0.023462
551.746068	0.023326
551.960252	0.023518
552.174418	0.023765
552.388566	0.023853
552.602696	0.023937
552.816807	0.023690
553.030900	0.023826
553.244975	0.023965
553.459032	0.023376
553.673070	0.023453
553.887091	0.022436
554.101093	0.023033
554.315077	0.022944
554.529042	0.022550
554.742990	0.022129
554.956919	0.021982
555.170830	0.021736
555.384722	0.021804
555.598597	0.022040
555.812453	0.022919
556.026291	0.022530
556.240111	0.022869
556.453913	0.023029
556.667696	0.023669
556.881461	0.023880
557.095208	0.023901
557.308937	0.023818
557.522647	0.023512
557.736339	0.023239
557.950013	0.023391
558.163669	0.023327
558.377307	0.023221
558.590926	0.022943
558.804527	0.022754
559.018110	0.022696
559.231675	0.022786
559.445221	0.023277
559.658749	0.023351
559.872259	0.022813
560.085751	0.022789
560.299225	0.023013
560.512680	0.022678
560.726117	0.022404
560.939536	0.022633
561.152937	0.022889
561.366319	0.022298
561.579683	0.022311
561.793029	0.022361
562.006357	0.022111
562.219667	0.022296
562.432958	0.022351
562.646231	0.023128
562.859486	0.022828
563.072723	0.022154
563.285941	0.022591
563.499141	0.022544
563.712323	0.022757
563.925487	0.022962
564.138632	0.023036
564.351760	0.023124
564.564869	0.022951
564.777960	0.022940
564.991032	0.023402
565.204087	0.023101
565.417123	0.023157
565.630141	0.022810
565.843140	0.022575
566.056122	0.022483
566.269085	0.022771
566.482030	0.022428
566.694957	0.022226
566.907866	0.022057
567.120756	0.022312
567.333628	0.022319
567.546482	0.022983
567.759318	0.023042
567.972135	0.023086
568.184935	0.022612
568.397716	0.022354
568.610478	0.022421
568.823223	0.022558
569.035949	0.023024
569.248657	0.022648
569.461347	0.022262
569.674019	0.022739
569.886672	0.022762
570.099308	0.022826
570.311925	0.023285
570.524523	0.023480
570.737104	0.023579
570.949666	0.022995
571.162210	0.023355
571.374736	0.023767
571.587244	0.023632
571.799733	0.023527
572.012205	0.023651
572.224658	0.023819
572.437092	0.023853
572.649509	0.023768
572.861907	0.023524
573.074287	0.023447
573.286649	0.023026
573.498993	0.022926
573.711318	0.022737
573.923625	0.022843
574.135914	0.022558
574.348185	0.022542
574.560438	0.022305
574.772672	0.022274
574.984888	0.022610
575.197086	0.022768
575.409266	0.022632
575.621427	0.022773
575.833570	0.022883
576.045695	0.022995
576.257802	0.023299
576.469890	0.023576
576.681961	0.023891
576.894013	0.023610
577.106046	0.023700
577.318062	0.023766
577.530059	0.023449
577.742039	0.023419
577.954000	0.023665
578.165942	0.023012
578.377867	0.022801
578.589773	0.022828
578.801661	0.022876
579.013531	0.023133
579.225382	0.023050
579.437216	0.023214
579.649031	0.023201
579.860828	0.023140
580.072606	0.023422
580.284367	0.023437
580.496109	0.023244
580.707833	0.023123
580.919539	0.022772
581.131227	0.022644
581.342896	0.023051
581.554547	0.022885
581.766180	0.022604
581.977795	0.022670
582.189391	0.022620
582.400969	0.022771
582.612529	0.023065
582.824071	0.023192
583.035595	0.023709
583.247100	0.023078
583.458587	0.022985
583.670056	0.023193
583.881506	0.023130
584.092939	0.023457
584.304353	0.023332
584.515749	0.023397
584.727127	0.023002
584.938486	0.022373
585.149828	0.022845
585.361151	0.023089
585.572456	0.023255
585.783742	0.023427
585.995011	0.023454
586.206261	0.023592
586.417493	0.023638
586.628706	0.023889
586.839902	0.024164
587.051079	0.023763
587.262238	0.023951
587.473379	0.023500
587.684502	0.023426
587.895606	0.023077
588.106692	0.023348
588.317760	0.023206
588.528810	0.023413
588.739841	0.023407
588.950855	0.023650
589.161850	0.023552
589.372827	0.023790
589.583785	0.023920
589.794726	0.024318
590.005648	0.024209
590.216552	0.024142
590.427437	0.023896
590.638305	0.023763
590.849154	0.023934
591.059985	0.023758
591.270798	0.023788
591.481592	0.023795
591.692369	0.023852
591.903127	0.023500
592.113867	0.023695
592.324588	0.023651
592.535292	0.023993
592.745977	0.023796
592.956644	0.023563
593.167293	0.023282
593.377923	0.023223
593.588536	0.022829
593.799130	0.023248
594.009706	0.023023
594.220263	0.023264
594.430803	0.022758
594.641324	0.022691
594.851827	0.022933
595.062312	0.023227
595.272778	0.023164
595.483227	0.023284
595.693657	0.022942
595.904069	0.022894
596.114462	0.022804
596.324838	0.023112
596.535195	0.023314
596.745534	0.023533
596.955855	0.023382
597.166157	0.023426
597.376441	0.023780
597.586707	0.023919
597.796955	0.024069
598.007185	0.024156
598.217396	0.024197
598.427589	0.024075
598.637764	0.023938
598.847921	0.024183
599.058060	0.024026
599.268180	0.023635
599.478282	0.023587
599.688366	0.023964
599.898431	0.023734
600.108479	0.023545
600.318508	0.023638
600.528519	0.023535
600.738511	0.023275
600.948486	0.023644
601.158442	0.023568
601.368380	0.023734
601.578300	0.023345
601.788202	0.023932
601.998085	0.024266
602.207950	0.024764
602.417797	0.025010
602.627626	0.025149
602.837436	0.025003
603.047228	0.025210
603.257002	0.024990
603.466758	0.025209
603.676496	0.024766
603.886215	0.024626
604.095916	0.024250
604.305599	0.024138
604.515264	0.024436
604.724910	0.024375
604.934538	0.024545
605.144148	0.024604
605.353740	0.024164
605.563314	0.024283
605.772869	0.024526
605.982406	0.024396
606.191925	0.024067
606.401425	0.023696
606.610908	0.023514
606.820372	0.023533
607.029818	0.023628
607.239246	0.023712
607.448655	0.023780
607.658047	0.023607
607.867420	0.023622
608.076775	0.023978
608.286111	0.024115
608.495430	0.024441
608.704730	0.024156
608.914012	0.024131
609.123275	0.024332
609.332521	0.024253
609.541748	0.024593
609.750957	0.024578
609.960148	0.024554
610.169321	0.024595
610.378475	0.024394
610.587611	0.024352
610.796729	0.024331
611.005829	0.024400
611.214910	0.024239
611.423974	0.023880
611.633019	0.023989
611.842045	0.024029
612.051054	0.023749
612.260044	0.023888
612.469017	0.024182
612.677970	0.024208
612.886906	0.024315
613.095824	0.024680
613.304723	0.024788
613.513604	0.025070
613.722467	0.024754
613.931311	0.024984
614.140138	0.024885
614.348946	0.024837
614.557736	0.024669
614.766507	0.024550
614.975261	0.024123
615.183996	0.023987
615.392713	0.023830
615.601412	0.024066
615.810092	0.023801
616.018754	0.023899
616.227399	0.023921
616.436024	0.023959
616.644632	0.023967
616.853222	0.024148
617.061793	0.024231
617.270346	0.024165
617.478880	0.024061
617.687397	0.024388
617.895895	0.024396
618.104375	0.024102
618.312837	0.024217
618.521281	0.024187
618.729706	0.024155
618.938113	0.024103
619.146502	0.024214
619.354873	0.024306
619.563226	0.024272
619.771560	0.024177
619.979876	0.024247
620.188174	0.024159
620.396453	0.024111
620.604715	0.024269
620.812958	0.024524
621.021183	0.024593
621.229390	0.024527
621.437578	0.024527
621.645748	0.024655
621.853900	0.024841
622.062034	0.024940
622.270150	0.024759
622.478247	0.024638
622.686326	0.024465
622.894387	0.024325
623.102430	0.024602
623.310454	0.024818
623.518461	0.024831
623.726449	0.024862
623.934418	0.024924
624.142370	0.025025
624.350303	0.024996
624.558218	0.025079
624.766115	0.025258
624.973994	0.025247
625.181855	0.025358
625.389697	0.025440
625.597521	0.025590
625.805327	0.025582
626.013114	0.025572
626.220883	0.025398
626.428634	0.025189
626.636367	0.024983
626.844082	0.024874
627.051778	0.024528
627.259457	0.024437
627.467117	0.024417
627.674758	0.024396
627.882382	0.024506
628.089987	0.024783
628.297574	0.025064
628.505143	0.025241
628.712694	0.025028
628.920226	0.024987
629.127740	0.025049
629.335236	0.025009
629.542714	0.025231
629.750174	0.025229
629.957615	0.025371
630.165038	0.025204
630.372443	0.025121
630.579829	0.025330
630.787198	0.025426
630.994548	0.025122
631.201880	0.025106
631.409194	0.025070
631.616489	0.025075
631.823766	0.024957
632.031025	0.025368
632.238266	0.025305
632.445489	0.025448
632.652693	0.025569
632.859879	0.025802
633.067047	0.025791
633.274197	0.025666
633.481329	0.025774
633.688442	0.025413
633.895537	0.025207
634.102614	0.025182
634.309672	0.025153
634.516713	0.025095
634.723735	0.025314
634.930739	0.025471
635.137724	0.025583
635.344692	0.025445
635.551641	0.025764
635.758572	0.025577
635.965485	0.025469
636.172379	0.025452
636.379256	0.025314
636.586114	0.025207
636.792954	0.024993
636.999775	0.024818
637.206579	0.024872
637.413364	0.024882
637.620131	0.024852
637.826880	0.025122
638.033610	0.025025
638.240323	0.025367
638.447017	0.025374
638.653692	0.025471
638.860350	0.025754
639.066990	0.025924
639.273611	0.026222
639.480214	0.026434
639.686798	0.026399
639.893365	0.026443
640.099913	0.026278
640.306443	0.026262
640.512955	0.026356
640.719449	0.026231
640.925924	0.026003
641.132381	0.025895
641.338820	0.025999
641.545241	0.025886
641.751644	0.026006
641.958028	0.026068
642.164394	0.026212
642.370742	0.026140
642.577071	0.026065
642.783383	0.026053
642.989676	0.025855
643.195951	0.025654
643.402207	0.025956
643.608446	0.025988
643.814666	0.025887
644.020868	0.025827
644.227052	0.025818
644.433218	0.025943
644.639365	0.026155
644.845494	0.026268
645.051605	0.026192
645.257698	0.026056
645.463772	0.025915
645.669828	0.026011
645.875866	0.026075
646.081886	0.026308
646.287888	0.026389
646.493871	0.026487
646.699836	0.026574
646.905783	0.026492
647.111712	0.026421
647.317622	0.026535
647.523514	0.026518
647.729388	0.026413
647.935244	0.026287
648.141082	0.026100
648.346901	0.026075
648.552702	0.025905
648.758485	0.026011
648.964250	0.026305
649.169996	0.026275
649.375724	0.026137
649.581434	0.026281
649.787126	0.026297
649.992800	0.026415
650.198455	0.026137
650.404092	0.026277
650.609711	0.026418
650.815311	0.026148
651.020894	0.026062
651.226458	0.026074
651.432004	0.026033
651.637532	0.026002
651.843041	0.026069
652.048532	0.026310
652.254006	0.026290
652.459460	0.026330
652.664897	0.026564
652.870315	0.026785
653.075716	0.026687
653.281097	0.026548
653.486461	0.026500
653.691807	0.026362
653.897134	0.026217
654.102443	0.026517
654.307734	0.026264
654.513006	0.025999
654.718261	0.026122
654.923497	0.026330
655.128715	0.026459
655.333915	0.026494
655.539096	0.026538
655.744259	0.026724
655.949404	0.026379
656.154531	0.026459
656.359640	0.026553
656.564730	0.026349
656.769802	0.026317
656.974856	0.026373
657.179892	0.026321
657.384909	0.026422
657.589908	0.026462
657.794889	0.026629
657.999852	0.026763
658.204797	0.026943
658.409723	0.027005
658.614631	0.027027
658.819521	0.026822
659.024393	0.027067
659.229246	0.027100
659.434081	0.027077
659.638898	0.027164
659.843697	0.027028
660.048478	0.026976
660.253240	0.026922
660.457984	0.027178
660.662710	0.027431
660.867417	0.027271
661.072107	0.027217
661.276778	0.027241
661.481431	0.027113
661.686066	0.027325
661.890682	0.027393
662.095281	0.027390
662.299861	0.027216
662.504422	0.027025
662.708966	0.027090
662.913491	0.027085
663.117999	0.027078
663.322488	0.027215
663.526958	0.027029
663.731411	0.026876
663.935845	0.026827
664.140261	0.026870
664.344659	0.026838
664.549038	0.026764
664.753400	0.026824
664.957743	0.026907
665.162068	0.026878
665.366375	0.027115
665.570663	0.027423
665.774933	0.027650
665.979185	0.027555
666.183419	0.027788
666.387635	0.027932
666.591832	0.027985
666.796011	0.028107
667.000172	0.028119
667.204315	0.028218
667.408439	0.028146
667.612545	0.028019
667.816634	0.028389
668.020703	0.028425
668.224755	0.028382
668.428788	0.028296
668.632803	0.028114
668.836800	0.028163
669.040779	0.028218
669.244739	0.028065
669.448681	0.028015
669.652605	0.027727
669.856511	0.027750
670.060399	0.027857
670.264268	0.028061
670.468119	0.028075
670.671952	0.028039
670.875767	0.028008
671.079563	0.028105
671.283341	0.028230
671.487101	0.028382
671.690843	0.028331
671.894567	0.028324
672.098272	0.028302
672.301959	0.028329
672.505628	0.028508
672.709278	0.028479
672.912911	0.028382
673.116525	0.028528
673.320121	0.028398
673.523699	0.028371
673.727258	0.028291
673.930799	0.028253
674.134322	0.028357
674.337827	0.028371
674.541314	0.028410
674.744782	0.028572
674.948232	0.028484
675.151664	0.028561
675.355078	0.028504
675.558474	0.028508
675.761851	0.028602
675.965210	0.028578
676.168551	0.028419
676.371873	0.028492
676.575178	0.028497
676.778464	0.028226
676.981732	0.028283
677.184981	0.028531
677.388213	0.028729
677.591426	0.028681
677.794621	0.028758
677.997798	0.028793
678.200956	0.028644
678.404097	0.028831
678.607219	0.029206
678.810323	0.029290
679.013408	0.029441
679.216476	0.029288
679.419525	0.029487
679.622556	0.029389
679.825569	0.029352
680.028563	0.029531
680.231540	0.029294
680.434498	0.029279
680.637438	0.029285
680.840359	0.028888
681.043263	0.029054
681.246148	0.028840
681.449015	0.028969
681.651864	0.028948
681.854694	0.028835
682.057506	0.029015
682.260301	0.029110
682.463076	0.029174
682.665834	0.029365
682.868573	0.029285
683.071295	0.029312
683.273998	0.029434
683.476682	0.029605
683.679349	0.029661
683.881997	0.029554
684.084627	0.029521
684.287239	0.029544
684.489833	0.029618
684.692408	0.029380
684.894965	0.029414
685.097504	0.029127
685.300025	0.029109
685.502527	0.029135
685.705012	0.029079
685.907478	0.029228
686.109925	0.029312
686.312355	0.029328
686.514766	0.029666
686.717159	0.029773
686.919534	0.030030
687.121891	0.029996
687.324230	0.030177
687.526550	0.030424
687.728852	0.030296
687.931136	0.030115
688.133401	0.030018
688.335649	0.030039
688.537878	0.029894
688.740089	0.029875
688.942281	0.030017
689.144456	0.029903
689.346612	0.029698
689.548750	0.029668
689.750870	0.029822
689.952971	0.030072
690.155055	0.030127
690.357120	0.030187
690.559167	0.030125
690.761195	0.030270
690.963206	0.030183
691.165198	0.030316
691.367172	0.030324
691.569128	0.030172
691.771065	0.030019
691.972984	0.029902
692.174885	0.029989
692.376768	0.030247
692.578633	0.030020
692.780479	0.029860
692.982308	0.029842
693.184118	0.029934
693.385909	0.029969
693.587683	0.029991
693.789438	0.030081
693.991175	0.029936
694.192894	0.029637
694.394595	0.029776
694.596277	0.030137
694.797941	0.030128
694.999587	0.030061
695.201215	0.030055
695.402824	0.029989
695.604416	0.030178
695.805989	0.030248
696.007543	0.030438
696.209080	0.030415
696.410598	0.030315
696.612099	0.030396
696.813580	0.030539
697.015044	0.030735
697.216490	0.030662
697.417917	0.030646
697.619326	0.030702
697.820717	0.030695
698.022089	0.030775
698.223444	0.030823
698.424780	0.030829
698.626098	0.030824
698.827397	0.030933
699.028679	0.031072
699.229942	0.030791
699.431187	0.030880
699.632414	0.030806
699.833622	0.030736
700.034813	0.030619
700.235985	0.030701
700.437139	0.030597
700.638274	0.030290
700.839392	0.030379
701.040491	0.030455
701.241572	0.030353
701.442635	0.030193
701.643679	0.030178
701.844706	0.030352
702.045714	0.030309
702.246704	0.030306
702.447675	0.030408
702.648629	0.030317
702.849564	0.030384
703.050481	0.030634
703.251380	0.030928
703.452260	0.031076
703.653122	0.031093
703.853966	0.031056
704.054792	0.031054
704.255600	0.031212
704.456389	0.031319
704.657160	0.031501
704.857913	0.031355
705.058648	0.031206
705.259365	0.031128
705.460063	0.030872
705.660743	0.031066
705.861405	0.031216
706.062048	0.031107
706.262674	0.031102
706.463281	0.030898
706.663870	0.030923
706.864441	0.030823
707.064993	0.030913
707.265527	0.031090
707.466043	0.030925
707.666541	0.030816
707.867021	0.030751
708.067482	0.030626
708.267925	0.030709
708.468350	0.030764
708.668757	0.030814
708.869145	0.030550
709.069516	0.030534
709.269868	0.030501
709.470201	0.030560
709.670517	0.030629
709.870814	0.030829
710.071093	0.030825
710.271354	0.030736
710.471597	0.030660
710.671821	0.030654
710.872028	0.030673
711.072216	0.030577
711.272385	0.030668
711.472537	0.030831
711.672670	0.030727
711.872785	0.030598
712.072882	0.030625
712.272961	0.030673
712.473021	0.030558
712.673063	0.030591
712.873087	0.030614
713.073093	0.030592
713.273081	0.030584
713.473050	0.030585
713.673001	0.030568
713.872934	0.030668
714.072849	0.030731
714.272745	0.030940
714.472623	0.031015
714.672483	0.031103
714.872325	0.030892
715.072148	0.030724
715.271954	0.030782
715.471741	0.030739
715.671509	0.030598
715.871260	0.030706
716.070992	0.030498
716.270707	0.030154
716.470403	0.030201
716.670080	0.030251
716.869740	0.030244
717.069381	0.030217
717.269004	0.030140
717.468609	0.030017
717.668195	0.029838
717.867764	0.029837
718.067314	0.029920
718.266846	0.029738
718.466360	0.029609
718.665855	0.029663
718.865332	0.029352
719.064791	0.029526
719.264232	0.029543
719.463655	0.029483
719.663059	0.029682
719.862445	0.029762
720.061813	0.029646
720.261163	0.029598
720.460494	0.029420
720.659807	0.029514
720.859102	0.029312
721.058379	0.029277
721.257638	0.029383
721.456878	0.029302
721.656100	0.029222
721.855304	0.029211
722.054490	0.029301
722.253657	0.029142
722.452806	0.029132
722.651937	0.029156
722.851050	0.029150
723.050145	0.029128
723.249221	0.028913
723.448279	0.029165
723.647319	0.029146
723.846340	0.029149
724.045344	0.029192
724.244329	0.029132
724.443296	0.029337
724.642245	0.029409
724.841175	0.029297
725.040088	0.029339
725.238982	0.029005
725.437857	0.029126
725.636715	0.029023
725.835554	0.029056
726.034376	0.028867
726.233179	0.028531
726.431963	0.028389
726.630730	0.028218
726.829478	0.028344
727.028208	0.028543
727.226920	0.028353
727.425614	0.028291
727.624289	0.028199
727.822946	0.028216
728.021585	0.028152
728.220206	0.027918
728.418808	0.027972
728.617392	0.027757
728.815958	0.027451
729.014506	0.027565
729.213036	0.027344
729.411547	0.027490
729.610040	0.027625
729.808515	0.027582
730.006972	0.027604
730.205410	0.027590
730.403831	0.027672
730.602233	0.027722
730.800616	0.027619
730.998982	0.027822
731.197329	0.027665
731.395658	0.027615
731.593969	0.027794
731.792262	0.028007
731.990536	0.027947
732.188793	0.027927
732.387031	0.027902
732.585250	0.027818
732.783452	0.027884
732.981635	0.027914
733.179800	0.027814
733.377947	0.027641
733.576076	0.027481
733.774186	0.027500
733.972278	0.027446
734.170352	0.027670
734.368408	0.027514
734.566446	0.027403
734.764465	0.027120
734.962466	0.027241
735.160449	0.027314
735.358413	0.027297
735.556360	0.027342
735.754288	0.027138
735.952198	0.026985
736.150090	0.027057
736.347963	0.026896
736.545818	0.027047
736.743655	0.027062
736.941474	0.027000
737.139275	0.026990
737.337057	0.026909
737.534821	0.027011
737.732567	0.026871
737.930295	0.026853
738.128005	0.026879
738.325696	0.026778
738.523369	0.026600
738.721024	0.026607
738.918660	0.026275
739.116279	0.026215
739.313879	0.026085
739.511461	0.025911
739.709024	0.026097
739.906570	0.026059
740.104097	0.026048
740.301606	0.026096
740.499097	0.025954
740.696569	0.026247
740.894024	0.026239
741.091460	0.026276
741.288878	0.026467
741.486277	0.026269
741.683659	0.026292
741.881022	0.026123
742.078367	0.025861
742.275694	0.025816
742.473002	0.025830
742.670293	0.025834
742.867565	0.025749
743.064819	0.025590
743.262054	0.025319
743.459272	0.025366
743.656471	0.025612
743.853652	0.025898
744.050815	0.025900
744.247959	0.025715
744.445085	0.025750
744.642194	0.025812
744.839283	0.025777
745.036355	0.026011
745.233408	0.026020
745.430444	0.025877
745.627461	0.025835
745.824459	0.025888
746.021440	0.026009
746.218402	0.026046
746.415346	0.025978
746.612272	0.025987
746.809180	0.026131
747.006069	0.026030
747.202940	0.026086
747.399793	0.026011
747.596628	0.026203
747.793444	0.026205
747.990243	0.026062
748.187023	0.026186
748.383784	0.026169
748.580528	0.025950
748.777253	0.025780
748.973960	0.025653
749.170649	0.025713
749.367320	0.025479
749.563973	0.025499
749.760607	0.025528
749.957223	0.025491
750.153821	0.025381
750.350400	0.025521
750.546962	0.025793
750.743505	0.026074
750.940030	0.026087
751.136536	0.026116
751.333025	0.026213
751.529495	0.026245
751.725947	0.026104
751.922381	0.026357
752.118796	0.026086
752.315194	0.026054
752.511573	0.025834
752.707934	0.025665
752.904276	0.025584
753.100601	0.025409
753.296907	0.025357
753.493195	0.025521
753.689465	0.025612
753.885716	0.025778
754.081949	0.025564
754.278164	0.025659
754.474361	0.025734
754.670540	0.025785
754.866700	0.025654
755.062843	0.025704
755.258967	0.025863
755.455072	0.025752
755.651160	0.025799
755.847229	0.026044
756.043280	0.025980
756.239313	0.026045
756.435328	0.026318
756.631324	0.026551
756.827302	0.026390
757.023262	0.026132
757.219204	0.026181
757.415127	0.026241
757.611033	0.026276
757.806920	0.026481
758.002788	0.026502
758.198639	0.026187
758.394471	0.026110
758.590286	0.026360
758.786081	0.026546
758.981859	0.026336
759.177619	0.026484
759.373360	0.026191
759.569083	0.026048
759.764788	0.025984
759.960474	0.026008
760.156143	0.026199
760.351793	0.026094
760.547425	0.025857
760.743038	0.025897
760.938634	0.025756
761.134211	0.025749
761.329770	0.025660
761.525311	0.025510
761.720833	0.025492
761.916338	0.025411
762.111824	0.025527
762.307292	0.025760
762.502741	0.026077
762.698173	0.025942
762.893586	0.026194
763.088981	0.026434
763.284358	0.026603
763.479716	0.026704
763.675057	0.026665
763.870379	0.026326
764.065683	0.026217
764.260968	0.026071
764.456236	0.026338
764.651485	0.026322
764.846716	0.026211
765.041929	0.026415
765.237123	0.026398
765.432299	0.026312
765.627457	0.026632
765.822597	0.026639
766.017719	0.026661
766.212822	0.026498
766.407907	0.026393
766.602974	0.026434
766.798023	0.026216
766.993054	0.026405
767.188066	0.026481
767.383060	0.026306
767.578036	0.026524
767.772993	0.026377
767.967933	0.026256
768.162854	0.026382
768.357757	0.026127
768.552642	0.026214
768.747508	0.026055
768.942356	0.025908
769.137186	0.026027
769.331998	0.025879
769.526792	0.026000
769.721567	0.026115
769.916324	0.026030
770.111063	0.026089
770.305784	0.026113
770.500486	0.025904
770.695171	0.026013
770.889837	0.026116
771.084484	0.026047
771.279114	0.026087
771.473725	0.025994
771.668318	0.026075
771.862893	0.026227
772.057450	0.026261
772.251988	0.026463
772.446509	0.026551
772.641011	0.026280
772.835494	0.026315
773.029960	0.026054
773.224407	0.026279
773.418836	0.026339
773.613247	0.026205
773.807640	0.026123
774.002014	0.026035
774.196370	0.025899
774.390708	0.025878
774.585028	0.025830
774.779330	0.025893
774.973613	0.025693
775.167878	0.025728
775.362125	0.025926
775.556354	0.025922
775.750564	0.026053
775.944756	0.025907
776.138930	0.025979
776.333086	0.025967
776.527223	0.025951
776.721343	0.025846
776.915444	0.025756
777.109526	0.025680
777.303591	0.025623
777.497637	0.025684
777.691666	0.025986
777.885676	0.026182
778.079667	0.026360
778.273641	0.026405
778.467596	0.026576
778.661533	0.026422
778.855452	0.026375
779.049352	0.026491
779.243235	0.026192
779.437099	0.026109
779.630945	0.026091
779.824773	0.025987
780.018582	0.026164
780.212373	0.026205
780.406146	0.026307
780.599901	0.026367
780.793638	0.026530
780.987356	0.026717
781.181056	0.026623
781.374738	0.026727
781.568402	0.026900
781.762047	0.026778
781.955674	0.026834
782.149283	0.026921
782.342874	0.026921
782.536447	0.026906
782.730001	0.026726
782.923537	0.026980
783.117055	0.026985
783.310555	0.027075
783.504036	0.027323
783.697499	0.027460
783.890944	0.027392
784.084371	0.027411
784.277780	0.027314
784.471170	0.027683
784.664542	0.027771
784.857896	0.027845
785.051231	0.027799
785.244549	0.027801
785.437848	0.027798
785.631129	0.028060
785.824392	0.028253
786.017636	0.028397
786.210863	0.028374
786.404071	0.028213
786.597260	0.028160
786.790432	0.027939
786.983585	0.027883
787.176721	0.027659
787.369838	0.027604
787.562936	0.027580
787.756017	0.027423
787.949079	0.027410
788.142123	0.027188
788.335149	0.026920
788.528156	0.027041
788.721146	0.026934
788.914117	0.027235
789.107070	0.027083
789.300005	0.026980
789.492921	0.027048
789.685819	0.027079
789.878699	0.027445
790.071561	0.027904
790.264405	0.027817
790.457230	0.027946
790.650037	0.027653
790.842826	0.027853
791.035597	0.027978
791.228349	0.028158
791.421084	0.028272
791.613800	0.028055
791.806497	0.027946
791.999177	0.028065
792.191838	0.028032
792.384481	0.028335
792.577106	0.028364
792.769713	0.028299
792.962301	0.028120
793.154871	0.027954
793.347423	0.028213
793.539957	0.028316
793.732473	0.028575
793.924970	0.028513
794.117449	0.028466
794.309910	0.028251
794.502353	0.028197
794.694777	0.028276
794.887183	0.028472
795.079571	0.028405
795.271941	0.028360
795.464293	0.028319
795.656626	0.028681
795.848941	0.028593
796.041238	0.028751
796.233516	0.028921
796.425777	0.028729
796.618019	0.028693
796.810243	0.028829
797.002449	0.028834
797.194636	0.028806
797.386805	0.028568
797.578956	0.028655
797.771089	0.028781
797.963204	0.028680
798.155300	0.029039
798.347378	0.029003
798.539438	0.028987
798.731480	0.029029
798.923503	0.029174
799.115509	0.029185
799.307496	0.029281
799.499465	0.029486
799.691415	0.029649
799.883348	0.029611
800.075262	0.029754
800.267158	0.029687
800.459035	0.029675
800.650895	0.029679
800.842736	0.029724
801.034559	0.029573
801.226364	0.029340
801.418150	0.029136
801.609919	0.029143
801.801669	0.029161
801.993401	0.029338
802.185114	0.029372
802.376810	0.029327
802.568487	0.029258
802.760146	0.029486
802.951787	0.029674
803.143409	0.029754
803.335014	0.029949
803.526600	0.029865
803.718168	0.029827
803.909717	0.029946
804.101249	0.029710
804.292762	0.030007
804.484257	0.029745
804.675734	0.029687
804.867192	0.029860
805.058632	0.029757
805.250054	0.029907
805.441458	0.029874
805.632844	0.029930
805.824211	0.030320
806.015561	0.029958
806.206891	0.030272
806.398204	0.030240
806.589499	0.030450
806.780775	0.030498
806.972033	0.030503
807.163273	0.030308
807.354495	0.030131
807.545698	0.030032
807.736883	0.030229
807.928050	0.030301
808.119199	0.030215
808.310329	0.029924
808.501441	0.029750
808.692535	0.029786
808.883611	0.030092
809.074669	0.030027
809.265708	0.030039
809.456729	0.030210
809.647732	0.030093
809.838717	0.030172
810.029683	0.030177
810.220632	0.030180
810.411562	0.030243
810.602474	0.030302
810.793367	0.030366
810.984242	0.030372
811.175100	0.030420
811.365938	0.030360
811.556759	0.030297
811.747562	0.030448
811.938346	0.030481
812.129112	0.030577
812.319860	0.030569
812.510589	0.030692
812.701300	0.030792
812.891994	0.030712
813.082668	0.031124
813.273325	0.031297
813.463964	0.031332
813.654584	0.031342
813.845186	0.031256
814.035769	0.031273
814.226335	0.031336
814.416882	0.031123
814.607411	0.031172
814.797922	0.030799
814.988415	0.030856
815.178889	0.031097
815.369345	0.031129
815.559783	0.031245
815.750203	0.031316
815.940605	0.031259
816.130988	0.031353
816.321353	0.031164
816.511700	0.031441
816.702028	0.031230
816.892339	0.030957
817.082631	0.031053
817.272905	0.031048
817.463161	0.030924
817.653398	0.030815
817.843617	0.030748
818.033819	0.030794
818.224001	0.030761
818.414166	0.031116
818.604312	0.031484
818.794440	0.031543
818.984550	0.031277
819.174642	0.031394
819.364716	0.031460
819.554771	0.031626
819.744808	0.031872
819.934827	0.032037
820.124827	0.031869
820.314810	0.031437
820.504774	0.031266
820.694720	0.031308
820.884647	0.031138
821.074557	0.030998
821.264448	0.031073
821.454321	0.030898
821.644176	0.030532
821.834012	0.030683
822.023831	0.030883
822.213631	0.031115
822.403413	0.031244
822.593176	0.031503
822.782922	0.031834
822.972649	0.031918
823.162358	0.032007
823.352049	0.032574
823.541721	0.032389
823.731376	0.032201
823.921012	0.032005
824.110629	0.031917
824.300229	0.031847
824.489811	0.031766
824.679374	0.031527
824.868919	0.031396
825.058445	0.030892
825.247954	0.031094
825.437444	0.031433
825.626916	0.031344
825.816370	0.031642
826.005806	0.031485
826.195223	0.031577
826.384622	0.031558
826.574003	0.031683
826.763366	0.031741
826.952711	0.031574
827.142037	0.031709
827.331345	0.031930
827.520635	0.031567
827.709906	0.031853
827.899160	0.031713
828.088395	0.032097
828.277612	0.032060
828.466810	0.032143
828.655991	0.031887
828.845153	0.031734
829.034297	0.031844
829.223423	0.032088
829.412531	0.031956
829.601620	0.032227
829.790691	0.031771
829.979744	0.031869
830.168779	0.031896
830.357795	0.032267
830.546793	0.032221
830.735773	0.032091
830.924735	0.032029
831.113679	0.032091
831.302604	0.031892
831.491511	0.032295
831.680400	0.032472
831.869271	0.032664
832.058123	0.032606
832.246957	0.032403
832.435773	0.032533
832.624571	0.032594
832.813351	0.032447
833.002112	0.032391
833.190855	0.032416
833.379580	0.032163
833.568287	0.031857
833.756975	0.031824
833.945645	0.032056
834.134297	0.032051
834.322931	0.032027
834.511547	0.032187
834.700144	0.032426
834.888723	0.032115
835.077284	0.032419
835.265826	0.032647
835.454351	0.032746
835.642857	0.032835
835.831345	0.032884
836.019815	0.033030
836.208266	0.033051
836.396699	0.033076
836.585114	0.033340
836.773511	0.033484
836.961890	0.033441
837.150250	0.033561
837.338592	0.033635
837.526916	0.033656
837.715222	0.033849
837.903510	0.033711
838.091779	0.033821
838.280030	0.033948
838.468263	0.033859
838.656477	0.033911
838.844674	0.034021
839.032852	0.033950
839.221012	0.033849
839.409153	0.033603
839.597277	0.034037
839.785382	0.033819
839.973469	0.033759
840.161538	0.033724
840.349589	0.033958
840.537621	0.033826
840.725635	0.033878
840.913631	0.034064
841.101609	0.034239
841.289568	0.034049
841.477509	0.034247
841.665432	0.034289
841.853337	0.034284
842.041224	0.034268
842.229092	0.034523
842.416942	0.034510
842.604774	0.034672
842.792588	0.034635
842.980383	0.034575
843.168160	0.034562
843.355919	0.034418
843.543660	0.034781
843.731382	0.034578
843.919087	0.034764
844.106773	0.034980
844.294441	0.034885
844.482090	0.035094
844.669722	0.035178
844.857335	0.035251
845.044930	0.035586
845.232507	0.035683
845.420065	0.035761
845.607605	0.035483
845.795127	0.035245
845.982631	0.035308
846.170117	0.035214
846.357584	0.035384
846.545033	0.035257
846.732464	0.035267
846.919877	0.035034
847.107272	0.034990
847.294648	0.035047
847.482006	0.035060
847.669346	0.034995
847.856667	0.035052
848.043971	0.035239
848.231256	0.035612
848.418523	0.035637
848.605771	0.035650
848.793002	0.035934
848.980214	0.036063
849.167408	0.036205
849.354584	0.036212
849.541742	0.036521
849.728881	0.036694
849.916002	0.036727
850.103105	0.036719
850.290190	0.036978
850.477256	0.036972
850.664304	0.037166
850.851334	0.037337
851.038346	0.037663
851.225340	0.037742
851.412315	0.037687
851.599272	0.037693
851.786211	0.037967
851.973132	0.037709
852.160034	0.037521
852.346918	0.037529
852.533784	0.037571
852.720632	0.037486
852.907462	0.037321
853.094273	0.037372
853.281066	0.037320
853.467841	0.037042
853.654598	0.037172
853.841336	0.037770
854.028056	0.037765
854.214758	0.037768
854.401442	0.037862
854.588107	0.038006
854.774755	0.038036
854.961384	0.038350
855.147995	0.038811
855.334587	0.039011
855.521162	0.039105
855.707718	0.038906
855.894256	0.038957
856.080775	0.039176
856.267277	0.039347
856.453760	0.039354
856.640225	0.039278
856.826672	0.039158
857.013101	0.039207
857.199511	0.038889
857.385903	0.039140
857.572277	0.039193
857.758633	0.039421
857.944970	0.039175
858.131290	0.039081
858.317591	0.038902
858.503873	0.038928
858.690138	0.038848
858.876384	0.039069
859.062612	0.039160
859.248822	0.039278
859.435014	0.039306
859.621188	0.039423
859.807343	0.039723
859.993480	0.039715
860.179599	0.039648
860.365699	0.039920
860.551781	0.039959
860.737846	0.040057
860.923891	0.040312
861.109919	0.040394
861.295929	0.040397
861.481920	0.040315
861.667893	0.040657
861.853848	0.040953
862.039784	0.040856
862.225702	0.040869
862.411603	0.041011
862.597484	0.040856
862.783348	0.040525
862.969193	0.040763
863.155021	0.040898
863.340830	0.041005
863.526620	0.040968
863.712393	0.041156
863.898147	0.041355
864.083883	0.041083
864.269601	0.041198
864.455301	0.041113
864.640982	0.040949
864.826645	0.041027
865.012290	0.040895
865.197917	0.040783
865.383526	0.040818
865.569116	0.040860
865.754688	0.041131
865.940242	0.041080
866.125777	0.041319
866.311295	0.041501
866.496794	0.041291
866.682275	0.041643
866.867737	0.041847
867.053182	0.041718
867.238608	0.041448
867.424016	0.041760
867.609406	0.042281
867.794778	0.042705
867.980131	0.043049
868.165466	0.043161
868.350783	0.043120
868.536082	0.043013
868.721362	0.042806
868.906625	0.043297
869.091869	0.042982
869.277094	0.042813
869.462302	0.042400
869.647491	0.042148
869.832662	0.042353
870.017815	0.042287
870.202950	0.042577
870.388066	0.042584
870.573165	0.042432
870.758245	0.042529
870.943306	0.042480
871.128350	0.042726
871.313375	0.042888
871.498382	0.043000
871.683371	0.043245
871.868342	0.043115
872.053294	0.043756
872.238229	0.043573
872.423144	0.043685
872.608042	0.043963
872.792922	0.044153
872.977783	0.044017
873.162626	0.044124
873.347451	0.044367
873.532258	0.044214
873.717046	0.043963
873.901816	0.044056
874.086568	0.044070
874.271302	0.044094
874.456017	0.044092
874.640715	0.044408
874.825394	0.044267
875.010055	0.044339
875.194697	0.044594
875.379322	0.044451
875.563928	0.044964
875.748516	0.044986
875.933085	0.044609
876.117637	0.044775
876.302170	0.044748
876.486685	0.044942
876.671182	0.044470
876.855661	0.044518
877.040121	0.044917
877.224563	0.044800
877.408987	0.044766
877.593393	0.044869
877.777780	0.044478
877.962150	0.044479
878.146501	0.044455
878.330833	0.044483
878.515148	0.044521
878.699444	0.044441
878.883722	0.044452
879.067982	0.044698
879.252224	0.044868
879.436447	0.045278
879.620653	0.045029
879.804840	0.045027
879.989008	0.044939
880.173159	0.044779
880.357291	0.044754
880.541405	0.044537
880.725501	0.044730
880.909579	0.044505
881.093638	0.044024
881.277680	0.043972
881.461703	0.043678
881.645707	0.043791
881.829694	0.044074
882.013662	0.043994
882.197612	0.043847
882.381544	0.043867
882.565458	0.044175
882.749353	0.044186
882.933230	0.044421
883.117089	0.044377
883.300930	0.044472
883.484753	0.044298
883.668557	0.044472
883.852343	0.044556
884.036111	0.044325
884.219861	0.043958
884.403592	0.043984
884.587305	0.043862
884.771000	0.044361
884.954677	0.044403
885.138335	0.044674
885.321976	0.044921
885.505598	0.045087
885.689201	0.045235
885.872787	0.045936
886.056354	0.046074
886.239904	0.046518
886.423434	0.046437
886.606947	0.046089
886.790442	0.045907
886.973918	0.046084
887.157376	0.046120
887.340816	0.046138
887.524237	0.045574
887.707641	0.045498
887.891026	0.045195
888.074393	0.044997
888.257741	0.045507
888.441072	0.045599
888.624384	0.045381
888.807678	0.045223
888.990954	0.045130
889.174211	0.045657
889.357451	0.045952
889.540672	0.046065
889.723875	0.046309
889.907059	0.046108
890.090226	0.046113
890.273374	0.045800
890.456504	0.046049
890.639616	0.045968
890.822709	0.045704
891.005785	0.045578
891.188842	0.045620
891.371881	0.045572
891.554901	0.045506
891.737904	0.045814
891.920888	0.046142
892.103854	0.046705
892.286802	0.046692
892.469731	0.046565
892.652643	0.047030
892.835536	0.047055
893.018410	0.046882
893.201267	0.047296
893.384106	0.047072
893.566926	0.047024
893.749728	0.046113
893.932511	0.046058
894.115277	0.045796
894.298024	0.045466
894.480753	0.045459
894.663464	0.045776
894.846157	0.045431
895.028831	0.045323
895.211487	0.045253
895.394125	0.045660
895.576745	0.045723
895.759346	0.046072
895.941930	0.045819
896.124495	0.045924
896.307041	0.045716
896.489570	0.045953
896.672080	0.046245
896.854573	0.046108
897.037046	0.045651
897.219502	0.045684
897.401940	0.045660
897.584359	0.045435
897.766760	0.044953
897.949143	0.045159
898.131507	0.044711
898.313854	0.044389
898.496182	0.044018
898.678492	0.044350
898.860783	0.044155
899.043057	0.044196
899.225312	0.044752
899.407549	0.045143
899.589768	0.045189
899.771968	0.045151
899.954151	0.045163
900.136315	0.045674
900.318461	0.045564
900.500588	0.045727
900.682698	0.045878
900.864789	0.045341
901.046862	0.045182
901.228917	0.045051
901.410953	0.045240
901.592971	0.045391
901.774972	0.045322
901.956953	0.045470
902.138917	0.045422
902.320862	0.044934
902.502790	0.045136
902.684699	0.045311
902.866589	0.045168
903.048462	0.045383
903.230316	0.045155
903.412152	0.045164
903.593970	0.045103
903.775770	0.045328
903.957551	0.045649
904.139314	0.045924
904.321059	0.045523
904.502786	0.045732
904.684494	0.045695
904.866185	0.045325
905.047857	0.044846
905.229510	0.044786
905.411146	0.044424
905.592763	0.044007
905.774363	0.043633
905.955943	0.043579
906.137506	0.043117
906.319051	0.042862
906.500577	0.043079
906.682085	0.043460
906.863575	0.043125
907.045046	0.043248
907.226500	0.043601
907.407935	0.043757
907.589352	0.043927
907.770750	0.044068
907.952131	0.044218
908.133493	0.044080
908.314837	0.044213
908.496163	0.044077
908.677470	0.043429
908.858760	0.042915
909.040031	0.042952
909.221284	0.043127
909.402518	0.042879
909.583735	0.042644
909.764933	0.042388
909.946113	0.042097
910.127275	0.042143
910.308418	0.042416
910.489544	0.042485
910.670651	0.042113
910.851740	0.041554
911.032810	0.041577
911.213863	0.041554
911.394897	0.042204
911.575913	0.042123
911.756911	0.042396
911.937890	0.042381
912.118851	0.042314
912.299794	0.042503
912.480719	0.042619
912.661626	0.042174
912.842514	0.041871
913.023384	0.041396
913.204236	0.041206
913.385070	0.041300
913.565886	0.041053
913.746683	0.040727
913.927462	0.040626
914.108223	0.040350
914.288965	0.040553
914.469690	0.040417
914.650396	0.040182
914.831084	0.040075
915.011754	0.039734
915.192405	0.040137
915.373038	0.040422
915.553653	0.039894
915.734250	0.039418
915.914829	0.039872
916.095389	0.039570
916.275931	0.039649
916.456455	0.039517
916.636961	0.039144
916.817448	0.038865
916.997917	0.038731
917.178368	0.038687
917.358801	0.038960
917.539216	0.038109
917.719612	0.038794
917.899990	0.038291
918.080350	0.038143
918.260692	0.037887
918.441015	0.037775
918.621320	0.037600
918.801607	0.037814
918.981876	0.038055
919.162127	0.038191
919.342359	0.037593
919.522573	0.038305
919.702769	0.037956
919.882947	0.037859
920.063106	0.037821
920.243247	0.037906
920.423370	0.037651
920.603475	0.037296
920.783562	0.037435
920.963630	0.037185
921.143680	0.036336
921.323712	0.036444
921.503725	0.036515
921.683721	0.036320
921.863698	0.035933
922.043657	0.035778
922.223598	0.035825
922.403520	0.035627
922.583424	0.036148
922.763311	0.036793
922.943178	0.036726
923.123028	0.036842
923.302859	0.036377
923.482673	0.036546
923.662467	0.036241
923.842244	0.036156
924.022003	0.035945
924.201743	0.035489
924.381465	0.034924
924.561169	0.034708
924.740854	0.034767
924.920522	0.034565
925.100171	0.034447
925.279802	0.034376
925.459414	0.034100
925.639009	0.033947
925.818585	0.033438
925.998143	0.033182
926.177683	0.033164
926.357205	0.032504
926.536708	0.032395
926.716193	0.031681
926.895660	0.031304
927.075109	0.031345
927.254539	0.031093
927.433951	0.031005
927.613345	0.031020
927.792721	0.030782
927.972079	0.030589
928.151418	0.030690
928.330739	0.031030
928.510042	0.030873
928.689327	0.030101
928.868593	0.029664
929.047841	0.029392
929.227071	0.028735
929.406283	0.028308
929.585476	0.028088
929.764652	0.028084
929.943809	0.027288
930.122948	0.027307
930.302068	0.027866
930.481171	0.027730
930.660255	0.028172
930.839321	0.028069
931.018369	0.028146
931.197398	0.027279
931.376409	0.026526
931.555402	0.026330
931.734377	0.025952
931.913334	0.025731
932.092272	0.025751
932.271192	0.025083
932.450094	0.025177
932.628978	0.024923
932.807844	0.025372
932.986691	0.025259
933.165520	0.025195
933.344331	0.025640
933.523123	0.025458
933.701898	0.025528
933.880654	0.025215
934.059392	0.024846
934.238111	0.024988
934.416813	0.025078
934.595496	0.025354
934.774161	0.025274
934.952808	0.024371
935.131437	0.024089
935.310047	0.023766
935.488639	0.023905
935.667213	0.023122
935.845769	0.022771
936.024306	0.022600
936.202825	0.022467
936.381326	0.022050
936.559809	0.022291
936.738274	0.021122
936.916720	0.020753
937.095148	0.021002
937.273558	0.021632
937.451950	0.021601
937.630323	0.022209
937.808678	0.021696
937.987015	0.022527
938.165334	0.022200
938.343635	0.022700
938.521917	0.021770
938.700181	0.021164
938.878427	0.021412
939.056655	0.020816
939.234864	0.020028
939.413055	0.019054
939.591228	0.018209
939.769383	0.018838
939.947519	0.018785
940.125638	0.019578
940.303738	0.018270
940.481820	0.017723
940.659883	0.017154
940.837929	0.016735
941.015956	0.016978
941.193965	0.016103
941.371955	0.015869
941.549928	0.015263
941.727882	0.014718
941.905818	0.015376
942.083736	0.014724
942.261636	0.014594
942.439517	0.014358
942.617380	0.015015
942.795225	0.015561
942.973052	0.014757
943.150860	0.014524
943.328651	0.014449
943.506423	0.013648
943.684176	0.013091
943.861912	0.013796
944.039629	0.012367
944.217328	0.011310
944.395009	0.012134
944.572672	0.012580
944.750317	0.012851
944.927943	0.012140
945.105551	0.012745
945.283141	0.013226
945.460712	0.012626
945.638265	0.013118
945.815801	0.013921
945.993317	0.013326
946.170816	0.013502
946.348297	0.013612
946.525759	0.014008
946.703203	0.013443
946.880629	0.013055
947.058036	0.012689
947.235425	0.012672
947.412797	0.011543
947.590149	0.010324
947.767484	0.008013
947.944800	0.007011
948.122099	0.006775
948.299379	0.005941
948.476640	0.005350
948.653884	0.004951
948.831109	0.004400
949.008316	0.004982
949.185505	0.005152
949.362676	0.005518
949.539828	0.006741
949.716962	0.005986
949.894078	0.007153
950.071176	0.007800
950.248256	0.007823
950.425317	0.008599
950.602360	0.007488
950.779385	0.006836
950.956391	0.006251
951.133380	0.005898
951.310350	0.005462
951.487302	0.005617
951.664235	0.005062
951.841151	0.005363
952.018048	0.005401
952.194927	0.006024
952.371788	0.006543
952.548631	0.007149
952.725455	0.005781
952.902261	0.006790
953.079049	0.007467
953.255819	0.008217
953.432570	0.008073
953.609303	0.007943
953.786018	0.008590
953.962715	0.008302
954.139394	0.009989
954.316054	0.011241
954.492696	0.011451
954.669320	0.011434
954.845926	0.010253
955.022513	0.011380
955.199083	0.010902
955.375634	0.011532
955.552166	0.012424
955.728681	0.012286
955.905177	0.011442
956.081655	0.012909
956.258115	0.011731
956.434557	0.012402
956.610980	0.011784
956.787385	0.013450
956.963772	0.014392
957.140141	0.014408
957.316492	0.014274
957.492824	0.014531
957.669138	0.013106
957.845434	0.014267
958.021712	0.014980
958.197971	0.014387
958.374212	0.012368
958.550435	0.012225
958.726640	0.011503
958.902826	0.010778
959.078995	0.011486
959.255145	0.012858
959.431277	0.012487
959.607390	0.012187
959.783486	0.011560
959.959563	0.013803
960.135622	0.013824
960.311662	0.014174
960.487685	0.014070
960.663689	0.016519
960.839675	0.016794
961.015643	0.018386
961.191593	0.017484
961.367524	0.019208
961.543437	0.018716
961.719332	0.017922
961.895209	0.019839
962.071067	0.019237
962.246907	0.016323
962.422730	0.015709
962.598533	0.013894
962.774319	0.014015
962.950086	0.014493
963.125835	0.016850
963.301566	0.017779
963.477279	0.016093
963.652973	0.020922
963.828650	0.019605
964.004308	0.019331
964.179947	0.019311
964.355569	0.022889
964.531172	0.022064
964.706757	0.020878
964.882324	0.020546
965.057873	0.020904
965.233403	0.017496
965.408916	0.019129
965.584410	0.018745
965.759885	0.021016
965.935343	0.018236
966.110782	0.020179
966.286203	0.019477
966.461606	0.018584
966.636991	0.019555
966.812357	0.020743
966.987705	0.020960
967.163035	0.023657
967.338347	0.022043
967.513641	0.023891
967.688916	0.022574
967.864173	0.019610
968.039412	0.019515
968.214632	0.020544
968.389835	0.020168
968.565019	0.021854
968.740185	0.019636
968.915333	0.021886
969.090462	0.023396
969.265573	0.023047
969.440667	0.026744
969.615741	0.025914
969.790798	0.024374
969.965836	0.024118
970.140856	0.023888
970.315858	0.024941
970.490842	0.026582
970.665808	0.025214
970.840755	0.023848
971.015684	0.023451
971.190595	0.027163
971.365487	0.026624
971.540362	0.028585
971.715218	0.028801
971.890056	0.026413
972.064875	0.022980
972.239677	0.024965
972.414460	0.028194
972.589225	0.028453
972.763972	0.027963
972.938700	0.029485
973.113411	0.027585
973.288103	0.027260
973.462777	0.030206
973.637432	0.028107
973.812070	0.028610
973.986689	0.029441
974.161290	0.028594
974.335873	0.026494
974.510437	0.027128
974.684984	0.026780
974.859512	0.025301
975.034022	0.022264
975.208513	0.022976
975.382987	0.020267
975.557442	0.021090
975.731879	0.023105
975.906298	0.023971
976.080698	0.023121
976.255080	0.024154
976.429445	0.024012
976.603790	0.026731
976.778118	0.028411
976.952427	0.030062
977.126719	0.027676
977.300992	0.025099
977.475246	0.026961
977.649483	0.030026
977.823701	0.030222
977.997901	0.031612
978.172083	0.029997
978.346247	0.032375
978.520392	0.030702
978.694519	0.028813
978.868628	0.030692
979.042719	0.028211
979.216791	0.027340
979.390845	0.028044
979.564882	0.029901
979.738899	0.032717
979.912899	0.030825
980.086880	0.031883
980.260843	0.031682
980.434788	0.030891
980.608715	0.028389
980.782623	0.026317
980.956514	0.026340
981.130386	0.023047
981.304240	0.020614
981.478075	0.020610
981.651892	0.017766
981.825692	0.018709
981.999472	0.019093
982.173235	0.022352
982.346980	0.023134
982.520706	0.020847
982.694414	0.022476
982.868104	0.024050
983.041775	0.022803
983.215428	0.026207
983.389064	0.027462
983.562680	0.027631
983.736279	0.025398
983.909860	0.025444
984.083422	0.028253
984.256966	0.027382
984.430491	0.026169
984.603999	0.025946
984.777488	0.024695
984.950959	0.025567
985.124412	0.025664
985.297847	0.027391
985.471263	0.028017
985.644661	0.027173
985.818041	0.029993
985.991403	0.029683
986.164747	0.029674
986.338072	0.031362
986.511379	0.030762
986.684668	0.029843
986.857938	0.030472
987.031191	0.027671
987.204425	0.026098
987.377641	0.024681
987.550839	0.025699
987.724018	0.024522
987.897179	0.023368
988.070322	0.023822
988.243447	0.022916
988.416554	0.022470
988.589642	0.024227
988.762712	0.024831
988.935764	0.026907
989.108798	0.027208
989.281813	0.028446
989.454811	0.028282
989.627790	0.027764
989.800751	0.028061
989.973693	0.028073
990.146617	0.027546
990.319524	0.027348
990.492412	0.024172
990.665281	0.022208
990.838133	0.022484
991.010966	0.023412
991.183781	0.022179
991.356578	0.021661
991.529356	0.020553
991.702117	0.021731
991.874859	0.021743
992.047583	0.022619
992.220288	0.023047
992.392976	0.022086
992.565645	0.020960
992.738296	0.021920
992.910929	0.021988
993.083543	0.023952
993.256139	0.023625
993.428718	0.023549
993.601277	0.023808
993.773819	0.024621
993.946342	0.026574
994.118848	0.025367
994.291335	0.025368
994.463803	0.024001
994.636254	0.022679
994.808686	0.022522
994.981100	0.022993
995.153496	0.021755
995.325874	0.022503
995.498233	0.022346
995.670574	0.022799
995.842897	0.023449
996.015202	0.026579
996.187488	0.027722
996.359757	0.027525
996.532007	0.026956
996.704239	0.024294
996.876452	0.023396
997.048648	0.021101
997.220825	0.020480
997.392984	0.019791
997.565124	0.017582
997.737247	0.018555
997.909351	0.018689
998.081437	0.020277
998.253505	0.023984
998.425554	0.023062
998.597586	0.025879
998.769599	0.027468
998.941594	0.027604
999.113571	0.029663
999.285529	0.027996
999.457469	0.028309
999.629391	0.027985
999.801295	0.027410
999.973181	0.028121
1000.145048	0.025551
1000.316897	0.026097
1000.488728	0.026774
1000.660541	0.027331
1000.832335	0.027803
1001.004111	0.028924
1001.175869	0.026940
1001.347609	0.026621
1001.519331	0.027408
1001.691034	0.029210
1001.862719	0.026459
1002.034386	0.026236
1002.206035	0.025224
1002.377665	0.023179
1002.549277	0.022075
1002.720871	0.023019
1002.892447	0.022766
1003.064004	0.020838
1003.235544	0.019279
1003.407065	0.021192
1003.578568	0.019725
1003.750052	0.018421
1003.921519	0.017864
1004.092967	0.018952
1004.264397	0.018245
1004.435809	0.017524
1004.607202	0.019620
1004.778577	0.022282
1004.949934	0.022934
1005.121273	0.024664
1005.292594	0.025536
1005.463896	0.028293
1005.635180	0.026554
1005.806446	0.027469
1005.977694	0.028810
1006.148923	0.029168
1006.320135	0.028617
1006.491328	0.027357
1006.662503	0.025782
1006.833659	0.026353
1007.004798	0.025284
1007.175918	0.024452
1007.347020	0.024668
1007.518103	0.022883
1007.689169	0.022562
1007.860216	0.022334
1008.031245	0.024309
1008.202256	0.025853
1008.373248	0.023896
1008.544223	0.021689
1008.715179	0.023061
1008.886117	0.022091
1009.057036	0.021964
1009.227938	0.019926
1009.398821	0.020021
1009.569686	0.018886
1009.740533	0.017274
1009.911361	0.019714
1010.082172	0.022661
1010.252964	0.023399
1010.423738	0.024113
1010.594493	0.026216
1010.765231	0.025776
1010.935950	0.024778
1011.106651	0.025726
1011.277334	0.025380
1011.447998	0.024806
1011.618645	0.023598
1011.789273	0.022073
1011.959882	0.022821
1012.130474	0.020984
1012.301048	0.022868
1012.471603	0.023318
1012.642140	0.022301
1012.812658	0.023232
1012.983159	0.023369
1013.153641	0.022460
1013.324105	0.024294
1013.494551	0.023417
1013.664979	0.024816
1013.835388	0.024376
1014.005779	0.022373
1014.176152	0.022725
1014.346507	0.023413
1014.516843	0.023865
1014.687162	0.024291
1014.857462	0.022167
1015.027744	0.022940
1015.198007	0.021644
1015.368252	0.023384
1015.538480	0.024252
1015.708689	0.023232
1015.878879	0.024007
1016.049052	0.023994
1016.219206	0.024846
1016.389342	0.026342
1016.559460	0.026461
1016.729559	0.027599
1016.899641	0.025699
1017.069704	0.029657
1017.239749	0.029895
1017.409775	0.029558
1017.579784	0.029877
1017.749774	0.029876
1017.919746	0.030050
1018.089700	0.026626
1018.259635	0.026764
1018.429553	0.026504
1018.599452	0.023487
1018.769333	0.022851
1018.939195	0.021535
1019.109040	0.020187
1019.278866	0.020017
1019.448674	0.018467
1019.618464	0.020702
1019.788235	0.019270
1019.957989	0.018773
1020.127724	0.018069
1020.297441	0.017885
1020.467139	0.017498
1020.636820	0.018391
1020.806482	0.019035
1020.976126	0.020451
1021.145752	0.020239
1021.315359	0.020847
1021.484948	0.021934
1021.654519	0.023636
1021.824072	0.024661
1021.993607	0.025098
1022.163123	0.024215
1022.332621	0.022468
1022.502101	0.020499
1022.671563	0.022516
1022.841007	0.023121
1023.010432	0.022488
1023.179839	0.021998
1023.349228	0.021564
1023.518598	0.023339
1023.687951	0.023043
1023.857285	0.025315
1024.026601	0.026299
1024.195899	0.025133
1024.365178	0.024069
1024.534439	0.024927
1024.703682	0.024423
1024.872907	0.024951
1025.042114	0.023052
1025.211302	0.023115
1025.380472	0.021272
1025.549624	0.021791
1025.718758	0.021602
1025.887873	0.022529
1026.056970	0.021416
1026.226049	0.022005
1026.395110	0.022045
1026.564153	0.023273
1026.733177	0.023936
1026.902183	0.026655
1027.071171	0.025761
1027.240141	0.026524
1027.409092	0.026812
1027.578026	0.027404
1027.746940	0.026356
1027.915837	0.026527
1028.084716	0.025408
1028.253576	0.024605
1028.422418	0.023218
1028.591242	0.025769
1028.760048	0.023265
1028.928835	0.022227
1029.097604	0.023938
1029.266355	0.024654
1029.435088	0.023279
1029.603803	0.023321
1029.772499	0.023527
1029.941177	0.022727
1030.109837	0.020821
1030.278478	0.023131
1030.447102	0.023011
1030.615707	0.021869
1030.784294	0.021513
1030.952863	0.022215
1031.121413	0.023949
1031.289945	0.022367
1031.458460	0.022167
1031.626955	0.021242
1031.795433	0.020269
1031.963892	0.019575
1032.132334	0.017491
1032.300756	0.017204
1032.469161	0.016870
1032.637548	0.013835
1032.805916	0.015311
1032.974266	0.016150
1033.142598	0.016787
1033.310911	0.015918
1033.479207	0.018111
1033.647484	0.021568
1033.815743	0.021644
1033.983983	0.020709
1034.152206	0.022041
1034.320410	0.022308
1034.488596	0.021130
1034.656764	0.022208
1034.824914	0.024592
1034.993045	0.024616
1035.161158	0.022064
1035.329253	0.022338
1035.497330	0.023526
1035.665388	0.023669
1035.833428	0.024197
1036.001450	0.022971
1036.169454	0.022530
1036.337440	0.021673
1036.505407	0.022558
1036.673356	0.024736
1036.841287	0.025210
1037.009200	0.025483
1037.177094	0.025312
1037.344970	0.023721
1037.512828	0.025116
1037.680668	0.024871
1037.848489	0.025206
1038.016293	0.022572
1038.184078	0.022484
1038.351845	0.021193
1038.519593	0.021724
1038.687324	0.019997
1038.855036	0.020368
1039.022730	0.021939
1039.190406	0.022463
1039.358063	0.021763
1039.525702	0.023775
1039.693323	0.021835
1039.860926	0.022258
1040.028511	0.021030
1040.196077	0.023168
1040.363625	0.024788
1040.531155	0.023307
1040.698667	0.023930
1040.866161	0.024609
1041.033636	0.023401
1041.201093	0.022457
1041.368532	0.022496
1041.535952	0.024120
1041.703355	0.024063
1041.870739	0.022943
1042.038105	0.022728
1042.205452	0.021463
1042.372782	0.021636
1042.540093	0.024107
1042.707386	0.027148
1042.874661	0.026305
1043.041918	0.026137
1043.209156	0.027400
1043.376376	0.027376
1043.543578	0.027993
1043.710762	0.027396
1043.877927	0.027015
1044.045074	0.023318
1044.212203	0.022055
1044.379314	0.024144
1044.546407	0.022707
1044.713481	0.023445
1044.880537	0.022611
1045.047575	0.023836
1045.214595	0.024415
1045.381596	0.023067
1045.548579	0.024341
1045.715544	0.025509
1045.882491	0.024763
1046.049420	0.022171
1046.216330	0.019201
1046.383222	0.020352
1046.550096	0.020931
1046.716951	0.020920
1046.883789	0.021136
1047.050608	0.020014
1047.217409	0.017054
1047.384192	0.017132
1047.550956	0.020042
1047.717703	0.019133
1047.884431	0.020056
1048.051140	0.019288
1048.217832	0.017526
1048.384505	0.018009
1048.551161	0.018188
1048.717798	0.020914
1048.884416	0.021918
1049.051017	0.021098
1049.217599	0.021186
1049.384163	0.019206
1049.550709	0.018286
1049.717237	0.019729
1049.883746	0.019860
1050.050237	0.020382
1050.216710	0.018031
1050.383165	0.017784
1050.549601	0.019274
1050.716019	0.019455
1050.882420	0.021046
1051.048801	0.021709
1051.215165	0.023232
1051.381510	0.022051
1051.547837	0.023078
1051.714146	0.024553
1051.880437	0.023645
1052.046709	0.023023
1052.212964	0.024705
1052.379200	0.025343
1052.545417	0.023783
1052.711617	0.022293
1052.877798	0.023302
1053.043961	0.022591
1053.210106	0.021636
1053.376233	0.021035
1053.542341	0.021254
1053.708432	0.019688
1053.874504	0.019207
1054.040557	0.018086
1054.206593	0.017964
1054.372610	0.019282
1054.538609	0.017935
1054.704590	0.017211
1054.870553	0.016029
1055.036497	0.015996
1055.202424	0.017044
1055.368331	0.016700
1055.534221	0.019745
1055.700093	0.019726
1055.865946	0.016735
1056.031781	0.017276
1056.197598	0.018934
1056.363397	0.019929
1056.529177	0.019233
1056.694939	0.019424
1056.860683	0.017141
1057.026409	0.015790
1057.192116	0.016888
1057.357806	0.020395
1057.523477	0.020520
1057.689130	0.021143
1057.854764	0.021586
1058.020381	0.023548
1058.185979	0.023565
1058.351559	0.025232
1058.517120	0.024612
1058.682664	0.026063
1058.848189	0.023267
1059.013696	0.023064
1059.179185	0.022648
1059.344656	0.023536
1059.510108	0.022233
1059.675542	0.022163
1059.840958	0.022823
1060.006356	0.023052
1060.171735	0.023103
1060.337096	0.024754
1060.502439	0.025947
1060.667764	0.025088
1060.833071	0.023881
1060.998359	0.022374
1061.163629	0.021516
1061.328881	0.021264
1061.494115	0.020873
1061.659330	0.019452
1061.824527	0.017679
1061.989706	0.018604
1062.154867	0.019567
1062.320010	0.021603
1062.485134	0.022855
1062.650240	0.023733
1062.815328	0.024412
1062.980398	0.026842
1063.145449	0.026767
1063.310482	0.027111
1063.475497	0.026954
1063.640494	0.027682
1063.805473	0.024394
1063.970433	0.023331
1064.135375	0.022919
1064.300299	0.021725
1064.465204	0.022176
1064.630092	0.022523
1064.794961	0.024205
1064.959812	0.025174
1065.124645	0.023078
1065.289459	0.026952
1065.454256	0.028828
1065.619034	0.029140
1065.783793	0.027270
1065.948535	0.026511
1066.113258	0.024718
1066.277964	0.022006
1066.442651	0.019592
1066.607319	0.020274
1066.771970	0.017450
1066.936602	0.018448
1067.101216	0.020713
1067.265812	0.023273
1067.430389	0.020717
1067.594949	0.021245
1067.759490	0.023690
1067.924013	0.025782
1068.088518	0.024604
1068.253004	0.026194
1068.417472	0.023544
1068.581922	0.021499
1068.746354	0.021913
1068.910768	0.022158
1069.075163	0.023221
1069.239540	0.021668
1069.403899	0.018738
1069.568240	0.019886
1069.732562	0.018774
1069.896866	0.021518
1070.061152	0.020919
1070.225420	0.020073
1070.389670	0.018245
1070.553901	0.016323
1070.718114	0.017926
1070.882309	0.019484
1071.046486	0.019065
1071.210644	0.020698
1071.374784	0.018228
1071.538906	0.017912
1071.703010	0.017262
1071.867096	0.020425
1072.031163	0.022786
1072.195212	0.022609
1072.359243	0.023704
1072.523256	0.025306
1072.687250	0.025118
1072.851226	0.027615
1073.015184	0.028748
1073.179124	0.030560
1073.343045	0.029278
1073.506949	0.028206
1073.670834	0.026360
1073.834701	0.023806
1073.998549	0.023121
1074.162380	0.020996
1074.326192	0.020554
1074.489986	0.022225
1074.653761	0.019614
1074.817519	0.020719
1074.981258	0.020507
1075.144979	0.021363
1075.308682	0.021874
1075.472367	0.021268
1075.636033	0.022804
1075.799681	0.021427
1075.963311	0.019849
1076.126923	0.022548
1076.290516	0.022234
1076.454092	0.021492
1076.617649	0.022816
1076.781187	0.024458
1076.944708	0.025406
1077.108210	0.026988
1077.271695	0.027161
1077.435160	0.025536
1077.598608	0.024308
1077.762038	0.025503
1077.925449	0.030327
1078.088842	0.030396
1078.252217	0.030029
1078.415573	0.030935
1078.578912	0.028331
1078.742232	0.028619
1078.905534	0.030233
1079.068817	0.029721
1079.232083	0.030082
1079.395330	0.023824
1079.558559	0.023458
1079.721770	0.022381
1079.884962	0.020447
1080.048136	0.021301
1080.211293	0.021809
1080.374430	0.022958
1080.537550	0.023525
1080.700651	0.023098
1080.863735	0.025605
1081.026800	0.025563
1081.189846	0.025325
1081.352875	0.025041
1081.515885	0.025013
1081.678877	0.024562
1081.841851	0.024904
1082.004807	0.027020
1082.167744	0.025988
1082.330663	0.024065
1082.493564	0.023138
1082.656447	0.026199
1082.819312	0.025645
1082.982158	0.026233
1083.144986	0.024774
1083.307796	0.022496
1083.470587	0.018261
1083.633361	0.017759
1083.796116	0.018193
1083.958853	0.019710
1084.121571	0.017318
1084.284272	0.019452
1084.446954	0.017077
1084.609618	0.017945
1084.772264	0.018773
1084.934892	0.018731
1085.097501	0.018104
1085.260092	0.018026
1085.422665	0.018524
1085.585220	0.019040
1085.747756	0.017752
1085.910274	0.018253
1086.072774	0.019034
1086.235256	0.015728
1086.397720	0.018053
1086.560165	0.020380
1086.722592	0.022373
1086.885001	0.019479
1087.047392	0.018975
1087.209764	0.017864
1087.372119	0.017115
1087.534455	0.017417
1087.696772	0.017637
1087.859072	0.016514
1088.021353	0.015228
1088.183616	0.014855
1088.345861	0.016358
1088.508088	0.015118
1088.670296	0.017075
1088.832486	0.017303
1088.994658	0.013030
1089.156812	0.015269
1089.318948	0.015005
1089.481065	0.011857
1089.643164	0.010118
1089.805245	0.009448
1089.967308	0.007695
1090.129352	0.004601
1090.291378	0.006148
1090.453386	0.007022
1090.615376	0.008140
1090.777347	0.008932
1090.939301	0.013351
1091.101236	0.014027
1091.263153	0.015079
1091.425051	0.019096
1091.586932	0.019308
1091.748794	0.016999
1091.910638	0.019482
1092.072463	0.017269
1092.234271	0.020753
1092.396060	0.019504
1092.557831	0.023710
1092.719584	0.021550
1092.881319	0.021896
1093.043035	0.021868
1093.204733	0.023815
1093.366413	0.024114
1093.528075	0.022920
1093.689718	0.020957
1093.851343	0.019697
1094.012950	0.014509
1094.174539	0.018662
1094.336110	0.018922
1094.497662	0.020012
1094.659196	0.020693
1094.820712	0.022258
1094.982210	0.024795
1095.143689	0.024924
1095.305151	0.028548
1095.466594	0.030541
1095.628018	0.029762
1095.789425	0.030446
1095.950813	0.031648
1096.112183	0.032358
1096.273535	0.031655
1096.434869	0.032994
1096.596184	0.030132
1096.757482	0.028273
1096.918761	0.027049
1097.080021	0.023609
1097.241264	0.021375
1097.402488	0.022522
1097.563694	0.020786
1097.724882	0.020390
1097.886052	0.021868
1098.047203	0.019712
1098.208336	0.017050
1098.369451	0.017690
1098.530548	0.019757
1098.691627	0.016551
1098.852687	0.017180
1099.013729	0.017670
1099.174753	0.014963
1099.335758	0.010987
1099.496746	0.015857
1099.657715	0.018130
1099.818666	0.021000
1099.979599	0.021545
1100.140513	0.028802
1100.301409	0.029794
1100.462287	0.029931
1100.623147	0.029755
1100.783989	0.032025
1100.944812	0.029288
1101.105617	0.027711
1101.266404	0.026676
1101.427173	0.027361
1101.587923	0.025666
1101.748656	0.022559
1101.909370	0.018330
1102.070066	0.021484
1102.230743	0.019819
1102.391403	0.019391
1102.552044	0.020253
1102.712667	0.014682
1102.873271	0.013935
1103.033858	0.011056
1103.194426	0.009593
1103.354976	0.012535
1103.515508	0.008246
1103.676021	0.009601
1103.836517	0.012395
1103.996994	0.013081
1104.157453	0.016512
1104.317893	0.011038
1104.478316	0.007418
1104.638720	0.009971
1104.799106	0.011411
1104.959474	0.013716
1105.119823	0.009886
1105.280155	0.008227
1105.440468	0.005832
1105.600763	0.006309
1105.761039	0.011176
1105.921298	0.016582
1106.081538	0.014987
1106.241760	0.016146
1106.401964	0.018595
1106.562149	0.020322
1106.722316	0.023317
1106.882465	0.026726
1107.042596	0.024300
1107.202709	0.021430
1107.362803	0.018134
1107.522879	0.020160
1107.682937	0.020163
1107.842977	0.016001
1108.002999	0.016777
1108.163002	0.016543
1108.322987	0.018014
1108.482954	0.018467
1108.642902	0.021814
1108.802833	0.024217
1108.962745	0.025377
1109.122639	0.022497
1109.282515	0.025495
1109.442372	0.024479
1109.602211	0.024579
1109.762032	0.019277
1109.921835	0.016746
1110.081620	0.015738
1110.241386	0.014409
1110.401134	0.014791
1110.560864	0.015542
1110.720576	0.009349
1110.880269	0.015509
1111.039945	0.012635
1111.199602	0.013471
1111.359240	0.018486
1111.518861	0.016452
1111.678463	0.015203
1111.838047	0.011760
1111.997613	0.016053
1112.157161	0.021201
1112.316690	0.015909
1112.476202	0.014247
1112.635695	0.010638
1112.795169	0.009360
1112.954626	0.010362
1113.114064	0.014093
1113.273484	0.013642
1113.432886	0.009702
1113.592270	0.010542
1113.751635	0.012871
1113.910983	0.012610
1114.070312	0.021797
1114.229622	0.017421
1114.388915	0.018134
1114.548189	0.014760
1114.707445	0.015419
1114.866683	0.016746
1115.025903	0.016940
1115.185104	0.016315
1115.344287	0.018104
1115.503452	0.016775
1115.662599	0.021012
1115.821727	0.023330
1115.980838	0.023790
1116.139930	0.025943
1116.299004	0.022779
1116.458059	0.023684
1116.617097	0.020678
1116.776116	0.027899
1116.935117	0.025093
1117.094099	0.024546
1117.253064	0.023010
1117.412010	0.021917
1117.570938	0.022064
1117.729848	0.019973
1117.888740	0.019393
1118.047613	0.017260
1118.206468	0.009699
1118.365305	0.014595
1118.524124	0.014775
1118.682924	0.017872
1118.841707	0.022946
1119.000471	0.019505
1119.159216	0.022961
1119.317944	0.022707
1119.476653	0.026894
1119.635344	0.026669
1119.794017	0.019955
1119.952672	0.018473
1120.111308	0.011901
1120.269927	0.006836
1120.428527	0.008884
1120.587108	0.008779
1120.745672	0.005451
1120.904217	0.008013
1121.062744	0.013222
1121.221253	0.011981
1121.379744	0.011923
1121.538216	0.015027
1121.696671	0.016241
1121.855107	0.011567
1122.013524	0.013507
1122.171924	0.017124
1122.330305	0.017348
1122.488668	0.013487
1122.647013	0.020372
1122.805340	0.021641
1122.963648	0.019127
1123.121938	0.017638
1123.280210	0.016272
1123.438464	0.014307
1123.596700	0.016464
1123.754917	0.015198
1123.913116	0.020083
1124.071297	0.018082
1124.229459	0.013087
1124.387604	0.017147
1124.545730	0.023209
1124.703838	0.026572
1124.861928	0.029244
1125.019999	0.028444
1125.178052	0.025970
1125.336088	0.020823
1125.494104	0.017985
1125.652103	0.023271
1125.810083	0.022305
1125.968045	0.021896
1126.125989	0.026220
1126.283915	0.020368
1126.441823	0.019825
1126.599712	0.021595
1126.757583	0.020164
1126.915436	0.027930
1127.073270	0.033155
1127.231087	0.031926
1127.388885	0.027768
1127.546665	0.022074
1127.704426	0.027316
1127.862170	0.021110
1128.019895	0.022897
1128.177602	0.027403
1128.335291	0.022340
1128.492961	0.017213
1128.650614	0.014860
1128.808248	0.014145
1128.965864	0.015067
1129.123461	0.012988
1129.281041	0.017034
1129.438602	0.011054
1129.596145	0.007204
1129.753670	0.004103
1129.911176	0.006838
1130.068665	0.013906
1130.226135	0.010582
1130.383587	0.014816
1130.541020	0.016893
1130.698436	0.018706
1130.855833	0.022212
1131.013212	0.021211
1131.170573	0.023183
1131.327915	0.017861
1131.485239	0.013355
1131.642545	0.020785
1131.799833	0.017437
1131.957103	0.012000
1132.114354	0.009261
1132.271588	0.007488
1132.428803	0.007821
1132.585999	0.008246
1132.743178	0.010914
1132.900338	0.009990
1133.057480	0.008522
1133.214604	0.011824
1133.371710	0.007049
1133.528797	0.008320
1133.685866	0.007869
1133.842917	0.008013
1133.999950	0.005382
1134.156964	0.007721
1134.313960	0.005631
1134.470938	0.005356
1134.627898	0.008300
1134.784840	0.018639
1134.941763	0.014324
1135.098668	0.023246
1135.255555	0.024593
1135.412424	0.028312
1135.569274	0.028320
1135.726107	0.028067
1135.882921	0.025041
1136.039716	0.019386
1136.196494	0.013289
1136.353253	0.014317
1136.509995	0.008495
1136.666717	0.009687
1136.823422	0.005454
1136.980109	0.001473
1137.136777	0.001989
1137.293427	0.007274
1137.450059	0.008673
1137.606672	0.013080
1137.763267	0.016806
1137.919844	0.013586
1138.076403	0.011785
1138.232944	0.013880
1138.389466	0.010411
1138.545971	0.017450
1138.702457	0.011735
1138.858924	0.010713
1139.015374	0.013586
1139.171805	0.015519
1139.328218	0.023190
1139.484613	0.020137
1139.640990	0.018468
1139.797348	0.021030
1139.953688	0.015135
1140.110010	0.018745
1140.266314	0.020151
1140.422600	0.019122
1140.578867	0.019990
1140.735116	0.011892
1140.891347	0.017105
1141.047559	0.017495
1141.203754	0.028360
1141.359930	0.035053
1141.516088	0.034994
1141.672228	0.032446
1141.828349	0.034833
1141.984452	0.031928
1142.140537	0.042814
1142.296604	0.043017
1142.452653	0.045567
1142.608683	0.033561
1142.764695	0.030322
1142.920689	0.027654
1143.076665	0.029372
1143.232622	0.026394
1143.388562	0.028760
1143.544483	0.028758
1143.700385	0.023744
1143.856270	0.022971
1144.012136	0.021422
1144.167985	0.014829
1144.323814	0.016821
1144.479626	0.021214
1144.635420	0.017906
1144.791195	0.012709
1144.946952	0.009846
1145.102691	0.017921
1145.258411	0.025272
1145.414113	0.033843
1145.569798	0.033998
1145.725463	0.033145
1145.881111	0.032182
1146.036741	0.037049
1146.192352	0.035451
1146.347945	0.025486
1146.503519	0.021063
1146.659076	0.005878
1146.814614	0.000472
1146.970134	0.006128
1147.125636	-0.002517
1147.281120	-0.003670
1147.436585	-0.010832
1147.592032	-0.001090
1147.747461	0.004918
1147.902872	0.005891
1148.058265	0.016142
1148.213639	0.010758
1148.368995	0.019680
1148.524333	0.030025
1148.679653	0.034107
1148.834954	0.035097
1148.990237	0.028857
1149.145502	0.028820
1149.300749	0.029275
1149.455977	0.028466
1149.611188	0.037536
1149.766380	0.020613
1149.921553	0.022643
1150.076709	0.016908
1150.231846	0.020871
1150.386966	0.019049
1150.542066	0.013085
1150.697149	0.010590
1150.852214	0.013531
1151.007260	0.022132
1151.162288	0.027944
1151.317298	0.024077
1151.472289	0.021565
1151.627263	0.017689
1151.782218	0.018153
1151.937155	0.024824
1152.092073	0.032608
1152.246974	0.030395
1152.401856	0.015516
1152.556720	0.014731
1152.711566	0.013090
1152.866393	0.015966
1153.021203	0.014356
1153.175994	0.023452
1153.330767	0.017016
1153.485521	0.009864
1153.640258	0.007303
1153.794976	0.010963
1153.949676	0.013540
1154.104358	0.021134
1154.259021	0.021152
1154.413667	0.023706
1154.568294	0.013972
1154.722903	0.017912
1154.877493	0.013281
1155.032066	0.020539
1155.186620	0.024351
1155.341156	0.021246
1155.495674	0.012329
1155.650173	0.017397
1155.804654	0.007740
1155.959118	0.012117
1156.113562	0.015570
1156.267989	0.027483
1156.422397	0.026357
1156.576788	0.024094
1156.731160	0.031992
1156.885513	0.044220
1157.039849	0.037565
1157.194166	0.048005
1157.348465	0.052703
1157.502746	0.058184
1157.657009	0.056805
1157.811253	0.049608
1157.965479	0.047641
1158.119687	0.048399
1158.273877	0.039038
1158.428048	0.031362
1158.582201	0.040824
1158.736337	0.029253
1158.890453	0.019192
1159.044552	0.020550
1159.198632	0.022378
1159.352694	0.024952
1159.506738	0.012280
1159.660764	0.009547
1159.814771	0.019710
1159.968761	0.013725
1160.122732	0.015711
1160.276685	0.026021
1160.430619	0.008665
1160.584535	0.007173
1160.738434	0.012946
1160.892313	0.009155
1161.046175	0.013139
1161.200019	0.009105
1161.353844	0.003468
1161.507651	-0.000302
1161.661440	-0.007898
1161.815210	-0.008341
1161.968962	-0.005309
1162.122697	-0.007927
1162.276412	-0.005958
1162.430110	0.000205
1162.583789	0.008984
1162.737451	0.009550
1162.891094	0.021627
1163.044718	0.028818
1163.198325	0.039847
1163.351913	0.038899
1163.505483	0.039890
1163.659035	0.042172
1163.812569	0.038704
1163.966084	0.016193
1164.119581	0.009871
1164.273060	0.003888
1164.426521	-0.011940
1164.579964	-0.014242
1164.733388	-0.010337
1164.886794	-0.012674
1165.040182	-0.019387
1165.193551	-0.031786
1165.346903	-0.018564
1165.500236	-0.010936
1165.653551	-0.007794
1165.806848	-0.002142
1165.960126	-0.000287
1166.113386	-0.009311
1166.266628	-0.013496
1166.419852	0.000966
1166.573058	0.004923
1166.726245	0.010763
1166.879414	0.010607
1167.032565	0.000593
1167.185698	0.003289
1167.338812	0.004413
1167.491909	0.019063
1167.644987	0.026745
1167.798046	0.025586
1167.951088	0.033383
1168.104111	0.039740
1168.257117	0.045519
1168.410103	0.049959
1168.563072	0.048804
1168.716023	0.069780
1168.868955	0.060456
1169.021869	0.047673
1169.174765	0.037000
1169.327642	0.043510
1169.480501	0.034574
1169.633343	0.032600
1169.786165	0.032210
1169.938970	0.025690
1170.091757	-0.007215
1170.244525	-0.007709
1170.397275	0.013051
1170.550007	0.033317
1170.702720	0.020429
1170.855415	0.012904
1171.008092	0.015032
1171.160751	0.019468
1171.313392	0.027541
1171.466014	-0.016178
1171.618619	0.021348
1171.771205	0.021348
1171.923772	0.021348
