sample name	sample
index	947
start time	 04-12-2021  02:34:20 PM
880	0.213640
Peak Time (s)	122.54
Peak Height 	0.2136
calc peak height	120,123
Baseline Time (s)	8.537
Baseline Value 	-0.002603
subtract baseline	10,4
Abs	0.181932
Peak Time (s)	121.036
Peak Height 	0.1819
calc peak height	120,123
Baseline Time (s)	10.035
Baseline Value 	9.7867E-4
subtract baseline	10,3
PK_550	0.098160
Peak Time (s)	121.535
Peak Height 	0.09816
calc peak height	120,123
Baseline Time (s)	9.536
Baseline Value 	3.0376E-4
subtract baseline	10,2
PK_880	0.164849
Peak Time (s)	122.037
Peak Height 	0.1648
calc peak height	120,123
Baseline Time (s)	10.536
Baseline Value 	0.001332
subtract baseline	10,1


Time (s)	A880-A510	A880-A775	A880-A975	A880	I510	I775	I975	I880	
0.035000	-0.004830	-0.001326	-0.000997	0.007020	7050.740159	42476.700079	3923.590948	22889.467806
0.535500	-0.002272	-0.001122	-0.005439	0.003916	7105.328099	42778.641335	3920.279484	23032.866974
1.036000	-0.002135	0.000432	-0.002893	0.004592	7100.093126	42859.176917	3924.907423	23001.540975
1.536500	-0.000166	0.000243	0.000971	0.001739	7147.102946	43104.710718	3941.700677	23134.113372
2.036000	-0.002574	-0.000790	-0.000233	0.002897	7112.290739	42902.693471	3935.766041	23080.204705
2.539500	-0.001591	-0.000828	0.000914	0.000552	7144.756736	43115.313480	3944.547680	23189.479146
3.037000	0.000930	-0.000398	0.005872	-0.001494	7189.729544	43344.831353	3962.381679	23285.330764
3.540000	-0.001229	-0.001395	-0.004381	-0.000390	7157.552685	43150.008115	3933.611463	23233.571991
4.037500	-0.000502	-0.001037	0.002822	-0.000163	7162.468678	43162.179369	3951.192849	23222.941017
4.535000	-0.001461	-0.000872	0.000701	-0.000106	7152.494100	43172.196463	3945.675199	23220.293921
5.035000	0.000576	-0.000379	-0.004227	0.000056	7170.924391	43202.753873	3932.879894	23212.688964
5.535500	-0.000641	-0.000267	-0.004509	0.000382	7155.743990	43182.933937	3931.360487	23197.425575
6.036000	-0.000176	-0.000367	-0.000423	0.000407	7160.076222	43171.449406	3941.543653	23196.300743
6.536500	0.000070	0.000215	0.001193	0.001109	7155.591960	43160.285477	3943.848801	23163.487224
7.036000	-0.000866	0.000011	-0.001877	0.000374	7153.627183	43209.492019	3937.971848	23197.842071
7.537500	-0.000988	-0.000077	-0.001394	0.000223	7153.908663	43215.387509	3939.563468	23204.901634
8.037000	-0.001367	-0.000469	0.003057	-0.000214	7154.467720	43219.491975	3951.921715	23225.329419
8.537500	-0.000020	-0.000316	0.000628	0.000000	7165.607547	43213.823246	3945.220945	23215.316599
9.037500	0.001356	0.000504	0.001561	0.000273	7176.476221	43264.551149	3946.891146	23202.539551
9.535500	0.000414	0.000000	-0.000210	0.000295	7166.986142	43215.810064	3942.364027	23201.529986
10.035000	-0.001691	-0.000696	0.000000	-0.000251	7151.652278	43201.889206	3944.268335	23227.048284
10.536000	0.000000	0.000188	0.004218	0.000364	7162.225736	43226.789348	3953.403562	23198.289850
11.035000	-0.000267	-0.000890	-0.000968	-0.000634	7169.418372	43219.428364	3942.792581	23245.003173
11.536000	0.001208	0.000105	-0.001105	-0.000059	7178.292624	43258.325610	3940.998046	23218.074455
12.036500	-0.001030	-0.000064	-0.002324	-0.000195	7157.599080	43255.237093	3938.277341	23224.445891
12.536500	0.000597	0.000571	0.004573	0.000598	7165.800092	43240.614313	3953.713479	23187.358971
13.037000	0.002228	0.000308	-0.002581	-0.000794	7195.659547	43345.470340	3939.135430	23252.510783
13.540500	-0.000771	-0.000132	-0.000560	-0.000589	7164.013927	43285.485656	3943.707476	23242.886366
14.035000	0.000448	0.000147	0.001044	0.000004	7170.186080	43256.379295	3946.264530	23215.135785
14.535000	-0.002335	-0.000584	-0.001547	0.002174	7121.648008	42988.192566	3934.286294	23113.829195
15.035500	0.001080	0.000135	-0.004188	0.000888	7167.703405	43173.386236	3930.901120	23173.821757
15.564500	0.000255	-0.000140	0.002644	-0.000216	7170.447896	43250.161410	3950.876856	23225.422400
16.036000	0.000739	0.001236	0.002614	0.000617	7167.006054	43300.612053	3948.687333	23186.469996
16.536500	0.001240	0.000304	0.006425	0.000240	7175.658857	43249.006134	3959.352779	23204.071530
17.036500	-0.001886	-0.001210	-0.000780	0.000705	7140.378604	43066.006687	3939.895022	23182.354397
17.540500	0.001220	0.000598	0.008697	-0.002550	7203.079461	43536.029223	3972.386701	23335.000164
18.040000	-0.001560	-0.000673	-0.000066	-0.000717	7157.514789	43247.160399	3945.279919	23248.883121
18.535000	0.000052	-0.000164	-0.004585	0.001345	7153.095993	43103.448014	3928.772620	23152.458918
19.035000	-0.001112	-0.000575	-0.000475	0.001103	7144.054988	43087.798079	3939.659778	23163.749079
19.535500	0.000533	-0.000671	-0.000242	0.000838	7162.806483	43103.414030	3940.911943	23176.128039
20.035500	0.000051	0.000769	0.001153	0.002032	7146.352431	43126.160909	3941.420661	23120.449396
20.536000	-0.001808	-0.000027	0.000655	0.001331	7135.019417	43117.471742	3941.932771	23153.142166
21.036000	-0.001508	-0.000498	0.001836	0.001018	7141.016911	43102.791009	3945.703068	23167.743850
21.536000	-0.000554	-0.000021	0.001466	0.001436	7146.264237	43108.294705	3943.711384	23148.226692
22.037000	0.000608	0.000358	0.004827	0.001448	7157.546459	43142.179018	3952.195879	23147.680006
22.537000	-0.001120	-0.000384	-0.000520	0.001089	7144.126086	43106.842393	3939.583969	23164.436902
23.037000	-0.001004	-0.000083	-0.000991	0.001283	7143.347755	43116.676033	3937.912495	23155.350022
23.535000	0.000255	-0.000139	0.000121	0.000870	7159.754227	43149.646826	3941.745158	23174.627167
24.035000	-0.001060	0.000254	-0.003883	0.001374	7141.906757	43139.352105	3930.449586	23151.098458
24.535500	-0.002074	0.000164	0.002442	0.001202	7133.684104	43147.015362	3946.769651	23159.152218
25.036000	-0.001196	-0.000127	0.000032	0.001637	7138.009320	43079.856353	3939.592163	23138.847130
25.536000	-0.001359	-0.001017	-0.001444	0.000723	7145.362533	43082.173295	3938.180496	23181.523361
26.036000	-0.000404	0.000018	0.003944	0.001538	7146.730801	43102.451840	3949.722208	23143.456113
26.536500	-0.001994	-0.000662	0.001134	0.001201	7134.470934	43070.785042	3943.467946	23159.198242
27.037000	-0.000828	-0.000081	0.001004	0.001616	7141.817378	43086.129940	3942.094305	23139.855855
27.537500	0.000132	-0.000102	-0.000590	0.000805	7159.187611	43159.112513	3940.122072	23177.678997
28.035000	-0.000438	-0.000165	0.004326	-0.002133	7182.523766	43426.013503	3960.057975	23315.390910
28.535000	0.002097	0.000616	0.005690	0.000717	7179.410342	43233.700018	3956.256417	23181.781093
29.051500	0.000652	-0.000135	-0.001296	0.000956	7162.810337	43142.058424	3937.966064	23170.614470
29.535500	-0.003169	0.000288	0.000538	0.004820	7087.889238	42825.095215	3932.882976	22991.013239
30.036000	0.001236	-0.000355	-0.000224	-0.000089	7178.868578	43218.504389	3943.296050	23219.499913
30.536000	0.001081	0.000558	0.000774	0.000987	7166.736728	43203.368361	3943.098900	23169.196377
31.036500	-0.000040	-0.000064	0.001115	-0.000142	7166.814546	43250.351090	3946.813081	23221.964898
31.536000	-0.002180	0.000242	-0.001588	0.005260	7093.199362	42780.567326	3926.490470	22970.666550
32.039000	-0.002542	-0.000636	0.000149	0.001897	7122.337898	43008.894198	3939.232137	23126.732219
32.560000	0.000796	0.000954	0.001880	0.001283	7161.022542	43212.653633	3945.143259	23155.381611
33.035000	-0.000384	0.000208	0.003981	0.000631	7155.830158	43203.960162	3952.123374	23185.822424
33.535000	-0.001305	-0.000351	0.005268	0.004128	7112.665304	42830.029449	3946.516074	23023.078135
34.035500	0.001474	0.000090	0.006998	0.000844	7172.014242	43173.319659	3959.275540	23175.870368
34.536000	0.000466	0.000032	0.002505	0.000718	7163.333424	43179.617745	3948.154430	23181.753086
35.035500	-0.000485	0.000120	0.002125	0.002887	7132.738525	42987.331195	3941.714052	23080.646228
35.536000	-0.000785	-0.000093	0.000930	0.003597	7122.892656	42902.413465	3936.925182	23047.685653
36.036500	-0.000865	-0.000160	0.005183	0.002214	7135.616024	43023.628655	3951.153636	23111.996080
36.539000	-0.001003	0.000431	0.001857	0.002261	7133.801845	43073.798595	3942.616846	23109.804706
37.037000	-0.001652	-0.000106	0.000849	0.001888	7131.107750	43058.672235	3941.017205	23127.175454
37.537500	-0.002064	0.000698	0.000172	0.003902	7107.489324	42947.197667	3934.263606	23033.549412
38.035000	-0.001740	-0.000018	0.004029	0.001925	7129.886175	43063.395602	3948.956832	23125.425787
38.535500	-0.000688	-0.000083	0.007095	0.002094	7138.514225	43041.837727	3956.328922	23117.573361
39.035500	0.000184	0.000901	0.001744	0.002828	7139.858728	43064.796644	3940.903078	23083.398128
39.535500	-0.000159	0.000247	0.000364	0.002156	7143.084556	43066.510927	3939.123639	23114.692477
40.036000	-0.001831	-0.000140	-0.000483	0.002128	7127.008034	43033.364937	3937.065233	23115.964166
40.536500	0.000168	0.000296	0.002611	0.002492	7142.990334	43039.991717	3943.934371	23099.021943
41.039500	-0.002877	-0.001186	-0.002439	0.000919	7128.605113	43048.412963	3935.195181	23172.363900
41.537000	0.000604	-0.000523	0.010939	0.001728	7154.762491	43034.933045	3967.128772	23134.621106
42.037000	-0.002594	0.000830	-0.003154	0.002669	7114.319548	43073.024474	3929.041895	23090.825244
42.537500	-0.000527	0.000362	0.002101	0.002612	7135.018725	43035.050325	3942.346452	23093.446471
43.035000	-0.001049	0.000254	0.004504	0.002639	7129.663788	43022.646323	3948.351045	23092.199177
43.535500	-0.001830	-0.001115	0.002704	0.001471	7133.435086	43004.019932	3946.750647	23146.573824
44.035500	-0.000601	0.000311	0.002144	0.002297	7137.375854	43059.425536	3943.249917	23108.107075
44.536000	0.000170	0.000133	0.001381	0.000293	7164.597391	43228.311259	3946.385422	23201.602086
45.036500	0.000471	0.000653	0.002623	0.001839	7152.360203	43133.338109	3945.616294	23129.445403
45.536000	0.000595	0.000967	0.005119	0.001264	7159.221011	43215.513852	3953.406488	23156.230725
46.037000	0.000472	0.000686	0.002684	0.000434	7166.186170	43266.497867	3949.330096	23195.037356
46.537500	0.000325	0.000094	0.003001	0.000488	7164.203507	43206.577875	3949.994185	23192.485853
47.037000	-0.001544	-0.000797	0.000835	0.003120	7120.137097	42881.530703	3937.882818	23069.815462
47.535000	-0.003560	-0.000169	-0.001302	0.005946	7073.252330	42680.128732	3925.497890	22938.961418
48.067000	0.001665	0.000681	0.008013	0.001032	7172.044876	43210.611754	3961.393006	23167.075275
48.535500	-0.002653	-0.000222	0.004397	0.002192	7118.385864	43019.934017	3949.214316	23113.005828
49.036000	-0.002968	-0.000309	0.002804	0.003762	7100.072720	42867.478521	3941.220586	23040.048723
49.569500	-0.003087	-0.001014	-0.002140	0.005556	7081.577012	42638.520828	3924.387206	22956.978186
50.036500	0.001037	0.000091	0.000046	0.000324	7172.832298	43221.473172	3942.934664	23200.142128
50.536500	0.000078	0.000725	0.006119	0.000980	7156.937649	43219.490804	3956.680685	23169.515713
51.036500	0.000404	0.000444	0.005219	0.002518	7145.055212	43051.284041	3950.473090	23097.835414
51.536500	-0.003868	-0.000288	0.000691	0.016986	6965.388788	41672.937048	3903.278407	22435.781550
52.035000	-0.000933	0.000021	0.008478	-0.005609	7212.084744	43768.528585	3979.765469	23479.493545
52.535000	-0.068443	-0.015835	0.007159	0.182062	5292.078672	28506.030781	3580.333801	16255.977937
53.035500	-0.070962	-0.018468	0.004399	-0.020174	6694.017707	43401.669108	4007.432301	24181.664498
53.535500	-0.043733	-0.079899	-0.001487	-0.269562	10081.337558	65294.255375	4879.384701	40697.450954
54.036000	-0.024965	-0.024344	0.008093	-0.171522	8881.672723	59486.574609	4504.982387	33057.764292
54.535500	-0.013360	-0.024177	0.003340	-0.180423	9171.323400	60678.872145	4520.888633	33682.419902
55.039000	-0.005162	-0.015108	0.004712	-0.158195	8971.678223	58956.770821	4442.437670	32146.169270
55.537000	0.006137	-0.011963	0.006233	-0.155479	9093.053297	59012.052755	4438.055181	31963.814520
56.037500	0.009958	-0.007268	0.004344	-0.138994	8914.814826	57511.385871	4372.179014	30881.010131
56.535000	0.012043	-0.005612	0.012268	-0.125326	8756.273974	56023.607031	4352.147403	30013.868954
57.034500	0.014785	-0.002397	0.006186	-0.106515	8543.208967	54152.409085	4268.338429	28864.177101
57.535500	0.009952	0.000937	0.004231	-0.069706	8026.425067	50355.928558	4147.035611	26753.622222
58.035500	0.013368	0.002113	0.010059	-0.050039	7837.803262	48380.921884	4106.282356	25697.145239
58.536000	0.014665	0.003064	0.017319	-0.025353	7578.430283	45966.051734	4056.782302	24437.032635
59.036000	0.016871	0.004965	0.016765	-0.005566	7392.459884	44231.487026	4001.459105	23477.451646
59.539000	0.015555	0.005969	0.019815	0.025025	7073.598733	41514.436996	3930.566192	22077.338658
60.037000	0.019401	0.007354	0.024459	0.014359	7215.724961	42598.824248	3969.421526	22554.372682
60.537000	0.017481	0.008026	0.020239	0.034541	7001.137433	40858.254700	3908.133104	21661.572069
61.037000	0.022617	0.009289	0.031152	0.041533	6983.610279	40361.728885	3917.750076	21361.787689
61.537500	0.023577	0.011676	0.035899	0.052147	6893.634375	39660.179998	3903.390951	20915.864521
62.035000	0.028028	0.012957	0.039786	0.054795	6910.286555	39544.956740	3906.408284	20806.317912
62.535500	0.032272	0.015246	0.038679	0.060986	6892.304102	39217.863112	3888.767458	20552.755067
63.035500	0.036243	0.017991	0.048393	0.065882	6883.797449	39038.781106	3900.378972	20354.780137
63.536000	0.042530	0.021810	0.053656	0.069138	6911.761299	39085.552091	3905.256803	20224.346353
64.036500	0.047319	0.023788	0.058083	0.066590	6980.261918	39463.890166	3922.378841	20326.343202
64.536500	0.049485	0.025681	0.058458	0.063814	7027.071386	39858.280316	3930.203893	20438.149107
65.036500	0.060288	0.030333	0.065537	0.064391	7125.607453	40205.918947	3946.532307	20414.837611
65.537000	0.065168	0.033071	0.072451	0.053172	7285.532384	41421.861465	3993.381595	20873.387426
66.037000	0.069121	0.035542	0.073649	0.053179	7325.640535	41640.602715	3996.526499	20873.094080
66.534500	0.075048	0.037454	0.079174	0.042697	7496.404199	42759.878951	4039.658457	21312.352825
67.035500	0.078139	0.040788	0.082240	0.031716	7648.071793	44093.053683	4078.840474	21784.026033
67.535500	0.079433	0.041342	0.078961	0.039101	7581.825138	43451.495357	4048.982037	21465.531653
68.035500	0.085660	0.043825	0.082927	0.041339	7625.117861	43474.321376	4053.769789	21370.067684
68.535500	0.087234	0.044372	0.083317	0.046714	7583.847327	43026.577644	4040.003094	21142.757702
69.060500	0.089723	0.046419	0.086358	0.051997	7553.755603	42729.227626	4033.865301	20922.089917
69.537000	0.088170	0.047154	0.091236	0.059619	7456.282807	42103.759790	4026.394112	20608.429738
70.037500	0.091502	0.048091	0.094095	0.063412	7451.436381	41847.294129	4023.862740	20454.365755
70.537000	0.089798	0.048415	0.091520	0.069408	7371.298293	41342.951431	4000.878932	20213.576376
71.037500	0.090391	0.048543	0.098197	0.075751	7312.373081	40797.818548	4001.766474	19962.439800
71.534500	0.089536	0.050428	0.102895	0.085084	7209.848814	40154.704822	3989.515124	19599.504331
72.035000	0.089829	0.050625	0.103764	0.086436	7199.335733	40055.953721	3988.244335	19547.576774
72.536000	0.092265	0.051505	0.105227	0.091357	7174.751471	39712.527737	3979.201597	19359.919712
73.035500	0.092027	0.052752	0.106887	0.096773	7119.339744	39361.520418	3969.457657	19155.822350
73.539000	0.092534	0.052975	0.105729	0.102985	7064.158507	38863.240313	3950.581881	18924.857456
74.039500	0.095926	0.054894	0.111417	0.104739	7079.928845	38876.908374	3960.615684	18860.233740
74.536500	0.096129	0.054767	0.108566	0.107612	7054.256855	38629.695135	3946.043350	18754.940109
75.037000	0.098650	0.055984	0.112598	0.112079	7035.639998	38363.941676	3944.944836	18592.623870
75.537500	0.095881	0.056822	0.112094	0.115914	6973.095123	38120.536363	3934.038588	18454.603091
76.034500	0.098027	0.057355	0.119245	0.115992	6992.578852	38157.407569	3951.873861	18451.803395
76.535000	0.100785	0.058103	0.121226	0.118998	6990.244648	37974.988827	3949.271638	18344.491328
77.035500	0.101533	0.059349	0.115490	0.122171	6967.417005	37819.994720	3926.905804	18232.012128
77.535500	0.102200	0.060060	0.124026	0.125855	6939.188968	37582.280347	3939.030994	18102.431192
78.038500	0.106326	0.061547	0.126661	0.126215	6974.455733	37672.243439	3944.763162	18089.836943
78.536000	0.108071	0.062522	0.123991	0.127952	6974.524559	37611.394582	3933.685912	18029.150931
79.036500	0.106881	0.062079	0.128149	0.130318	6941.230031	37388.063211	3938.176433	17946.926950
79.537000	0.109152	0.064138	0.123003	0.134247	6925.795572	37240.248648	3915.626447	17811.339934
80.037000	0.111179	0.063657	0.129067	0.132887	6957.388127	37309.667397	3934.038364	17858.141601
80.537500	0.112980	0.066019	0.125646	0.135885	6946.190541	37259.458235	3918.102217	17755.188124
81.035000	0.114690	0.066451	0.132151	0.137857	6943.746749	37138.081581	3929.332739	17687.855829
81.535500	0.115654	0.067399	0.134825	0.140663	6926.593864	36992.228788	3929.003354	17592.560881
82.035000	0.115458	0.067434	0.132440	0.139722	6933.515050	37068.747648	3925.412768	17624.433804
82.538500	0.118911	0.068043	0.131469	0.140802	6955.666835	37031.831819	3920.335153	17587.851609
83.036000	0.119392	0.069875	0.134810	0.142940	6940.193738	37007.831391	3923.310485	17515.689176
83.536500	0.120269	0.070204	0.139049	0.145930	6920.538117	36799.898787	3926.409996	17415.348771
84.036500	0.123436	0.072412	0.137724	0.146253	6947.017638	36947.101444	3922.323085	17404.560806
84.536000	0.125094	0.072105	0.142617	0.146879	6956.666170	36874.156883	3932.934893	17383.660724
85.037000	0.123967	0.072111	0.137039	0.147467	6940.639995	36828.741731	3917.633762	17364.035675
85.537500	0.124741	0.072687	0.144601	0.148181	6941.198014	36817.990982	3934.639572	17340.260575
86.035000	0.127730	0.073745	0.136152	0.149572	6956.133646	36792.113361	3910.289938	17294.078090
86.535500	0.129174	0.074834	0.141046	0.151019	6956.099554	36764.221144	3918.758423	17246.175832
87.038500	0.127440	0.074969	0.143034	0.151715	6933.415195	36720.529577	3921.947498	17223.176608
87.536000	0.128723	0.074536	0.143454	0.153349	6930.150828	36560.336025	3918.948963	17169.361700
88.036500	0.130198	0.075791	0.137892	0.153269	6944.643216	36663.791321	3905.511722	17172.003053
88.536500	0.131306	0.076148	0.144373	0.154478	6943.693191	36597.716982	3918.430622	17132.280019
89.037000	0.132624	0.077858	0.141692	0.156032	6941.490265	36609.743783	3908.038738	17081.419332
89.536500	0.133006	0.077036	0.143978	0.157346	6932.807768	36444.720772	3910.416906	17038.555399
90.037000	0.132104	0.077450	0.146125	0.157013	6927.520964	36502.385401	3916.502266	17049.425483
90.535000	0.133675	0.076427	0.149690	0.156537	6946.589514	36460.175423	3926.492502	17064.924200
91.035000	0.136376	0.078115	0.147164	0.158828	6950.413926	36413.679960	3914.592175	16990.360367
91.535500	0.133538	0.078271	0.146086	0.160283	6910.491946	36313.824781	3908.389004	16943.213677
92.036000	0.136367	0.078881	0.150914	0.160359	6936.049456	36354.821548	3920.057994	16940.747364
92.536000	0.137738	0.079442	0.147126	0.161623	6937.047260	36300.918316	3907.655938	16899.926840
93.036500	0.137825	0.080216	0.149879	0.163207	6923.124156	36238.791942	3910.512856	16848.929768
93.536500	0.138493	0.081297	0.152593	0.164527	6917.084862	36220.517336	3913.932198	16806.594412
94.037000	0.140845	0.080738	0.147076	0.164518	6939.021078	36178.427385	3900.492721	16806.857650
94.537500	0.138826	0.082042	0.148540	0.165691	6909.382133	36188.422745	3901.200464	16769.335584
95.037500	0.141071	0.081044	0.151248	0.166398	6923.632223	36058.295473	3906.064026	16746.759805
95.535500	0.140163	0.081822	0.154133	0.168023	6900.190679	35993.878305	3909.141228	16695.034958
96.035000	0.142629	0.083411	0.152665	0.168029	6922.960218	36114.448172	3905.543206	16694.831766
96.538000	0.139899	0.083637	0.159250	0.169746	6881.883761	36000.854839	3917.466891	16640.378009
97.036000	0.143418	0.082486	0.156698	0.169986	6912.134234	35895.281107	3910.613229	16632.781055
97.536000	0.143045	0.083637	0.158050	0.171997	6890.124250	35830.157897	3909.000729	16569.308163
98.036500	0.145753	0.086475	0.158070	0.173907	6897.471435	35900.367685	3904.390899	16509.262055
98.536500	0.144677	0.085315	0.157815	0.173491	6891.384512	35844.036494	3904.783390	16522.327424
99.037000	0.145212	0.085296	0.154284	0.174732	6884.887251	35748.816059	3893.231229	16483.424450
99.534500	0.145862	0.085848	0.158410	0.175751	6881.505094	35713.603965	3900.739687	16451.594214
100.034500	0.147272	0.086197	0.160652	0.175582	6896.033699	35752.663023	3906.599339	16456.849813
100.534500	0.146696	0.086874	0.157755	0.177163	6876.187114	35684.464351	3895.738931	16407.557017
101.038000	0.147329	0.087674	0.158481	0.178547	6869.309458	35640.604252	3894.152734	16364.581727
101.536500	0.147563	0.086503	0.160897	0.179218	6865.301642	35502.322266	3898.365942	16343.766171
102.035500	0.147360	0.088533	0.161684	0.180654	6850.335427	35546.823476	3896.798525	16299.374986
102.536500	0.148109	0.087868	0.160448	0.181370	6850.635533	35443.431553	3892.092521	16277.284647
103.036500	0.148670	0.087949	0.158014	0.182160	6848.546050	35390.497414	3884.367687	16252.958262
103.537500	0.149680	0.089263	0.169380	0.183255	6847.767966	35406.809281	3909.175638	16219.300508
104.036500	0.149084	0.088961	0.165257	0.183203	6842.819215	35388.126969	3899.272040	16220.895743
104.534500	0.149836	0.089631	0.162146	0.184797	6835.166785	35319.260324	3887.941972	16172.075937
105.035000	0.150875	0.089712	0.160655	0.185511	6838.117606	35272.132959	3882.676228	16150.269437
105.535500	0.153546	0.089666	0.167840	0.186673	6851.853847	35182.433926	3897.127153	16114.826035
106.035500	0.152967	0.091613	0.164780	0.188282	6831.948565	35207.528876	3885.905049	16065.932680
106.535500	0.154521	0.090873	0.169758	0.189018	6839.381721	35098.160128	3896.097012	16043.640861
107.036000	0.153195	0.090442	0.163362	0.189715	6821.024999	35014.825154	3879.111566	16022.528048
107.536500	0.151052	0.091930	0.169804	0.191437	6786.207258	34997.589422	3890.384984	15970.585002
108.036500	0.153684	0.091126	0.169443	0.190833	6815.346831	34982.844107	3890.968686	15988.793979
108.537000	0.156279	0.092426	0.170597	0.192366	6824.945016	34965.638753	3890.054928	15942.621721
109.037500	0.152954	0.092358	0.165992	0.194094	6779.446947	34833.650329	3874.969502	15890.824592
109.537000	0.157023	0.092790	0.168129	0.194555	6811.883348	34831.554068	3878.940564	15877.031693
110.035000	0.155299	0.092747	0.175179	0.194838	6793.802325	34807.606191	3895.133506	15868.551363
110.535000	0.156001	0.093275	0.171137	0.195560	6793.629939	34793.404648	3883.708400	15847.016792
111.035500	0.155691	0.094533	0.171927	0.197108	6776.970397	34772.192167	3881.901161	15800.925417
111.536000	0.158317	0.094632	0.172800	0.198881	6784.601088	34649.812015	3879.757254	15748.311572
112.036000	0.156968	0.094396	0.173548	0.198474	6776.166769	34662.251613	3882.506879	15760.365390
112.536500	0.156975	0.094387	0.174194	0.199781	6764.559488	34566.488889	3880.935107	15721.718582
113.037000	0.159930	0.095243	0.170629	0.200725	6782.537000	34560.037817	3870.262604	15693.849634
113.537000	0.160672	0.096122	0.175017	0.202592	6772.465137	34488.251956	3876.215952	15638.946501
114.037500	0.156548	0.094006	0.175054	0.201121	6748.829467	34441.501919	3879.793317	15682.192455
114.535000	0.158303	0.094800	0.175487	0.202832	6749.222808	34375.129390	3876.760819	15631.897288
115.038000	0.159925	0.096082	0.172340	0.204402	6749.678848	34354.347484	3865.644201	15585.932430
115.535500	0.159871	0.096269	0.174717	0.205129	6742.751882	34315.361889	3869.519090	15564.699210
116.035500	0.160170	0.095965	0.174911	0.205036	6746.222282	34300.075421	3870.193628	15567.399036
116.536000	0.159476	0.096112	0.179676	0.206042	6731.164068	34238.149512	3879.082337	15538.069009
117.036500	0.158038	0.095429	0.174488	0.206296	6716.236589	34170.878625	3866.240004	15530.698083
117.536500	0.160818	0.096474	0.179026	0.206999	6734.562184	34195.335227	3875.272362	15510.233209
118.036500	0.162639	0.097711	0.173597	0.208591	6736.596626	34169.888182	3858.796236	15464.087782
118.537500	0.162451	0.096751	0.180911	0.208599	6734.866886	34100.482068	3875.948776	15463.850894
119.035000	0.159742	0.096053	0.178785	0.209898	6699.555110	33957.687945	3867.871129	15426.310183
119.537500	0.162185	0.097118	0.177820	0.210425	6716.385309	33996.045557	3864.371759	15411.091430
120.034500	0.161707	0.097940	0.180767	0.211010	6707.038959	34013.000238	3869.915488	15394.242699
120.535500	0.163666	0.097605	0.175046	0.211756	6717.713902	33935.856361	3854.807910	15372.801590
121.036000	0.160061	0.096365	0.181932	0.213018	6675.064971	33757.960924	3867.934992	15336.581594
121.535500	0.164562	0.098160	0.176706	0.213357	6711.510226	33861.402323	3854.945172	15326.876531
122.036500	0.164849	0.098143	0.178753	0.212985	6717.307023	33886.583644	3860.568841	15337.516982
122.539500	0.163766	0.097364	0.178298	0.213640	6702.017924	33784.641139	3857.984883	15318.750580
123.037000	0.162755	0.098288	0.182030	0.217062	6663.322805	33608.033382	3858.707362	15221.243414
123.537500	0.164057	0.099014	0.181375	0.215768	6685.941401	33750.862918	3860.197007	15258.038370
124.037500	0.162523	0.097900	0.180037	0.214919	6679.955568	33732.043917	3859.054994	15282.221810
124.535500	0.165667	0.099575	0.186471	0.217220	6687.318069	33687.682343	3868.725466	15216.740465
125.035500	0.167858	0.098534	0.182643	0.217143	6707.200426	33619.684119	3859.946375	15218.938216
125.535500	0.166582	0.099108	0.186329	0.217330	6694.367321	33647.001600	3868.133192	15213.636325
126.036000	0.166795	0.100064	0.176998	0.218853	6682.903819	33606.956110	3842.946503	15170.495649
126.536500	0.165477	0.100504	0.182551	0.219693	6664.107164	33578.748840	3853.805930	15146.768200
127.036500	0.165827	0.099872	0.180676	0.222524	6642.620071	33335.663597	3842.962805	15067.149201
127.537000	0.165013	0.099107	0.182629	0.219303	6663.468609	33507.891238	3854.892429	15157.788241
128.037500	0.165623	0.101080	0.185912	0.220738	6656.304186	33545.670416	3859.183925	15117.308586
128.534500	0.165900	0.100220	0.185054	0.220907	6657.242156	33473.395202	3856.795910	15112.561324
129.035000	0.166077	0.099639	0.185178	0.224265	6629.761076	33198.005711	3849.310830	15018.436453
129.535000	0.168852	0.100932	0.187040	0.222693	6667.368171	33398.029310	3857.260837	15062.397876
130.041500	0.169112	0.101599	0.185193	0.223121	6665.907658	33414.783416	3851.986831	15050.427171
130.536000	0.167108	0.100910	0.181734	0.223079	6648.890151	33369.467893	3844.115559	15051.587350
131.036500	0.167826	0.101683	0.181242	0.227974	6612.927716	33082.396647	3831.834172	14915.319790
131.536500	0.167435	0.101491	0.179395	0.224307	6641.109308	33324.217611	3835.967662	15017.271790
132.039500	0.169420	0.103072	0.187116	0.225719	6646.055144	33335.994398	3850.426092	14977.903227
132.537000	0.165966	0.101331	0.183807	0.224061	6630.563272	33330.285934	3846.624603	15024.145063
