sample name	sample
index	1224
start time	 04-29-2021  10:51:47 AM


Wavelength (nm)	Absorbance
494.344910	NaN
494.563924	NaN
494.782919	NaN
495.001897	-0.035232
495.220856	-0.305801
495.439797	-0.042259
495.658719	-0.067061
495.877624	0.048769
496.096510	0.052267
496.315378	0.050572
496.534227	-0.043424
496.753059	0.147793
496.971872	0.133451
497.190667	0.059982
497.409444	0.054609
497.628203	0.056100
497.846943	0.055277
498.065665	0.055093
498.284369	0.050975
498.503055	0.051629
498.721723	0.049824
498.940372	0.048893
499.159003	0.048332
499.377616	0.047238
499.596210	0.045760
499.814787	0.043886
500.033345	0.042920
500.251885	0.043886
500.470406	0.043242
500.688910	0.043697
500.907395	0.043805
501.125862	0.044507
501.344311	0.043271
501.562742	0.043732
501.781154	0.045468
501.999548	0.046612
502.217924	0.046513
502.436282	0.046331
502.654621	0.046110
502.872942	0.046699
503.091245	0.045572
503.309530	0.045608
503.527797	0.045378
503.746045	0.045013
503.964275	0.044152
504.182487	0.042961
504.400681	0.041837
504.618856	0.042449
504.837013	0.040695
505.055152	0.040577
505.273273	0.041177
505.491376	0.040720
505.709460	0.040259
505.927526	0.040597
506.145574	0.041652
506.363604	0.041607
506.581615	0.040489
506.799608	0.040935
507.017583	0.041401
507.235540	0.041894
507.453478	0.042101
507.671399	0.041429
507.889301	0.040510
508.107185	0.040255
508.325050	0.040381
508.542898	0.040915
508.760727	0.041981
508.978538	0.042216
509.196330	0.041642
509.414105	0.041913
509.631861	0.042326
509.849599	0.042745
510.067319	0.043836
510.285021	0.044429
510.502704	0.044440
510.720369	0.044549
510.938016	0.044561
511.155645	0.044786
511.373255	0.045072
511.590848	0.044399
511.808422	0.045234
512.025977	0.044265
512.243515	0.044366
512.461034	0.043494
512.678536	0.042395
512.896018	0.042141
513.113483	0.042390
513.330930	0.042628
513.548358	0.043574
513.765768	0.042477
513.983160	0.042939
514.200533	0.042054
514.417889	0.043364
514.635226	0.042969
514.852545	0.043550
515.069845	0.043250
515.287128	0.042953
515.504392	0.042868
515.721638	0.042661
515.938866	0.041994
516.156075	0.043209
516.373267	0.042634
516.590440	0.044018
516.807594	0.044009
517.024731	0.044226
517.241850	0.044502
517.458950	0.044461
517.676032	0.044647
517.893095	0.045517
518.110141	0.045773
518.327168	0.045590
518.544177	0.044715
518.761168	0.043624
518.978141	0.043598
519.195095	0.042813
519.412031	0.043020
519.628949	0.042865
519.845849	0.042323
520.062731	0.041847
520.279594	0.041199
520.496439	0.040941
520.713266	0.041444
520.930074	0.041196
521.146865	0.041338
521.363637	0.041132
521.580391	0.041301
521.797127	0.040919
522.013844	0.040420
522.230543	0.041186
522.447224	0.041518
522.663887	0.041721
522.880532	0.042158
523.097158	0.042408
523.313766	0.042450
523.530356	0.042416
523.746928	0.042693
523.963481	0.042413
524.180017	0.042101
524.396534	0.042413
524.613032	0.042524
524.829513	0.041827
525.045975	0.041126
525.262420	0.041181
525.478845	0.041070
525.695253	0.041119
525.911643	0.041840
526.128014	0.041981
526.344367	0.042072
526.560702	0.042000
526.777018	0.041943
526.993316	0.042436
527.209597	0.042163
527.425858	0.042141
527.642102	0.042041
527.858328	0.041388
528.074535	0.041515
528.290724	0.041431
528.506894	0.041350
528.723047	0.042089
528.939181	0.041619
529.155297	0.041652
529.371395	0.041602
529.587475	0.041529
529.803536	0.042346
530.019579	0.042175
530.235604	0.042099
530.451611	0.042255
530.667600	0.041571
530.883570	0.042195
531.099522	0.041434
531.315456	0.041603
531.531372	0.041968
531.747269	0.041600
531.963148	0.041979
532.179009	0.042090
532.394852	0.041731
532.610676	0.042291
532.826482	0.041839
533.042271	0.042143
533.258040	0.042124
533.473792	0.042506
533.689525	0.042794
533.905240	0.042043
534.120937	0.041899
534.336616	0.042108
534.552277	0.042233
534.767919	0.043375
534.983543	0.043965
535.199149	0.044449
535.414736	0.044069
535.630306	0.043613
535.845857	0.044025
536.061390	0.044100
536.276904	0.044101
536.492401	0.044031
536.707879	0.043434
536.923339	0.043791
537.138781	0.043582
537.354204	0.043703
537.569610	0.043663
537.784997	0.043472
538.000366	0.043270
538.215716	0.043122
538.431049	0.042879
538.646363	0.042668
538.861659	0.041728
539.076937	0.041700
539.292196	0.041610
539.507438	0.041623
539.722661	0.041423
539.937866	0.041563
540.153052	0.041451
540.368221	0.041274
540.583371	0.041304
540.798503	0.042293
541.013617	0.042172
541.228712	0.042178
541.443789	0.042095
541.658848	0.042399
541.873889	0.042540
542.088912	0.043103
542.303916	0.043144
542.518902	0.042908
542.733870	0.042000
542.948820	0.042138
543.163752	0.042105
543.378665	0.042215
543.593560	0.042100
543.808437	0.041994
544.023295	0.042073
544.238136	0.041942
544.452958	0.042413
544.667762	0.042688
544.882548	0.042430
545.097315	0.042202
545.312064	0.042172
545.526795	0.042360
545.741508	0.042395
545.956203	0.042155
546.170879	0.042310
546.385537	0.041982
546.600177	0.041855
546.814799	0.041557
547.029402	0.041498
547.243988	0.041677
547.458555	0.041524
547.673103	0.040917
547.887634	0.040703
548.102146	0.040473
548.316640	0.040487
548.531116	0.040947
548.745574	0.041345
548.960013	0.041450
549.174435	0.041250
549.388838	0.041672
549.603222	0.042125
549.817589	0.042163
550.031937	0.042306
550.246267	0.041885
550.460579	0.041657
550.674873	0.041656
550.889148	0.041800
551.103405	0.041765
551.317644	0.041415
551.531865	0.041708
551.746068	0.041242
551.960252	0.041436
552.174418	0.042241
552.388566	0.042155
552.602696	0.041686
552.816807	0.041931
553.030900	0.042009
553.244975	0.042215
553.459032	0.042089
553.673070	0.042595
553.887091	0.042502
554.101093	0.042376
554.315077	0.042501
554.529042	0.042937
554.742990	0.042497
554.956919	0.042350
555.170830	0.042116
555.384722	0.041678
555.598597	0.041743
555.812453	0.041148
556.026291	0.040632
556.240111	0.040769
556.453913	0.040592
556.667696	0.040707
556.881461	0.040884
557.095208	0.040670
557.308937	0.040801
557.522647	0.040698
557.736339	0.041213
557.950013	0.041209
558.163669	0.041122
558.377307	0.041057
558.590926	0.040863
558.804527	0.040654
559.018110	0.040669
559.231675	0.040818
559.445221	0.040858
559.658749	0.040859
559.872259	0.040857
560.085751	0.040584
560.299225	0.040416
560.512680	0.040368
560.726117	0.040282
560.939536	0.040192
561.152937	0.039805
561.366319	0.039689
561.579683	0.039567
561.793029	0.039795
562.006357	0.039817
562.219667	0.040160
562.432958	0.040428
562.646231	0.040320
562.859486	0.040252
563.072723	0.040508
563.285941	0.039779
563.499141	0.039754
563.712323	0.039563
563.925487	0.039673
564.138632	0.039646
564.351760	0.039352
564.564869	0.039715
564.777960	0.040101
564.991032	0.039974
565.204087	0.040533
565.417123	0.040516
565.630141	0.040482
565.843140	0.040067
566.056122	0.039853
566.269085	0.039860
566.482030	0.039593
566.694957	0.039301
566.907866	0.039333
567.120756	0.039077
567.333628	0.038960
567.546482	0.039054
567.759318	0.039053
567.972135	0.039153
568.184935	0.039218
568.397716	0.039532
568.610478	0.039563
568.823223	0.039426
569.035949	0.039787
569.248657	0.039739
569.461347	0.039903
569.674019	0.039937
569.886672	0.040132
570.099308	0.040357
570.311925	0.040110
570.524523	0.040281
570.737104	0.040426
570.949666	0.040373
571.162210	0.040775
571.374736	0.040820
571.587244	0.041234
571.799733	0.040994
572.012205	0.040738
572.224658	0.040919
572.437092	0.040965
572.649509	0.041235
572.861907	0.041510
573.074287	0.041386
573.286649	0.041525
573.498993	0.041270
573.711318	0.041275
573.923625	0.041334
574.135914	0.041019
574.348185	0.040754
574.560438	0.040733
574.772672	0.040571
574.984888	0.040304
575.197086	0.039926
575.409266	0.039854
575.621427	0.039845
575.833570	0.039605
576.045695	0.039680
576.257802	0.039744
576.469890	0.039527
576.681961	0.039445
576.894013	0.039520
577.106046	0.039460
577.318062	0.039648
577.530059	0.039610
577.742039	0.039504
577.954000	0.039590
578.165942	0.039761
578.377867	0.039771
578.589773	0.039724
578.801661	0.039801
579.013531	0.039845
579.225382	0.039913
579.437216	0.040030
579.649031	0.040329
579.860828	0.040293
580.072606	0.040387
580.284367	0.040323
580.496109	0.040380
580.707833	0.040493
580.919539	0.040447
581.131227	0.040144
581.342896	0.040164
581.554547	0.040292
581.766180	0.040597
581.977795	0.040564
582.189391	0.040879
582.400969	0.040709
582.612529	0.040503
582.824071	0.040532
583.035595	0.040699
583.247100	0.040535
583.458587	0.040444
583.670056	0.040157
583.881506	0.039998
584.092939	0.039718
584.304353	0.039947
584.515749	0.040168
584.727127	0.040332
584.938486	0.040415
585.149828	0.040440
585.361151	0.040268
585.572456	0.040220
585.783742	0.040503
585.995011	0.040692
586.206261	0.040544
586.417493	0.040756
586.628706	0.040950
586.839902	0.041003
587.051079	0.041454
587.262238	0.041737
587.473379	0.041817
587.684502	0.041843
587.895606	0.041702
588.106692	0.042013
588.317760	0.042080
588.528810	0.041903
588.739841	0.042022
588.950855	0.041729
589.161850	0.041865
589.372827	0.042001
589.583785	0.042054
589.794726	0.042113
590.005648	0.042036
590.216552	0.041959
590.427437	0.042005
590.638305	0.042118
590.849154	0.042218
591.059985	0.042240
591.270798	0.042315
591.481592	0.042247
591.692369	0.042005
591.903127	0.041875
592.113867	0.041647
592.324588	0.041728
592.535292	0.041367
592.745977	0.041418
592.956644	0.041115
593.167293	0.041222
593.377923	0.041148
593.588536	0.041536
593.799130	0.041703
594.009706	0.041974
594.220263	0.041723
594.430803	0.041860
594.641324	0.041642
594.851827	0.041794
595.062312	0.041852
595.272778	0.041958
595.483227	0.041799
595.693657	0.041890
595.904069	0.041720
596.114462	0.041956
596.324838	0.042060
596.535195	0.042258
596.745534	0.042350
596.955855	0.042419
597.166157	0.042323
597.376441	0.042420
597.586707	0.042312
597.796955	0.042558
598.007185	0.042912
598.217396	0.042869
598.427589	0.042961
598.637764	0.042880
598.847921	0.042801
599.058060	0.042854
599.268180	0.042823
599.478282	0.042654
599.688366	0.042456
599.898431	0.042215
600.108479	0.042079
600.318508	0.041827
600.528519	0.041859
600.738511	0.041954
600.948486	0.041717
601.158442	0.041881
601.368380	0.041979
601.578300	0.041877
601.788202	0.041711
601.998085	0.041993
602.207950	0.042228
602.417797	0.042320
602.627626	0.042119
602.837436	0.042348
603.047228	0.042478
603.257002	0.042820
603.466758	0.042863
603.676496	0.042692
603.886215	0.042457
604.095916	0.042565
604.305599	0.042575
604.515264	0.042463
604.724910	0.042550
604.934538	0.042329
605.144148	0.041974
605.353740	0.042082
605.563314	0.042139
605.772869	0.042180
605.982406	0.042102
606.191925	0.041828
606.401425	0.041892
606.610908	0.042042
606.820372	0.041958
607.029818	0.041965
607.239246	0.041806
607.448655	0.041725
607.658047	0.041612
607.867420	0.041829
608.076775	0.041896
608.286111	0.041770
608.495430	0.041668
608.704730	0.041916
608.914012	0.042189
609.123275	0.042045
609.332521	0.042231
609.541748	0.042421
609.750957	0.042129
609.960148	0.042241
610.169321	0.042300
610.378475	0.042036
610.587611	0.041921
610.796729	0.041361
611.005829	0.041434
611.214910	0.041455
611.423974	0.041475
611.633019	0.041406
611.842045	0.041259
612.051054	0.041417
612.260044	0.041476
612.469017	0.041508
612.677970	0.041732
612.886906	0.041701
613.095824	0.041785
613.304723	0.041896
613.513604	0.042015
613.722467	0.041809
613.931311	0.041668
614.140138	0.041588
614.348946	0.041238
614.557736	0.041130
614.766507	0.041206
614.975261	0.041097
615.183996	0.040917
615.392713	0.040438
615.601412	0.040846
615.810092	0.040577
616.018754	0.040411
616.227399	0.040456
616.436024	0.040425
616.644632	0.040210
616.853222	0.040028
617.061793	0.039703
617.270346	0.040029
617.478880	0.039776
617.687397	0.040109
617.895895	0.040257
618.104375	0.040175
618.312837	0.040195
618.521281	0.040420
618.729706	0.040403
618.938113	0.040445
619.146502	0.040257
619.354873	0.040259
619.563226	0.039930
619.771560	0.039844
619.979876	0.039704
620.188174	0.039687
620.396453	0.039708
620.604715	0.039629
620.812958	0.039734
621.021183	0.040115
621.229390	0.040124
621.437578	0.040410
621.645748	0.040364
621.853900	0.040811
622.062034	0.040779
622.270150	0.040563
622.478247	0.040536
622.686326	0.040565
622.894387	0.040272
623.102430	0.040594
623.310454	0.040627
623.518461	0.040844
623.726449	0.040851
623.934418	0.041020
624.142370	0.041380
624.350303	0.041639
624.558218	0.041730
624.766115	0.041742
624.973994	0.041415
625.181855	0.041428
625.389697	0.041427
625.597521	0.041297
625.805327	0.041244
626.013114	0.041216
626.220883	0.041078
626.428634	0.041013
626.636367	0.041078
626.844082	0.041265
627.051778	0.041193
627.259457	0.041068
627.467117	0.041295
627.674758	0.041335
627.882382	0.041348
628.089987	0.041494
628.297574	0.041557
628.505143	0.041526
628.712694	0.041505
628.920226	0.041400
629.127740	0.041482
629.335236	0.041218
629.542714	0.041313
629.750174	0.041126
629.957615	0.041073
630.165038	0.040953
630.372443	0.040832
630.579829	0.040928
630.787198	0.040794
630.994548	0.040615
631.201880	0.040360
631.409194	0.040265
631.616489	0.040369
631.823766	0.040339
632.031025	0.040199
632.238266	0.040235
632.445489	0.039927
632.652693	0.039994
632.859879	0.040020
633.067047	0.040067
633.274197	0.039873
633.481329	0.039554
633.688442	0.039604
633.895537	0.039639
634.102614	0.039679
634.309672	0.039875
634.516713	0.039916
634.723735	0.039988
634.930739	0.040148
635.137724	0.040127
635.344692	0.040077
635.551641	0.039928
635.758572	0.040073
635.965485	0.040145
636.172379	0.040120
636.379256	0.040194
636.586114	0.040391
636.792954	0.040440
636.999775	0.040563
637.206579	0.040949
637.413364	0.041358
637.620131	0.041471
637.826880	0.041455
638.033610	0.041525
638.240323	0.041532
638.447017	0.041616
638.653692	0.041557
638.860350	0.041644
639.066990	0.041707
639.273611	0.041507
639.480214	0.041537
639.686798	0.041530
639.893365	0.041451
640.099913	0.041658
640.306443	0.041437
640.512955	0.041557
640.719449	0.041676
640.925924	0.041433
641.132381	0.041618
641.338820	0.041562
641.545241	0.041634
641.751644	0.041515
641.958028	0.041358
642.164394	0.041406
642.370742	0.041603
642.577071	0.041620
642.783383	0.041799
642.989676	0.041680
643.195951	0.041587
643.402207	0.041626
643.608446	0.041730
643.814666	0.041565
644.020868	0.041413
644.227052	0.041258
644.433218	0.041356
644.639365	0.041422
644.845494	0.041309
645.051605	0.041448
645.257698	0.041491
645.463772	0.041536
645.669828	0.041605
645.875866	0.041636
646.081886	0.041546
646.287888	0.041219
646.493871	0.041198
646.699836	0.041314
646.905783	0.041250
647.111712	0.041074
647.317622	0.041107
647.523514	0.041143
647.729388	0.041213
647.935244	0.041144
648.141082	0.041280
648.346901	0.041262
648.552702	0.041239
648.758485	0.041189
648.964250	0.041224
649.169996	0.041340
649.375724	0.041497
649.581434	0.041600
649.787126	0.041542
649.992800	0.041585
650.198455	0.041425
650.404092	0.041320
650.609711	0.041373
650.815311	0.041520
651.020894	0.041418
651.226458	0.041413
651.432004	0.041314
651.637532	0.041273
651.843041	0.041228
652.048532	0.041301
652.254006	0.041474
652.459460	0.041483
652.664897	0.041365
652.870315	0.041142
653.075716	0.040982
653.281097	0.041120
653.486461	0.041420
653.691807	0.041532
653.897134	0.041533
654.102443	0.041387
654.307734	0.041443
654.513006	0.041391
654.718261	0.041726
654.923497	0.041909
655.128715	0.041822
655.333915	0.041933
655.539096	0.041895
655.744259	0.042171
655.949404	0.042364
656.154531	0.042533
656.359640	0.042830
656.564730	0.042898
656.769802	0.042737
656.974856	0.042874
657.179892	0.042726
657.384909	0.042655
657.589908	0.042481
657.794889	0.042405
657.999852	0.042040
658.204797	0.042056
658.409723	0.042021
658.614631	0.042029
658.819521	0.042028
659.024393	0.042079
659.229246	0.042195
659.434081	0.042179
659.638898	0.042276
659.843697	0.042511
660.048478	0.042416
660.253240	0.042489
660.457984	0.042687
660.662710	0.042559
660.867417	0.042616
661.072107	0.042692
661.276778	0.042770
661.481431	0.042707
661.686066	0.042641
661.890682	0.042658
662.095281	0.042485
662.299861	0.042450
662.504422	0.042563
662.708966	0.042455
662.913491	0.042296
663.117999	0.042301
663.322488	0.042291
663.526958	0.042249
663.731411	0.042174
663.935845	0.042288
664.140261	0.042403
664.344659	0.042605
664.549038	0.042768
664.753400	0.042764
664.957743	0.042828
665.162068	0.042751
665.366375	0.042962
665.570663	0.042982
665.774933	0.042957
665.979185	0.043071
666.183419	0.042974
666.387635	0.042949
666.591832	0.043088
666.796011	0.043075
667.000172	0.043273
667.204315	0.043207
667.408439	0.043347
667.612545	0.043606
667.816634	0.043556
668.020703	0.043560
668.224755	0.043632
668.428788	0.043658
668.632803	0.043652
668.836800	0.043689
669.040779	0.044013
669.244739	0.043934
669.448681	0.043819
669.652605	0.043866
669.856511	0.043751
670.060399	0.043642
670.264268	0.043576
670.468119	0.043735
670.671952	0.043740
670.875767	0.043452
671.079563	0.043475
671.283341	0.043462
671.487101	0.043374
671.690843	0.043545
671.894567	0.043607
672.098272	0.043666
672.301959	0.043690
672.505628	0.043492
672.709278	0.043569
672.912911	0.043571
673.116525	0.043524
673.320121	0.043456
673.523699	0.043325
673.727258	0.043227
673.930799	0.043261
674.134322	0.043163
674.337827	0.043166
674.541314	0.043113
674.744782	0.043131
674.948232	0.043116
675.151664	0.043110
675.355078	0.042968
675.558474	0.043060
675.761851	0.042979
675.965210	0.042948
676.168551	0.043027
676.371873	0.043115
676.575178	0.043116
676.778464	0.043109
676.981732	0.043061
677.184981	0.043353
677.388213	0.043348
677.591426	0.043478
677.794621	0.043429
677.997798	0.043536
678.200956	0.043487
678.404097	0.043408
678.607219	0.043240
678.810323	0.043241
679.013408	0.043171
679.216476	0.043080
679.419525	0.043048
679.622556	0.043070
679.825569	0.043048
680.028563	0.042954
680.231540	0.043001
680.434498	0.043225
680.637438	0.043486
680.840359	0.043479
681.043263	0.043593
681.246148	0.043798
681.449015	0.043801
681.651864	0.043763
681.854694	0.044097
682.057506	0.044213
682.260301	0.044258
682.463076	0.044188
682.665834	0.044290
682.868573	0.044427
683.071295	0.044367
683.273998	0.044446
683.476682	0.044631
683.679349	0.044656
683.881997	0.044698
684.084627	0.044825
684.287239	0.044922
684.489833	0.044947
684.692408	0.044937
684.894965	0.044901
685.097504	0.045054
685.300025	0.045249
685.502527	0.045177
685.705012	0.045076
685.907478	0.045161
686.109925	0.045128
686.312355	0.045192
686.514766	0.045290
686.717159	0.045378
686.919534	0.045127
687.121891	0.044721
687.324230	0.044679
687.526550	0.044737
687.728852	0.044434
687.931136	0.044365
688.133401	0.044290
688.335649	0.044221
688.537878	0.044065
688.740089	0.044241
688.942281	0.044284
689.144456	0.044350
689.346612	0.044300
689.548750	0.044342
689.750870	0.044286
689.952971	0.044131
690.155055	0.044072
690.357120	0.043868
690.559167	0.043891
690.761195	0.044050
690.963206	0.043867
691.165198	0.043859
691.367172	0.043886
691.569128	0.043896
691.771065	0.044259
691.972984	0.044368
692.174885	0.044720
692.376768	0.044717
692.578633	0.044696
692.780479	0.044788
692.982308	0.044848
693.184118	0.044919
693.385909	0.045053
693.587683	0.044821
693.789438	0.044758
693.991175	0.044624
694.192894	0.044741
694.394595	0.044682
694.596277	0.044657
694.797941	0.044623
694.999587	0.044601
695.201215	0.044633
695.402824	0.044719
695.604416	0.044791
695.805989	0.044941
696.007543	0.044839
696.209080	0.044966
696.410598	0.045165
696.612099	0.045251
696.813580	0.045309
697.015044	0.045306
697.216490	0.045290
697.417917	0.045302
697.619326	0.045378
697.820717	0.045259
698.022089	0.045372
698.223444	0.045144
698.424780	0.045131
698.626098	0.045173
698.827397	0.045310
699.028679	0.045322
699.229942	0.045247
699.431187	0.044990
699.632414	0.045293
699.833622	0.045198
700.034813	0.045397
700.235985	0.045507
700.437139	0.045504
700.638274	0.045492
700.839392	0.045525
701.040491	0.045643
701.241572	0.045836
701.442635	0.045585
701.643679	0.045541
701.844706	0.045452
702.045714	0.045531
702.246704	0.045662
702.447675	0.045660
702.648629	0.045602
702.849564	0.045529
703.050481	0.045367
703.251380	0.045464
703.452260	0.045485
703.653122	0.045587
703.853966	0.045520
704.054792	0.045227
704.255600	0.045039
704.456389	0.044982
704.657160	0.044981
704.857913	0.045115
705.058648	0.044974
705.259365	0.044873
705.460063	0.044593
705.660743	0.044313
705.861405	0.044329
706.062048	0.044423
706.262674	0.044403
706.463281	0.044332
706.663870	0.044287
706.864441	0.044225
707.064993	0.044148
707.265527	0.044222
707.466043	0.044432
707.666541	0.044497
707.867021	0.044512
708.067482	0.044711
708.267925	0.044761
708.468350	0.044897
708.668757	0.045227
708.869145	0.045411
709.069516	0.045557
709.269868	0.045622
709.470201	0.045691
709.670517	0.045537
709.870814	0.045590
710.071093	0.045701
710.271354	0.045644
710.471597	0.045431
710.671821	0.045434
710.872028	0.045392
711.072216	0.045203
711.272385	0.045135
711.472537	0.045268
711.672670	0.044929
711.872785	0.044865
712.072882	0.044802
712.272961	0.044714
712.473021	0.044575
712.673063	0.044357
712.873087	0.044414
713.073093	0.044383
713.273081	0.044137
713.473050	0.044153
713.673001	0.043960
713.872934	0.043880
714.072849	0.043911
714.272745	0.043881
714.472623	0.044079
714.672483	0.044000
714.872325	0.043774
715.072148	0.043771
715.271954	0.043872
715.471741	0.043991
715.671509	0.043933
715.871260	0.043905
716.070992	0.043857
716.270707	0.043693
716.470403	0.043731
716.670080	0.043853
716.869740	0.044030
717.069381	0.043948
717.269004	0.043994
717.468609	0.043930
717.668195	0.043875
717.867764	0.043991
718.067314	0.044018
718.266846	0.044101
718.466360	0.044233
718.665855	0.044147
718.865332	0.044261
719.064791	0.044015
719.264232	0.044108
719.463655	0.044356
719.663059	0.044110
719.862445	0.044130
720.061813	0.043982
720.261163	0.043909
720.460494	0.043955
720.659807	0.043850
720.859102	0.043867
721.058379	0.043879
721.257638	0.043469
721.456878	0.043504
721.656100	0.043499
721.855304	0.043452
722.054490	0.043452
722.253657	0.043470
722.452806	0.043446
722.651937	0.043471
722.851050	0.043400
723.050145	0.043489
723.249221	0.043462
723.448279	0.043438
723.647319	0.043459
723.846340	0.043514
724.045344	0.043299
724.244329	0.043305
724.443296	0.043445
724.642245	0.043415
724.841175	0.043414
725.040088	0.043572
725.238982	0.043569
725.437857	0.043448
725.636715	0.043259
725.835554	0.043217
726.034376	0.043091
726.233179	0.042791
726.431963	0.042595
726.630730	0.042366
726.829478	0.042065
727.028208	0.041890
727.226920	0.041837
727.425614	0.041728
727.624289	0.041780
727.822946	0.041617
728.021585	0.041531
728.220206	0.041536
728.418808	0.041740
728.617392	0.041845
728.815958	0.041820
729.014506	0.041897
729.213036	0.041875
729.411547	0.041776
729.610040	0.041864
729.808515	0.041832
730.006972	0.041791
730.205410	0.041568
730.403831	0.041490
730.602233	0.041346
730.800616	0.041165
730.998982	0.041159
731.197329	0.040934
731.395658	0.040841
731.593969	0.041113
731.792262	0.041126
731.990536	0.041194
732.188793	0.041165
732.387031	0.041294
732.585250	0.041374
732.783452	0.041405
732.981635	0.041464
733.179800	0.041602
733.377947	0.041385
733.576076	0.041430
733.774186	0.041573
733.972278	0.041697
734.170352	0.041442
734.368408	0.041551
734.566446	0.041461
734.764465	0.041518
734.962466	0.041449
735.160449	0.041455
735.358413	0.041432
735.556360	0.041408
735.754288	0.041312
735.952198	0.041554
736.150090	0.041487
736.347963	0.041566
736.545818	0.041680
736.743655	0.041838
736.941474	0.042014
737.139275	0.042038
737.337057	0.042009
737.534821	0.042220
737.732567	0.042290
737.930295	0.042307
738.128005	0.042284
738.325696	0.042244
738.523369	0.042096
738.721024	0.042213
738.918660	0.042341
739.116279	0.042280
739.313879	0.042121
739.511461	0.042171
739.709024	0.042449
739.906570	0.042413
740.104097	0.042499
740.301606	0.042380
740.499097	0.042130
740.696569	0.042127
740.894024	0.042136
741.091460	0.042051
741.288878	0.041927
741.486277	0.041475
741.683659	0.041551
741.881022	0.041379
742.078367	0.041452
742.275694	0.041457
742.473002	0.041126
742.670293	0.041063
742.867565	0.040965
743.064819	0.041055
743.262054	0.041321
743.459272	0.041303
743.656471	0.041494
743.853652	0.041692
744.050815	0.041641
744.247959	0.041778
744.445085	0.041780
744.642194	0.041935
744.839283	0.041857
745.036355	0.041941
745.233408	0.041962
745.430444	0.041877
745.627461	0.041804
745.824459	0.041758
746.021440	0.041858
746.218402	0.042055
746.415346	0.042160
746.612272	0.042009
746.809180	0.041844
747.006069	0.041788
747.202940	0.041684
747.399793	0.041467
747.596628	0.041554
747.793444	0.041652
747.990243	0.041611
748.187023	0.041408
748.383784	0.041627
748.580528	0.041708
748.777253	0.041703
748.973960	0.041556
749.170649	0.041550
749.367320	0.041509
749.563973	0.041448
749.760607	0.041235
749.957223	0.041276
750.153821	0.041185
750.350400	0.040977
750.546962	0.040893
750.743505	0.041003
750.940030	0.040864
751.136536	0.040749
751.333025	0.040618
751.529495	0.040653
751.725947	0.040456
751.922381	0.040271
752.118796	0.040299
752.315194	0.040447
752.511573	0.040307
752.707934	0.040443
752.904276	0.040405
753.100601	0.040381
753.296907	0.040516
753.493195	0.040689
753.689465	0.041043
753.885716	0.041066
754.081949	0.041132
754.278164	0.041574
754.474361	0.041492
754.670540	0.041636
754.866700	0.041610
755.062843	0.041392
755.258967	0.041513
755.455072	0.041423
755.651160	0.041385
755.847229	0.041214
756.043280	0.041131
756.239313	0.041360
756.435328	0.041311
756.631324	0.041336
756.827302	0.041440
757.023262	0.041442
757.219204	0.041416
757.415127	0.041408
757.611033	0.041374
757.806920	0.040974
758.002788	0.040904
758.198639	0.040849
758.394471	0.040829
758.590286	0.040919
758.786081	0.040803
758.981859	0.040621
759.177619	0.040410
759.373360	0.040388
759.569083	0.040416
759.764788	0.040437
759.960474	0.040374
760.156143	0.040700
760.351793	0.040681
760.547425	0.040770
760.743038	0.040981
760.938634	0.041313
761.134211	0.041324
761.329770	0.041574
761.525311	0.041531
761.720833	0.041783
761.916338	0.041457
762.111824	0.041590
762.307292	0.041622
762.502741	0.041561
762.698173	0.041383
762.893586	0.041490
763.088981	0.041567
763.284358	0.041702
763.479716	0.041764
763.675057	0.041801
763.870379	0.041647
764.065683	0.041596
764.260968	0.041604
764.456236	0.041786
764.651485	0.041627
764.846716	0.041512
765.041929	0.041362
765.237123	0.041119
765.432299	0.041350
765.627457	0.041448
765.822597	0.041477
766.017719	0.041390
766.212822	0.041310
766.407907	0.041417
766.602974	0.041354
766.798023	0.041191
766.993054	0.041280
767.188066	0.040860
767.383060	0.040725
767.578036	0.040531
767.772993	0.040647
767.967933	0.040666
768.162854	0.040594
768.357757	0.040689
768.552642	0.040855
768.747508	0.040912
768.942356	0.041165
769.137186	0.041222
769.331998	0.041341
769.526792	0.041192
769.721567	0.041180
769.916324	0.041165
770.111063	0.041248
770.305784	0.041532
770.500486	0.041671
770.695171	0.041678
770.889837	0.041681
771.084484	0.041919
771.279114	0.041962
771.473725	0.042056
771.668318	0.042151
771.862893	0.042305
772.057450	0.042050
772.251988	0.041939
772.446509	0.041905
772.641011	0.041994
772.835494	0.041834
773.029960	0.041866
773.224407	0.041719
773.418836	0.041746
773.613247	0.041488
773.807640	0.041315
774.002014	0.041218
774.196370	0.041291
774.390708	0.041159
774.585028	0.041131
774.779330	0.041112
774.973613	0.041123
775.167878	0.041073
775.362125	0.041132
775.556354	0.041571
775.750564	0.041690
775.944756	0.041574
776.138930	0.041446
776.333086	0.041314
776.527223	0.041290
776.721343	0.041234
776.915444	0.041123
777.109526	0.041090
777.303591	0.040739
777.497637	0.040562
777.691666	0.040506
777.885676	0.040584
778.079667	0.040741
778.273641	0.040597
778.467596	0.040762
778.661533	0.040894
778.855452	0.040923
779.049352	0.041035
779.243235	0.040780
779.437099	0.040843
779.630945	0.040811
779.824773	0.040777
780.018582	0.040759
780.212373	0.040730
780.406146	0.040641
780.599901	0.040638
780.793638	0.040747
780.987356	0.041149
781.181056	0.041150
781.374738	0.041458
781.568402	0.041511
781.762047	0.041645
781.955674	0.041559
782.149283	0.041667
782.342874	0.041771
782.536447	0.041552
782.730001	0.041511
782.923537	0.041648
783.117055	0.041705
783.310555	0.041908
783.504036	0.042169
783.697499	0.042194
783.890944	0.042237
784.084371	0.042235
784.277780	0.042511
784.471170	0.042401
784.664542	0.042458
784.857896	0.042386
785.051231	0.042091
785.244549	0.041796
785.437848	0.041883
785.631129	0.041882
785.824392	0.041636
786.017636	0.041482
786.210863	0.041554
786.404071	0.041392
786.597260	0.041281
786.790432	0.041420
786.983585	0.041579
787.176721	0.041542
787.369838	0.041664
787.562936	0.041901
787.756017	0.042066
787.949079	0.042245
788.142123	0.042402
788.335149	0.042496
788.528156	0.042590
788.721146	0.042635
788.914117	0.042819
789.107070	0.042704
789.300005	0.042752
789.492921	0.042865
789.685819	0.042924
789.878699	0.042993
790.071561	0.043050
790.264405	0.043036
790.457230	0.043111
790.650037	0.043004
790.842826	0.043091
791.035597	0.043204
791.228349	0.043260
791.421084	0.043317
791.613800	0.043302
791.806497	0.043199
791.999177	0.043224
792.191838	0.043191
792.384481	0.043092
792.577106	0.043236
792.769713	0.043076
792.962301	0.043002
793.154871	0.042833
793.347423	0.042793
793.539957	0.042746
793.732473	0.042880
793.924970	0.043068
794.117449	0.043471
794.309910	0.043513
794.502353	0.043420
794.694777	0.043315
794.887183	0.043351
795.079571	0.043197
795.271941	0.043321
795.464293	0.043184
795.656626	0.043055
795.848941	0.042809
796.041238	0.042565
796.233516	0.042750
796.425777	0.042751
796.618019	0.042877
796.810243	0.042973
797.002449	0.043062
797.194636	0.043026
797.386805	0.042988
797.578956	0.043035
797.771089	0.043148
797.963204	0.043212
798.155300	0.043321
798.347378	0.043295
798.539438	0.043463
798.731480	0.043550
798.923503	0.043585
799.115509	0.043670
799.307496	0.043678
799.499465	0.043884
799.691415	0.043971
799.883348	0.044083
800.075262	0.044334
800.267158	0.044604
800.459035	0.044568
800.650895	0.044641
800.842736	0.044682
801.034559	0.044713
801.226364	0.044552
801.418150	0.044410
801.609919	0.044283
801.801669	0.044100
801.993401	0.043976
802.185114	0.044066
802.376810	0.044244
802.568487	0.044264
802.760146	0.044337
802.951787	0.044424
803.143409	0.044509
803.335014	0.044503
803.526600	0.044519
803.718168	0.044632
803.909717	0.044415
804.101249	0.044077
804.292762	0.044184
804.484257	0.044214
804.675734	0.044125
804.867192	0.044206
805.058632	0.044252
805.250054	0.044243
805.441458	0.043941
805.632844	0.043935
805.824211	0.044036
806.015561	0.044021
806.206891	0.043938
806.398204	0.044051
806.589499	0.043651
806.780775	0.043674
806.972033	0.043682
807.163273	0.043755
807.354495	0.044056
807.545698	0.044264
807.736883	0.044302
807.928050	0.044434
808.119199	0.044478
808.310329	0.044889
808.501441	0.044979
808.692535	0.044918
808.883611	0.044798
809.074669	0.044806
809.265708	0.044709
809.456729	0.044601
809.647732	0.044577
809.838717	0.044466
810.029683	0.044430
810.220632	0.044596
810.411562	0.044679
810.602474	0.045006
810.793367	0.044947
810.984242	0.045068
811.175100	0.045174
811.365938	0.045154
811.556759	0.045364
811.747562	0.045580
811.938346	0.045266
812.129112	0.045308
812.319860	0.045198
812.510589	0.045166
812.701300	0.045275
812.891994	0.045190
813.082668	0.045467
813.273325	0.045463
813.463964	0.045472
813.654584	0.045875
813.845186	0.046038
814.035769	0.046043
814.226335	0.046245
814.416882	0.046384
814.607411	0.046572
814.797922	0.046494
814.988415	0.046619
815.178889	0.046597
815.369345	0.046554
815.559783	0.046619
815.750203	0.046783
815.940605	0.046737
816.130988	0.046470
816.321353	0.046415
816.511700	0.046610
816.702028	0.046662
816.892339	0.046762
817.082631	0.046922
817.272905	0.046897
817.463161	0.046757
817.653398	0.046681
817.843617	0.046947
818.033819	0.047065
818.224001	0.046826
818.414166	0.046741
818.604312	0.046824
818.794440	0.046588
818.984550	0.046619
819.174642	0.046851
819.364716	0.046996
819.554771	0.046921
819.744808	0.046792
819.934827	0.046908
820.124827	0.046747
820.314810	0.046581
820.504774	0.046868
820.694720	0.046884
820.884647	0.046849
821.074557	0.046630
821.264448	0.046784
821.454321	0.046889
821.644176	0.046980
821.834012	0.047440
822.023831	0.047779
822.213631	0.047682
822.403413	0.047794
822.593176	0.047732
822.782922	0.047852
822.972649	0.047762
823.162358	0.047778
823.352049	0.047713
823.541721	0.047557
823.731376	0.047322
823.921012	0.047044
824.110629	0.047079
824.300229	0.047095
824.489811	0.047342
824.679374	0.047591
824.868919	0.047812
825.058445	0.047912
825.247954	0.047918
825.437444	0.047862
825.626916	0.048219
825.816370	0.048100
826.005806	0.048250
826.195223	0.048184
826.384622	0.047958
826.574003	0.047744
826.763366	0.047754
826.952711	0.047681
827.142037	0.047852
827.331345	0.047770
827.520635	0.047991
827.709906	0.048082
827.899160	0.048099
828.088395	0.048064
828.277612	0.048233
828.466810	0.048167
828.655991	0.048233
828.845153	0.048213
829.034297	0.048266
829.223423	0.048007
829.412531	0.047872
829.601620	0.047840
829.790691	0.047899
829.979744	0.047869
830.168779	0.047976
830.357795	0.048135
830.546793	0.047998
830.735773	0.047865
830.924735	0.048030
831.113679	0.047814
831.302604	0.047920
831.491511	0.047925
831.680400	0.048046
831.869271	0.047919
832.058123	0.047719
832.246957	0.047851
832.435773	0.048097
832.624571	0.048066
832.813351	0.048461
833.002112	0.048637
833.190855	0.049048
833.379580	0.049004
833.568287	0.048937
833.756975	0.049175
833.945645	0.049316
834.134297	0.049309
834.322931	0.049552
834.511547	0.049541
834.700144	0.049516
834.888723	0.049184
835.077284	0.049418
835.265826	0.049767
835.454351	0.049654
835.642857	0.049775
835.831345	0.049580
836.019815	0.049470
836.208266	0.049570
836.396699	0.049775
836.585114	0.049816
836.773511	0.049724
836.961890	0.049567
837.150250	0.049672
837.338592	0.049712
837.526916	0.050168
837.715222	0.050331
837.903510	0.050440
838.091779	0.050390
838.280030	0.050748
838.468263	0.051036
838.656477	0.051426
838.844674	0.051706
839.032852	0.051864
839.221012	0.052011
839.409153	0.052293
839.597277	0.052090
839.785382	0.052166
839.973469	0.051985
840.161538	0.051887
840.349589	0.051787
840.537621	0.051778
840.725635	0.051753
840.913631	0.051617
841.101609	0.051527
841.289568	0.051968
841.477509	0.052257
841.665432	0.052502
841.853337	0.052547
842.041224	0.052956
842.229092	0.053155
842.416942	0.053270
842.604774	0.053343
842.792588	0.053620
842.980383	0.053731
843.168160	0.053407
843.355919	0.053305
843.543660	0.053534
843.731382	0.053286
843.919087	0.053203
844.106773	0.053368
844.294441	0.053503
844.482090	0.053194
844.669722	0.053299
844.857335	0.053518
845.044930	0.053882
845.232507	0.053953
845.420065	0.054258
845.607605	0.054387
845.795127	0.054624
845.982631	0.054763
846.170117	0.055238
846.357584	0.055187
846.545033	0.055529
846.732464	0.055532
846.919877	0.055440
847.107272	0.055450
847.294648	0.055569
847.482006	0.055413
847.669346	0.055449
847.856667	0.055483
848.043971	0.055604
848.231256	0.055623
848.418523	0.055616
848.605771	0.055790
848.793002	0.055904
848.980214	0.055972
849.167408	0.055869
849.354584	0.056211
849.541742	0.056353
849.728881	0.056442
849.916002	0.056513
850.103105	0.056723
850.290190	0.056802
850.477256	0.056889
850.664304	0.056912
850.851334	0.057089
851.038346	0.056934
851.225340	0.056998
851.412315	0.057237
851.599272	0.057278
851.786211	0.057247
851.973132	0.057425
852.160034	0.057475
852.346918	0.057827
852.533784	0.057985
852.720632	0.058122
852.907462	0.058141
853.094273	0.057937
853.281066	0.057954
853.467841	0.058062
853.654598	0.058025
853.841336	0.058141
854.028056	0.057695
854.214758	0.057740
854.401442	0.057545
854.588107	0.057727
854.774755	0.058023
854.961384	0.058189
855.147995	0.058006
855.334587	0.058101
855.521162	0.057825
855.707718	0.058181
855.894256	0.058409
856.080775	0.058846
856.267277	0.058711
856.453760	0.058634
856.640225	0.058600
856.826672	0.058919
857.013101	0.059380
857.199511	0.059896
857.385903	0.060022
857.572277	0.060033
857.758633	0.060099
857.944970	0.060075
858.131290	0.060349
858.317591	0.060521
858.503873	0.060863
858.690138	0.061027
858.876384	0.060994
859.062612	0.061522
859.248822	0.061637
859.435014	0.061754
859.621188	0.062288
859.807343	0.062393
859.993480	0.062579
860.179599	0.062573
860.365699	0.062182
860.551781	0.062517
860.737846	0.062283
860.923891	0.062347
861.109919	0.062544
861.295929	0.062523
861.481920	0.062443
861.667893	0.062181
861.853848	0.062448
862.039784	0.062776
862.225702	0.062712
862.411603	0.062887
862.597484	0.062934
862.783348	0.062792
862.969193	0.062475
863.155021	0.062790
863.340830	0.063052
863.526620	0.062787
863.712393	0.062877
863.898147	0.062719
864.083883	0.062599
864.269601	0.062673
864.455301	0.062629
864.640982	0.063017
864.826645	0.063010
865.012290	0.062981
865.197917	0.063093
865.383526	0.063177
865.569116	0.063368
865.754688	0.063473
865.940242	0.063341
866.125777	0.063333
866.311295	0.063209
866.496794	0.063304
866.682275	0.063549
866.867737	0.063854
867.053182	0.063854
867.238608	0.063831
867.424016	0.063815
867.609406	0.064189
867.794778	0.064271
867.980131	0.064393
868.165466	0.064103
868.350783	0.063852
868.536082	0.063720
868.721362	0.063675
868.906625	0.063765
869.091869	0.063788
869.277094	0.063832
869.462302	0.063901
869.647491	0.063869
869.832662	0.064046
870.017815	0.064094
870.202950	0.064114
870.388066	0.064207
870.573165	0.064409
870.758245	0.064537
870.943306	0.064215
871.128350	0.064498
871.313375	0.064537
871.498382	0.064684
871.683371	0.065144
871.868342	0.065173
872.053294	0.065203
872.238229	0.065144
872.423144	0.065070
872.608042	0.065326
872.792922	0.065346
872.977783	0.065724
873.162626	0.065867
873.347451	0.065789
873.532258	0.065936
873.717046	0.065984
873.901816	0.065950
874.086568	0.066241
874.271302	0.066609
874.456017	0.066632
874.640715	0.066280
874.825394	0.066103
875.010055	0.066155
875.194697	0.066231
875.379322	0.066625
875.563928	0.066703
875.748516	0.066563
875.933085	0.066403
876.117637	0.066562
876.302170	0.066845
876.486685	0.067056
876.671182	0.067081
876.855661	0.067258
877.040121	0.066944
877.224563	0.067118
877.408987	0.067205
877.593393	0.067099
877.777780	0.066992
877.962150	0.067118
878.146501	0.067001
878.330833	0.066904
878.515148	0.066849
878.699444	0.066952
878.883722	0.066899
879.067982	0.066989
879.252224	0.067465
879.436447	0.067403
879.620653	0.067322
879.804840	0.067678
879.989008	0.067783
880.173159	0.067709
880.357291	0.067638
880.541405	0.067838
880.725501	0.067725
880.909579	0.067590
881.093638	0.067653
881.277680	0.067664
881.461703	0.067651
881.645707	0.067858
881.829694	0.067867
882.013662	0.067818
882.197612	0.067513
882.381544	0.067764
882.565458	0.068091
882.749353	0.068263
882.933230	0.068423
883.117089	0.068543
883.300930	0.068479
883.484753	0.068359
883.668557	0.068725
883.852343	0.069288
884.036111	0.069407
884.219861	0.068742
884.403592	0.068791
884.587305	0.068693
884.771000	0.068805
884.954677	0.068957
885.138335	0.069211
885.321976	0.069125
885.505598	0.069180
885.689201	0.069319
885.872787	0.069715
886.056354	0.069753
886.239904	0.069779
886.423434	0.069431
886.606947	0.069312
886.790442	0.069632
886.973918	0.069578
887.157376	0.069191
887.340816	0.068963
887.524237	0.068808
887.707641	0.068986
887.891026	0.068917
888.074393	0.069349
888.257741	0.069464
888.441072	0.069186
888.624384	0.069007
888.807678	0.069216
888.990954	0.069285
889.174211	0.069355
889.357451	0.069173
889.540672	0.069471
889.723875	0.069543
889.907059	0.069013
890.090226	0.069085
890.273374	0.069461
890.456504	0.069406
890.639616	0.069394
890.822709	0.069592
891.005785	0.069720
891.188842	0.069627
891.371881	0.069400
891.554901	0.070269
891.737904	0.070286
891.920888	0.070329
892.103854	0.070576
892.286802	0.070676
892.469731	0.070454
892.652643	0.070401
892.835536	0.070388
893.018410	0.070294
893.201267	0.069717
893.384106	0.069432
893.566926	0.069415
893.749728	0.069010
893.932511	0.068936
894.115277	0.069194
894.298024	0.069418
894.480753	0.069283
894.663464	0.069171
894.846157	0.069329
895.028831	0.069532
895.211487	0.069400
895.394125	0.069364
895.576745	0.069395
895.759346	0.069303
895.941930	0.068935
896.124495	0.068996
896.307041	0.069098
896.489570	0.068984
896.672080	0.069032
896.854573	0.069264
897.037046	0.069278
897.219502	0.069215
897.401940	0.069321
897.584359	0.069479
897.766760	0.069643
897.949143	0.069657
898.131507	0.070223
898.313854	0.070311
898.496182	0.070197
898.678492	0.070439
898.860783	0.070364
899.043057	0.070194
899.225312	0.070090
899.407549	0.069841
899.589768	0.069895
899.771968	0.069448
899.954151	0.069233
900.136315	0.069099
900.318461	0.069256
900.500588	0.069375
900.682698	0.069414
900.864789	0.069261
901.046862	0.069269
901.228917	0.068830
901.410953	0.068757
901.592971	0.068435
901.774972	0.067981
901.956953	0.067467
902.138917	0.067052
902.320862	0.066979
902.502790	0.067105
902.684699	0.066883
902.866589	0.067326
903.048462	0.067072
903.230316	0.067196
903.412152	0.067191
903.593970	0.067263
903.775770	0.067344
903.957551	0.067250
904.139314	0.067287
904.321059	0.067350
904.502786	0.066679
904.684494	0.066916
904.866185	0.066841
905.047857	0.066808
905.229510	0.066856
905.411146	0.066574
905.592763	0.066386
905.774363	0.066198
905.955943	0.066343
906.137506	0.066188
906.319051	0.065928
906.500577	0.065894
906.682085	0.065965
906.863575	0.065829
907.045046	0.066190
907.226500	0.065772
907.407935	0.065245
907.589352	0.064741
907.770750	0.064617
907.952131	0.064411
908.133493	0.064483
908.314837	0.064219
908.496163	0.063851
908.677470	0.063592
908.858760	0.063444
909.040031	0.063651
909.221284	0.063583
909.402518	0.063698
909.583735	0.063500
909.764933	0.063147
909.946113	0.062778
910.127275	0.062404
910.308418	0.061994
910.489544	0.062049
910.670651	0.061696
910.851740	0.061668
911.032810	0.061632
911.213863	0.061794
911.394897	0.061668
911.575913	0.061814
911.756911	0.062322
911.937890	0.062622
912.118851	0.062446
912.299794	0.062877
912.480719	0.062927
912.661626	0.063162
912.842514	0.063048
913.023384	0.062788
913.204236	0.062513
913.385070	0.062084
913.565886	0.061832
913.746683	0.061898
913.927462	0.061611
914.108223	0.061677
914.288965	0.061259
914.469690	0.060635
914.650396	0.060423
914.831084	0.060994
915.011754	0.061175
915.192405	0.061191
915.373038	0.061232
915.553653	0.060993
915.734250	0.060526
915.914829	0.060542
916.095389	0.060938
916.275931	0.061300
916.456455	0.060854
916.636961	0.060418
916.817448	0.060085
916.997917	0.059910
917.178368	0.059561
917.358801	0.059534
917.539216	0.059430
917.719612	0.059440
917.899990	0.059443
918.080350	0.059221
918.260692	0.059082
918.441015	0.058974
918.621320	0.058912
918.801607	0.058658
918.981876	0.058154
919.162127	0.057947
919.342359	0.057573
919.522573	0.057200
919.702769	0.057367
919.882947	0.057637
920.063106	0.057236
920.243247	0.057101
920.423370	0.056950
920.603475	0.057449
920.783562	0.057402
920.963630	0.057366
921.143680	0.056951
921.323712	0.056466
921.503725	0.056054
921.683721	0.056571
921.863698	0.056617
922.043657	0.056694
922.223598	0.055874
922.403520	0.055476
922.583424	0.054906
922.763311	0.054882
922.943178	0.054833
923.123028	0.054455
923.302859	0.053729
923.482673	0.053092
923.662467	0.053336
923.842244	0.053301
924.022003	0.053549
924.201743	0.053951
924.381465	0.053902
924.561169	0.053643
924.740854	0.053642
924.920522	0.053352
925.100171	0.053182
925.279802	0.052586
925.459414	0.052807
925.639009	0.052528
925.818585	0.052100
925.998143	0.051905
926.177683	0.051978
926.357205	0.051567
926.536708	0.051533
926.716193	0.051349
926.895660	0.051326
927.075109	0.051325
927.254539	0.050979
927.433951	0.050928
927.613345	0.050800
927.792721	0.050128
927.972079	0.050041
928.151418	0.049922
928.330739	0.049691
928.510042	0.049130
928.689327	0.047731
928.868593	0.047197
929.047841	0.046862
929.227071	0.046512
929.406283	0.046695
929.585476	0.046267
929.764652	0.045635
929.943809	0.045305
930.122948	0.045657
930.302068	0.046512
930.481171	0.046192
930.660255	0.045648
930.839321	0.044698
931.018369	0.043690
931.197398	0.043816
931.376409	0.044330
931.555402	0.044153
931.734377	0.043267
931.913334	0.043359
932.092272	0.043388
932.271192	0.043507
932.450094	0.043824
932.628978	0.044194
932.807844	0.043580
932.986691	0.042765
933.165520	0.042206
933.344331	0.042267
933.523123	0.040900
933.701898	0.040335
933.880654	0.039972
934.059392	0.039080
934.238111	0.038305
934.416813	0.038399
934.595496	0.038153
934.774161	0.038304
934.952808	0.037124
935.131437	0.036381
935.310047	0.036469
935.488639	0.035830
935.667213	0.035537
935.845769	0.035977
936.024306	0.035388
936.202825	0.035319
936.381326	0.034831
936.559809	0.035638
936.738274	0.036512
936.916720	0.036401
937.095148	0.036283
937.273558	0.036451
937.451950	0.035572
937.630323	0.035015
937.808678	0.034807
937.987015	0.034624
938.165334	0.034784
938.343635	0.033842
938.521917	0.033412
938.700181	0.033002
938.878427	0.033506
939.056655	0.033553
939.234864	0.033615
939.413055	0.032998
939.591228	0.032354
939.769383	0.031217
939.947519	0.031968
940.125638	0.031718
940.303738	0.031853
940.481820	0.030643
940.659883	0.029948
940.837929	0.030177
941.015956	0.030934
941.193965	0.031795
941.371955	0.032175
941.549928	0.031454
941.727882	0.030465
941.905818	0.030573
942.083736	0.030980
942.261636	0.031204
942.439517	0.031297
942.617380	0.030690
942.795225	0.029293
942.973052	0.027976
943.150860	0.027470
943.328651	0.027770
943.506423	0.026487
943.684176	0.026547
943.861912	0.025845
944.039629	0.025995
944.217328	0.024832
944.395009	0.026048
944.572672	0.026483
944.750317	0.026537
944.927943	0.026696
945.105551	0.027659
945.283141	0.027435
945.460712	0.028604
945.638265	0.027232
945.815801	0.027356
945.993317	0.026964
946.170816	0.026822
946.348297	0.025923
946.525759	0.025275
946.703203	0.025149
946.880629	0.025467
947.058036	0.024650
947.235425	0.026592
947.412797	0.027714
947.590149	0.026441
947.767484	0.026707
947.944800	0.027203
948.122099	0.026614
948.299379	0.026448
948.476640	0.025625
948.653884	0.025458
948.831109	0.024062
949.008316	0.023306
949.185505	0.024854
949.362676	0.024344
949.539828	0.024566
949.716962	0.024895
949.894078	0.024537
950.071176	0.025232
950.248256	0.026239
950.425317	0.026428
950.602360	0.025406
950.779385	0.024321
950.956391	0.024494
951.133380	0.024516
951.310350	0.025880
951.487302	0.025861
951.664235	0.025228
951.841151	0.025374
952.018048	0.024534
952.194927	0.025388
952.371788	0.025039
952.548631	0.025538
952.725455	0.026580
952.902261	0.026171
953.079049	0.027635
953.255819	0.026222
953.432570	0.024895
953.609303	0.025417
953.786018	0.025924
953.962715	0.026166
954.139394	0.025169
954.316054	0.023200
954.492696	0.023691
954.669320	0.020672
954.845926	0.022443
955.022513	0.022483
955.199083	0.021167
955.375634	0.021399
955.552166	0.021989
955.728681	0.023094
955.905177	0.023549
956.081655	0.022896
956.258115	0.025275
956.434557	0.024424
956.610980	0.023891
956.787385	0.026338
956.963772	0.025739
957.140141	0.026577
957.316492	0.026757
957.492824	0.029010
957.669138	0.028530
957.845434	0.027761
958.021712	0.030035
958.197971	0.031305
958.374212	0.028208
958.550435	0.027566
958.726640	0.026359
958.902826	0.026983
959.078995	0.026379
959.255145	0.027387
959.431277	0.029470
959.607390	0.027699
959.783486	0.028474
959.959563	0.031061
960.135622	0.031462
960.311662	0.032652
960.487685	0.032757
960.663689	0.031166
960.839675	0.031377
961.015643	0.029039
961.191593	0.030344
961.367524	0.031127
961.543437	0.030331
961.719332	0.029876
961.895209	0.030243
962.071067	0.028490
962.246907	0.028349
962.422730	0.030104
962.598533	0.031804
962.774319	0.032505
962.950086	0.032303
963.125835	0.030977
963.301566	0.034036
963.477279	0.031500
963.652973	0.032523
963.828650	0.032887
964.004308	0.031135
964.179947	0.031822
964.355569	0.032662
964.531172	0.033845
964.706757	0.035099
964.882324	0.033301
965.057873	0.036074
965.233403	0.037298
965.408916	0.039300
965.584410	0.039251
965.759885	0.037734
965.935343	0.035695
966.110782	0.032362
966.286203	0.033511
966.461606	0.035862
966.636991	0.036182
966.812357	0.034933
966.987705	0.033236
967.163035	0.032641
967.338347	0.033987
967.513641	0.035876
967.688916	0.038413
967.864173	0.038314
968.039412	0.035278
968.214632	0.034601
968.389835	0.035708
968.565019	0.036034
968.740185	0.039504
968.915333	0.041665
969.090462	0.038907
969.265573	0.037405
969.440667	0.037557
969.615741	0.038283
969.790798	0.038907
969.965836	0.037997
970.140856	0.039629
970.315858	0.036594
970.490842	0.036361
970.665808	0.040041
970.840755	0.041847
971.015684	0.041135
971.190595	0.043390
971.365487	0.044504
971.540362	0.045003
971.715218	0.045055
971.890056	0.047840
972.064875	0.045480
972.239677	0.042282
972.414460	0.042250
972.589225	0.042681
972.763972	0.040599
972.938700	0.039681
973.113411	0.038886
973.288103	0.039851
973.462777	0.037964
973.637432	0.037300
973.812070	0.038980
973.986689	0.037066
974.161290	0.038691
974.335873	0.038741
974.510437	0.038349
974.684984	0.039242
974.859512	0.037467
975.034022	0.039473
975.208513	0.040325
975.382987	0.041782
975.557442	0.042857
975.731879	0.041701
975.906298	0.040767
976.080698	0.041572
976.255080	0.042950
976.429445	0.042170
976.603790	0.039654
976.778118	0.039876
976.952427	0.036396
977.126719	0.037039
977.300992	0.037837
977.475246	0.038646
977.649483	0.037150
977.823701	0.034107
977.997901	0.034154
978.172083	0.035243
978.346247	0.033896
978.520392	0.035890
978.694519	0.036467
978.868628	0.036670
979.042719	0.038056
979.216791	0.037786
979.390845	0.038231
979.564882	0.040510
979.738899	0.040208
979.912899	0.041882
980.086880	0.041169
980.260843	0.040461
980.434788	0.039811
980.608715	0.039858
980.782623	0.043228
980.956514	0.045073
981.130386	0.041692
981.304240	0.040587
981.478075	0.039516
981.651892	0.040655
981.825692	0.040592
981.999472	0.039618
982.173235	0.039148
982.346980	0.038002
982.520706	0.036720
982.694414	0.039068
982.868104	0.040820
983.041775	0.041178
983.215428	0.039548
983.389064	0.040306
983.562680	0.043515
983.736279	0.042505
983.909860	0.040131
984.083422	0.040911
984.256966	0.040288
984.430491	0.040476
984.603999	0.040794
984.777488	0.041179
984.950959	0.041358
985.124412	0.038181
985.297847	0.038969
985.471263	0.041644
985.644661	0.040476
985.818041	0.040565
985.991403	0.038689
986.164747	0.037679
986.338072	0.037007
986.511379	0.035693
986.684668	0.037972
986.857938	0.038749
987.031191	0.036511
987.204425	0.036089
987.377641	0.036449
987.550839	0.038519
987.724018	0.037880
987.897179	0.038275
988.070322	0.037333
988.243447	0.035440
988.416554	0.034543
988.589642	0.034761
988.762712	0.035470
988.935764	0.035538
989.108798	0.035095
989.281813	0.035960
989.454811	0.037421
989.627790	0.038536
989.800751	0.040183
989.973693	0.039492
990.146617	0.039753
990.319524	0.040779
990.492412	0.040987
990.665281	0.040057
990.838133	0.039795
991.010966	0.039491
991.183781	0.040935
991.356578	0.039250
991.529356	0.039442
991.702117	0.038819
991.874859	0.038066
992.047583	0.038418
992.220288	0.037649
992.392976	0.036881
992.565645	0.035536
992.738296	0.035164
992.910929	0.037082
993.083543	0.035807
993.256139	0.036405
993.428718	0.036192
993.601277	0.034931
993.773819	0.037301
993.946342	0.038048
994.118848	0.039116
994.291335	0.038327
994.463803	0.036356
994.636254	0.038471
994.808686	0.038784
994.981100	0.038458
995.153496	0.039099
995.325874	0.038648
995.498233	0.039995
995.670574	0.038239
995.842897	0.037422
996.015202	0.036347
996.187488	0.037206
996.359757	0.038270
996.532007	0.038186
996.704239	0.035694
996.876452	0.034114
997.048648	0.035700
997.220825	0.037147
997.392984	0.037527
997.565124	0.038885
997.737247	0.037235
997.909351	0.037001
998.081437	0.037832
998.253505	0.039040
998.425554	0.040445
998.597586	0.037148
998.769599	0.036185
998.941594	0.035248
999.113571	0.033976
999.285529	0.034311
999.457469	0.033042
999.629391	0.033689
999.801295	0.033616
999.973181	0.032043
1000.145048	0.030922
1000.316897	0.032481
1000.488728	0.034796
1000.660541	0.035987
1000.832335	0.036544
1001.004111	0.037476
1001.175869	0.034236
1001.347609	0.035106
1001.519331	0.035998
1001.691034	0.038021
1001.862719	0.036331
1002.034386	0.035246
1002.206035	0.035897
1002.377665	0.035953
1002.549277	0.034678
1002.720871	0.036339
1002.892447	0.035166
1003.064004	0.033976
1003.235544	0.035969
1003.407065	0.037649
1003.578568	0.037909
1003.750052	0.037677
1003.921519	0.036408
1004.092967	0.037353
1004.264397	0.037770
1004.435809	0.038457
1004.607202	0.040670
1004.778577	0.038792
1004.949934	0.037991
1005.121273	0.037727
1005.292594	0.037014
1005.463896	0.038938
1005.635180	0.037862
1005.806446	0.038670
1005.977694	0.039920
1006.148923	0.036924
1006.320135	0.037864
1006.491328	0.038677
1006.662503	0.039649
1006.833659	0.040815
1007.004798	0.039971
1007.175918	0.041321
1007.347020	0.041151
1007.518103	0.041356
1007.689169	0.042254
1007.860216	0.040498
1008.031245	0.037751
1008.202256	0.036218
1008.373248	0.036216
1008.544223	0.035040
1008.715179	0.033835
1008.886117	0.032369
1009.057036	0.030833
1009.227938	0.032276
1009.398821	0.032712
1009.569686	0.033865
1009.740533	0.033680
1009.911361	0.033115
1010.082172	0.033611
1010.252964	0.034667
1010.423738	0.035505
1010.594493	0.034655
1010.765231	0.033753
1010.935950	0.033794
1011.106651	0.034161
1011.277334	0.035365
1011.447998	0.036850
1011.618645	0.036027
1011.789273	0.033824
1011.959882	0.034457
1012.130474	0.036567
1012.301048	0.036713
1012.471603	0.037009
1012.642140	0.037288
1012.812658	0.035349
1012.983159	0.033072
1013.153641	0.033811
1013.324105	0.036557
1013.494551	0.038208
1013.664979	0.037314
1013.835388	0.037729
1014.005779	0.037527
1014.176152	0.038410
1014.346507	0.039125
1014.516843	0.038750
1014.687162	0.040795
1014.857462	0.040056
1015.027744	0.037975
1015.198007	0.037842
1015.368252	0.037801
1015.538480	0.038154
1015.708689	0.038365
1015.878879	0.037922
1016.049052	0.039126
1016.219206	0.037430
1016.389342	0.037064
1016.559460	0.036016
1016.729559	0.037555
1016.899641	0.037873
1017.069704	0.036533
1017.239749	0.034367
1017.409775	0.035174
1017.579784	0.033597
1017.749774	0.034151
1017.919746	0.034125
1018.089700	0.036744
1018.259635	0.034340
1018.429553	0.033734
1018.599452	0.033593
1018.769333	0.034431
1018.939195	0.034294
1019.109040	0.035652
1019.278866	0.035613
1019.448674	0.034422
1019.618464	0.033342
1019.788235	0.034701
1019.957989	0.034160
1020.127724	0.033995
1020.297441	0.034416
1020.467139	0.033935
1020.636820	0.033405
1020.806482	0.032136
1020.976126	0.033971
1021.145752	0.032936
1021.315359	0.034197
1021.484948	0.034871
1021.654519	0.036428
1021.824072	0.035903
1021.993607	0.035620
1022.163123	0.035834
1022.332621	0.037200
1022.502101	0.036058
1022.671563	0.037335
1022.841007	0.035085
1023.010432	0.034547
1023.179839	0.034279
1023.349228	0.033330
1023.518598	0.035086
1023.687951	0.034316
1023.857285	0.034095
1024.026601	0.033917
1024.195899	0.034807
1024.365178	0.034275
1024.534439	0.034646
1024.703682	0.033572
1024.872907	0.033815
1025.042114	0.034328
1025.211302	0.034897
1025.380472	0.033982
1025.549624	0.033707
1025.718758	0.031764
1025.887873	0.033275
1026.056970	0.033252
1026.226049	0.034168
1026.395110	0.033603
1026.564153	0.032582
1026.733177	0.031807
1026.902183	0.032587
1027.071171	0.032125
1027.240141	0.030657
1027.409092	0.031982
1027.578026	0.032361
1027.746940	0.031834
1027.915837	0.032857
1028.084716	0.033444
1028.253576	0.033335
1028.422418	0.033036
1028.591242	0.033657
1028.760048	0.035475
1028.928835	0.032712
1029.097604	0.033334
1029.266355	0.034590
1029.435088	0.034579
1029.603803	0.034601
1029.772499	0.036319
1029.941177	0.037129
1030.109837	0.037795
1030.278478	0.037085
1030.447102	0.037807
1030.615707	0.036317
1030.784294	0.035438
1030.952863	0.035804
1031.121413	0.035073
1031.289945	0.034907
1031.458460	0.034369
1031.626955	0.034213
1031.795433	0.033622
1031.963892	0.034941
1032.132334	0.035652
1032.300756	0.035364
1032.469161	0.036219
1032.637548	0.034549
1032.805916	0.035113
1032.974266	0.033643
1033.142598	0.032786
1033.310911	0.032969
1033.479207	0.030686
1033.647484	0.030355
1033.815743	0.029046
1033.983983	0.027591
1034.152206	0.028850
1034.320410	0.029532
1034.488596	0.030244
1034.656764	0.029405
1034.824914	0.028570
1034.993045	0.030414
1035.161158	0.029873
1035.329253	0.031962
1035.497330	0.033271
1035.665388	0.033401
1035.833428	0.031852
1036.001450	0.032476
1036.169454	0.032748
1036.337440	0.035197
1036.505407	0.034480
1036.673356	0.036475
1036.841287	0.036640
1037.009200	0.036086
1037.177094	0.036814
1037.344970	0.036404
1037.512828	0.035741
1037.680668	0.036261
1037.848489	0.035903
1038.016293	0.034902
1038.184078	0.034887
1038.351845	0.034349
1038.519593	0.033960
1038.687324	0.032540
1038.855036	0.031363
1039.022730	0.032144
1039.190406	0.031512
1039.358063	0.030720
1039.525702	0.032706
1039.693323	0.029902
1039.860926	0.030225
1040.028511	0.031121
1040.196077	0.031124
1040.363625	0.031604
1040.531155	0.030583
1040.698667	0.031795
1040.866161	0.032498
1041.033636	0.031601
1041.201093	0.034013
1041.368532	0.032967
1041.535952	0.031618
1041.703355	0.031863
1041.870739	0.033033
1042.038105	0.033764
1042.205452	0.035180
1042.372782	0.035339
1042.540093	0.034682
1042.707386	0.033801
1042.874661	0.035459
1043.041918	0.034795
1043.209156	0.033623
1043.376376	0.033514
1043.543578	0.033633
1043.710762	0.032029
1043.877927	0.031352
1044.045074	0.029836
1044.212203	0.029639
1044.379314	0.026964
1044.546407	0.027645
1044.713481	0.027526
1044.880537	0.028314
1045.047575	0.027690
1045.214595	0.026401
1045.381596	0.027749
1045.548579	0.030249
1045.715544	0.030059
1045.882491	0.031073
1046.049420	0.030099
1046.216330	0.030063
1046.383222	0.029350
1046.550096	0.029755
1046.716951	0.031840
1046.883789	0.030990
1047.050608	0.029651
1047.217409	0.029105
1047.384192	0.029315
1047.550956	0.030955
1047.717703	0.032197
1047.884431	0.032325
1048.051140	0.033716
1048.217832	0.033016
1048.384505	0.032714
1048.551161	0.033034
1048.717798	0.033478
1048.884416	0.032210
1049.051017	0.031745
1049.217599	0.030150
1049.384163	0.030777
1049.550709	0.029693
1049.717237	0.031895
1049.883746	0.032935
1050.050237	0.033508
1050.216710	0.033811
1050.383165	0.034452
1050.549601	0.033836
1050.716019	0.035633
1050.882420	0.033849
1051.048801	0.034592
1051.215165	0.032174
1051.381510	0.030952
1051.547837	0.031959
1051.714146	0.032031
1051.880437	0.033169
1052.046709	0.034218
1052.212964	0.034932
1052.379200	0.034316
1052.545417	0.033569
1052.711617	0.032493
1052.877798	0.033778
1053.043961	0.032339
1053.210106	0.031095
1053.376233	0.031520
1053.542341	0.031442
1053.708432	0.029510
1053.874504	0.029485
1054.040557	0.026963
1054.206593	0.028322
1054.372610	0.027667
1054.538609	0.027285
1054.704590	0.026348
1054.870553	0.026008
1055.036497	0.027155
1055.202424	0.027795
1055.368331	0.028210
1055.534221	0.029260
1055.700093	0.028527
1055.865946	0.026971
1056.031781	0.026377
1056.197598	0.029818
1056.363397	0.028134
1056.529177	0.026837
1056.694939	0.028641
1056.860683	0.029534
1057.026409	0.030112
1057.192116	0.031065
1057.357806	0.032343
1057.523477	0.033789
1057.689130	0.033894
1057.854764	0.032616
1058.020381	0.033369
1058.185979	0.032074
1058.351559	0.031994
1058.517120	0.031347
1058.682664	0.032579
1058.848189	0.032119
1059.013696	0.031176
1059.179185	0.030018
1059.344656	0.032479
1059.510108	0.032317
1059.675542	0.032255
1059.840958	0.032183
1060.006356	0.033344
1060.171735	0.031265
1060.337096	0.030655
1060.502439	0.031318
1060.667764	0.031239
1060.833071	0.031207
1060.998359	0.031188
1061.163629	0.030303
1061.328881	0.029214
1061.494115	0.027556
1061.659330	0.028697
1061.824527	0.028319
1061.989706	0.026989
1062.154867	0.026379
1062.320010	0.027194
1062.485134	0.026631
1062.650240	0.028237
1062.815328	0.030257
1062.980398	0.032255
1063.145449	0.030999
1063.310482	0.033322
1063.475497	0.033958
1063.640494	0.032658
1063.805473	0.032335
1063.970433	0.032475
1064.135375	0.030947
1064.300299	0.028665
1064.465204	0.029208
1064.630092	0.030249
1064.794961	0.027642
1064.959812	0.028257
1065.124645	0.030341
1065.289459	0.029709
1065.454256	0.028141
1065.619034	0.027398
1065.783793	0.027673
1065.948535	0.025621
1066.113258	0.023949
1066.277964	0.025722
1066.442651	0.028597
1066.607319	0.026925
1066.771970	0.026835
1066.936602	0.026279
1067.101216	0.028385
1067.265812	0.026677
1067.430389	0.024920
1067.594949	0.024547
1067.759490	0.024432
1067.924013	0.021156
1068.088518	0.021246
1068.253004	0.021335
1068.417472	0.022840
1068.581922	0.020834
1068.746354	0.024118
1068.910768	0.025314
1069.075163	0.026358
1069.239540	0.025255
1069.403899	0.023275
1069.568240	0.025297
1069.732562	0.025512
1069.896866	0.025030
1070.061152	0.024723
1070.225420	0.022297
1070.389670	0.020663
1070.553901	0.022689
1070.718114	0.024138
1070.882309	0.025303
1071.046486	0.023527
1071.210644	0.021896
1071.374784	0.020157
1071.538906	0.021526
1071.703010	0.023713
1071.867096	0.029272
1072.031163	0.029453
1072.195212	0.028350
1072.359243	0.030391
1072.523256	0.030072
1072.687250	0.031031
1072.851226	0.032462
1073.015184	0.032798
1073.179124	0.030321
1073.343045	0.027419
1073.506949	0.025285
1073.670834	0.025610
1073.834701	0.024102
1073.998549	0.025526
1074.162380	0.026722
1074.326192	0.026498
1074.489986	0.028461
1074.653761	0.030044
1074.817519	0.030018
1074.981258	0.028491
1075.144979	0.026406
1075.308682	0.026901
1075.472367	0.026422
1075.636033	0.024488
1075.799681	0.025784
1075.963311	0.022267
1076.126923	0.021414
1076.290516	0.019881
1076.454092	0.020021
1076.617649	0.019514
1076.781187	0.020708
1076.944708	0.022348
1077.108210	0.023252
1077.271695	0.022200
1077.435160	0.022341
1077.598608	0.023271
1077.762038	0.023310
1077.925449	0.025933
1078.088842	0.030708
1078.252217	0.029156
1078.415573	0.025746
1078.578912	0.025572
1078.742232	0.024669
1078.905534	0.025782
1079.068817	0.025155
1079.232083	0.026567
1079.395330	0.024927
1079.558559	0.021086
1079.721770	0.020868
1079.884962	0.020201
1080.048136	0.019691
1080.211293	0.020004
1080.374430	0.020031
1080.537550	0.020127
1080.700651	0.020349
1080.863735	0.020643
1081.026800	0.023328
1081.189846	0.023229
1081.352875	0.025098
1081.515885	0.025122
1081.678877	0.025305
1081.841851	0.024769
1082.004807	0.024589
1082.167744	0.024196
1082.330663	0.023663
1082.493564	0.021928
1082.656447	0.021999
1082.819312	0.022018
1082.982158	0.023008
1083.144986	0.026152
1083.307796	0.026806
1083.470587	0.027068
1083.633361	0.026386
1083.796116	0.027436
1083.958853	0.026883
1084.121571	0.031396
1084.284272	0.030369
1084.446954	0.028722
1084.609618	0.027690
1084.772264	0.027169
1084.934892	0.029174
1085.097501	0.030815
1085.260092	0.031421
1085.422665	0.033305
1085.585220	0.029417
1085.747756	0.030379
1085.910274	0.030424
1086.072774	0.029098
1086.235256	0.028049
1086.397720	0.024583
1086.560165	0.023061
1086.722592	0.020746
1086.885001	0.016826
1087.047392	0.018611
1087.209764	0.020548
1087.372119	0.021851
1087.534455	0.023441
1087.696772	0.025282
1087.859072	0.026094
1088.021353	0.028572
1088.183616	0.030515
1088.345861	0.033711
1088.508088	0.028626
1088.670296	0.027255
1088.832486	0.027507
1088.994658	0.023988
1089.156812	0.021143
1089.318948	0.024922
1089.481065	0.021538
1089.643164	0.021668
1089.805245	0.020880
1089.967308	0.022382
1090.129352	0.018765
1090.291378	0.017133
1090.453386	0.020131
1090.615376	0.021194
1090.777347	0.017258
1090.939301	0.019155
1091.101236	0.019042
1091.263153	0.019724
1091.425051	0.021813
1091.586932	0.023440
1091.748794	0.026383
1091.910638	0.026112
1092.072463	0.025637
1092.234271	0.025806
1092.396060	0.025810
1092.557831	0.023572
1092.719584	0.023924
1092.881319	0.021572
1093.043035	0.022104
1093.204733	0.017825
1093.366413	0.016359
1093.528075	0.016867
1093.689718	0.015400
1093.851343	0.012476
1094.012950	0.014032
1094.174539	0.013515
1094.336110	0.014671
1094.497662	0.015794
1094.659196	0.017211
1094.820712	0.018163
1094.982210	0.019887
1095.143689	0.023155
1095.305151	0.026760
1095.466594	0.024581
1095.628018	0.027115
1095.789425	0.028193
1095.950813	0.027240
1096.112183	0.028778
1096.273535	0.025712
1096.434869	0.025719
1096.596184	0.025440
1096.757482	0.023907
1096.918761	0.025412
1097.080021	0.023697
1097.241264	0.025223
1097.402488	0.023030
1097.563694	0.022490
1097.724882	0.023184
1097.886052	0.021674
1098.047203	0.022070
1098.208336	0.022639
1098.369451	0.024386
1098.530548	0.020207
1098.691627	0.017858
1098.852687	0.024034
1099.013729	0.025293
1099.174753	0.027291
1099.335758	0.025982
1099.496746	0.023228
1099.657715	0.020721
1099.818666	0.019226
1099.979599	0.021301
1100.140513	0.022664
1100.301409	0.019393
1100.462287	0.015054
1100.623147	0.012964
1100.783989	0.014663
1100.944812	0.016878
1101.105617	0.019994
1101.266404	0.018948
1101.427173	0.022375
1101.587923	0.021025
1101.748656	0.020440
1101.909370	0.021483
1102.070066	0.025585
1102.230743	0.026472
1102.391403	0.023237
1102.552044	0.021550
1102.712667	0.024381
1102.873271	0.023086
1103.033858	0.020538
1103.194426	0.019521
1103.354976	0.019443
1103.515508	0.017997
1103.676021	0.015895
1103.836517	0.019422
1103.996994	0.018900
1104.157453	0.015201
1104.317893	0.013412
1104.478316	0.015511
1104.638720	0.015429
1104.799106	0.016213
1104.959474	0.017749
1105.119823	0.019250
1105.280155	0.018396
1105.440468	0.019200
1105.600763	0.020333
1105.761039	0.022424
1105.921298	0.021223
1106.081538	0.023500
1106.241760	0.026531
1106.401964	0.026209
1106.562149	0.024938
1106.722316	0.024631
1106.882465	0.021566
1107.042596	0.025261
1107.202709	0.021918
1107.362803	0.021720
1107.522879	0.021618
1107.682937	0.021836
1107.842977	0.019782
1108.002999	0.020555
1108.163002	0.017869
1108.322987	0.019615
1108.482954	0.013079
1108.642902	0.014507
1108.802833	0.017945
1108.962745	0.014674
1109.122639	0.013153
1109.282515	0.010574
1109.442372	0.009509
1109.602211	0.009072
1109.762032	0.011035
1109.921835	0.012522
1110.081620	0.013399
1110.241386	0.008454
1110.401134	0.009806
1110.560864	0.008381
1110.720576	0.010884
1110.880269	0.010031
1111.039945	0.013385
1111.199602	0.016028
1111.359240	0.017056
1111.518861	0.018670
1111.678463	0.021715
1111.838047	0.021166
1111.997613	0.021008
1112.157161	0.018230
1112.316690	0.021528
1112.476202	0.020763
1112.635695	0.016174
1112.795169	0.015990
1112.954626	0.014803
1113.114064	0.013757
1113.273484	0.013910
1113.432886	0.013259
1113.592270	0.014305
1113.751635	0.014914
1113.910983	0.017685
1114.070312	0.017628
1114.229622	0.014103
1114.388915	0.016024
1114.548189	0.013300
1114.707445	0.017664
1114.866683	0.020469
1115.025903	0.024297
1115.185104	0.020967
1115.344287	0.017745
1115.503452	0.014862
1115.662599	0.016877
1115.821727	0.013746
1115.980838	0.015335
1116.139930	0.010396
1116.299004	0.009845
1116.458059	0.005941
1116.617097	0.004098
1116.776116	0.006517
1116.935117	0.007825
1117.094099	0.010648
1117.253064	0.010445
1117.412010	0.013538
1117.570938	0.013064
1117.729848	0.011627
1117.888740	0.011702
1118.047613	0.016267
1118.206468	0.015281
1118.365305	0.014469
1118.524124	0.009138
1118.682924	0.009596
1118.841707	0.006010
1119.000471	0.012483
1119.159216	0.009341
1119.317944	0.009903
1119.476653	0.011420
1119.635344	0.008649
1119.794017	0.013144
1119.952672	0.015044
1120.111308	0.013046
1120.269927	0.011910
1120.428527	0.010979
1120.587108	0.017348
1120.745672	0.014400
1120.904217	0.012138
1121.062744	0.012966
1121.221253	0.011263
1121.379744	0.014438
1121.538216	0.016529
1121.696671	0.021748
1121.855107	0.018611
1122.013524	0.014346
1122.171924	0.016314
1122.330305	0.015553
1122.488668	0.018569
1122.647013	0.018201
1122.805340	0.018103
1122.963648	0.013241
1123.121938	0.011308
1123.280210	0.011856
1123.438464	0.012416
1123.596700	0.014836
1123.754917	0.015148
1123.913116	0.011975
1124.071297	0.011704
1124.229459	0.009224
1124.387604	0.013242
1124.545730	0.011173
1124.703838	0.007838
1124.861928	0.010784
1125.019999	0.008805
1125.178052	0.004396
1125.336088	0.007085
1125.494104	0.005797
1125.652103	0.015147
1125.810083	0.009116
1125.968045	0.010712
1126.125989	0.010032
1126.283915	0.005716
1126.441823	0.006674
1126.599712	0.005787
1126.757583	0.008060
1126.915436	0.005903
1127.073270	-0.006812
1127.231087	-0.002478
1127.388885	0.000614
1127.546665	0.007064
1127.704426	0.009236
1127.862170	0.013500
1128.019895	0.023487
1128.177602	0.020705
1128.335291	0.028888
1128.492961	0.033956
1128.650614	0.037583
1128.808248	0.032475
1128.965864	0.028628
1129.123461	0.031071
1129.281041	0.022146
1129.438602	0.018166
1129.596145	0.021530
1129.753670	0.018407
1129.911176	0.019611
1130.068665	0.020167
1130.226135	0.023087
1130.383587	0.022979
1130.541020	0.012375
1130.698436	0.015577
1130.855833	0.015907
1131.013212	0.013694
1131.170573	0.013928
1131.327915	0.013898
1131.485239	0.008008
1131.642545	0.006542
1131.799833	0.002762
1131.957103	0.008833
1132.114354	0.007314
1132.271588	0.004276
1132.428803	0.005975
1132.585999	0.005392
1132.743178	0.004274
1132.900338	0.006303
1133.057480	0.002602
1133.214604	0.009358
1133.371710	0.008340
1133.528797	0.010458
1133.685866	0.009685
1133.842917	0.003487
1133.999950	0.007418
1134.156964	0.010520
1134.313960	0.007984
1134.470938	0.016504
1134.627898	0.018601
1134.784840	0.020596
1134.941763	0.029195
1135.098668	0.033553
1135.255555	0.034023
1135.412424	0.030679
1135.569274	0.026712
1135.726107	0.024446
1135.882921	0.021509
1136.039716	0.013865
1136.196494	0.018661
1136.353253	0.008075
1136.509995	0.004189
1136.666717	0.002508
1136.823422	0.000108
1136.980109	0.005193
1137.136777	0.010655
1137.293427	0.004617
1137.450059	0.011590
1137.606672	0.006144
1137.763267	0.007749
1137.919844	0.010685
1138.076403	0.011548
1138.232944	0.014585
1138.389466	0.015296
1138.545971	0.011735
1138.702457	0.020565
1138.858924	0.020110
1139.015374	0.020927
1139.171805	0.023486
1139.328218	0.021629
1139.484613	0.024056
1139.640990	0.021487
1139.797348	0.018280
1139.953688	0.018109
1140.110010	0.008347
1140.266314	0.003259
1140.422600	-0.001143
1140.578867	-0.002611
1140.735116	0.003191
1140.891347	-0.001210
1141.047559	0.005772
1141.203754	0.002903
1141.359930	0.008256
1141.516088	0.009651
1141.672228	0.013050
1141.828349	0.014503
1141.984452	0.018019
1142.140537	0.013365
1142.296604	0.015378
1142.452653	0.006342
1142.608683	0.003131
1142.764695	0.001817
1142.920689	0.003497
1143.076665	0.000107
1143.232622	0.003915
1143.388562	0.005942
1143.544483	0.012898
1143.700385	0.009909
1143.856270	0.013215
1144.012136	0.016047
1144.167985	0.019543
1144.323814	0.026844
1144.479626	0.024296
1144.635420	0.025986
1144.791195	0.022069
1144.946952	0.011016
1145.102691	0.013165
1145.258411	0.009055
1145.414113	0.007454
1145.569798	0.007285
1145.725463	0.000585
1145.881111	0.000469
1146.036741	0.003629
1146.192352	0.000373
1146.347945	0.005469
1146.503519	0.011441
1146.659076	0.024241
1146.814614	0.026081
1146.970134	0.026318
1147.125636	0.027571
1147.281120	0.034065
1147.436585	0.021666
1147.592032	0.029790
1147.747461	0.035149
1147.902872	0.033509
1148.058265	0.019934
1148.213639	0.024675
1148.368995	0.010092
1148.524333	0.011512
1148.679653	0.007379
1148.834954	0.014883
1148.990237	0.010228
1149.145502	0.006138
1149.300749	0.014878
1149.455977	0.019154
1149.611188	0.012874
1149.766380	0.026624
1149.921553	0.021826
1150.076709	0.021105
1150.231846	0.008912
1150.386966	0.003225
1150.542066	-0.003716
1150.697149	-0.012038
1150.852214	-0.005648
1151.007260	0.000221
1151.162288	-0.005841
1151.317298	-0.003330
1151.472289	0.004816
1151.627263	0.019859
1151.782218	0.018951
1151.937155	0.026910
1152.092073	0.025809
1152.246974	0.019440
1152.401856	0.020073
1152.556720	0.021598
1152.711566	0.022231
1152.866393	0.014502
1153.021203	0.006187
1153.175994	0.014141
1153.330767	0.014128
1153.485521	0.013970
1153.640258	0.014159
1153.794976	0.011551
1153.949676	0.019207
1154.104358	0.013959
1154.259021	0.010765
1154.413667	0.015933
1154.568294	0.009208
1154.722903	-0.000992
1154.877493	-0.013413
1155.032066	-0.014722
1155.186620	-0.012781
1155.341156	-0.017653
1155.495674	-0.018112
1155.650173	-0.012673
1155.804654	-0.007243
1155.959118	0.001847
1156.113562	0.001579
1156.267989	0.013037
1156.422397	0.019446
1156.576788	0.007393
1156.731160	0.013646
1156.885513	0.023279
1157.039849	0.023757
1157.194166	0.013962
1157.348465	0.008527
1157.502746	0.013394
1157.657009	0.017860
1157.811253	0.005322
1157.965479	0.015093
1158.119687	0.002157
1158.273877	-0.004761
1158.428048	0.000172
1158.582201	-0.000810
1158.736337	0.002908
1158.890453	0.003554
1159.044552	0.007410
1159.198632	0.018563
1159.352694	0.019637
1159.506738	0.029067
1159.660764	0.026737
1159.814771	0.020020
1159.968761	0.017586
1160.122732	0.009707
1160.276685	0.016193
1160.430619	0.008537
1160.584535	-0.001670
1160.738434	-0.004964
1160.892313	-0.014621
1161.046175	-0.005383
1161.200019	-0.008354
1161.353844	0.003450
1161.507651	-0.000453
1161.661440	-0.007821
1161.815210	-0.000305
1161.968962	0.002644
1162.122697	0.017003
1162.276412	0.021895
1162.430110	0.006956
1162.583789	-0.008367
1162.737451	-0.010586
1162.891094	-0.004154
1163.044718	-0.006127
1163.198325	-0.013373
1163.351913	-0.013223
1163.505483	-0.017740
1163.659035	-0.016195
1163.812569	-0.007785
1163.966084	0.004737
1164.119581	-0.001085
1164.273060	-0.008176
1164.426521	-0.007052
1164.579964	-0.015803
1164.733388	-0.024913
1164.886794	-0.033997
1165.040182	-0.030400
1165.193551	-0.016996
1165.346903	-0.007631
1165.500236	-0.012435
1165.653551	0.000944
1165.806848	-0.001959
1165.960126	0.003776
1166.113386	0.013976
1166.266628	0.019941
1166.419852	0.009341
1166.573058	-0.005588
1166.726245	-0.018604
1166.879414	-0.028406
1167.032565	-0.036034
1167.185698	-0.028306
1167.338812	-0.032521
1167.491909	-0.029974
1167.644987	-0.031577
1167.798046	-0.030837
1167.951088	-0.037673
1168.104111	-0.026414
1168.257117	-0.007712
1168.410103	-0.000727
1168.563072	0.002412
1168.716023	-0.000499
1168.868955	0.001629
1169.021869	0.005541
1169.174765	0.016388
1169.327642	0.012768
1169.480501	-0.000208
1169.633343	-0.006184
1169.786165	-0.021226
1169.938970	-0.014109
1170.091757	0.000234
1170.244525	-0.009189
1170.397275	-0.013764
1170.550007	-0.014776
1170.702720	0.005734
1170.855415	-0.001607
1171.008092	-0.005101
1171.160751	-0.002680
1171.313392	-0.025438
1171.466014	-0.108060
1171.618619	-0.072206
1171.771205	-0.072206
1171.923772	-0.072206
