sample name	sample
index	196
start time	 02-18-2021  12:14:02 PM
880	-0.046798
Peak Time (s)	92.535
Peak Height 	-0.0468
calc peak height	90,93
Baseline Time (s)	11.537
Baseline Value 	-0.003223
subtract baseline	10,4
Abs	-0.012146
Peak Time (s)	92.035
Peak Height 	-0.01215
calc peak height	90,93
Baseline Time (s)	11.537
Baseline Value 	0.001642
subtract baseline	10,3
PK_550	-0.005314
Peak Time (s)	92.035
Peak Height 	-0.005314
calc peak height	90,93
Baseline Time (s)	8.537
Baseline Value 	5.6235E-4
subtract baseline	10,2
PK_880	-0.013165
Peak Time (s)	92.035
Peak Height 	-0.01317
calc peak height	90,93
Baseline Time (s)	9.537
Baseline Value 	0.001462
subtract baseline	10,1


Time (s)	A880-A510	A880-A775	A880-A975	A880	I510	I775	I975	I880	
0.034500	0.000081	0.000101	-0.002385	0.003118	6688.384254	43347.892220	3908.855652	22864.091009
0.537500	-0.002965	-0.000238	-0.003735	0.005215	6643.898070	43121.881191	3900.739153	22767.931214
1.035000	-0.001547	-0.000536	-0.009665	0.004156	6665.250377	43192.330647	3889.379029	22816.414146
1.538500	-0.003160	-0.000738	-0.006924	0.005762	6637.522848	43025.080013	3892.014009	22742.917695
2.035500	0.000674	0.000307	0.001601	0.002000	6703.291871	43471.209732	3920.989035	22915.518958
2.538500	-0.005116	-0.000325	-0.007570	0.006731	6612.507744	42973.802845	3888.268345	22698.696798
3.036000	0.000849	0.000261	-0.000909	-0.000543	6727.111142	43705.020908	3921.069889	23033.096760
3.536500	-0.002999	-0.000335	-0.008869	0.005292	6642.941473	43105.711726	3888.590518	22764.376584
4.036500	-0.000903	-0.000347	0.000206	0.000378	6703.688671	43561.755799	3921.532922	22990.432474
4.537000	-0.003381	0.000005	-0.004508	0.004261	6648.525320	43232.800341	3901.162749	22811.620226
5.037000	-0.001646	-0.000281	-0.000103	-0.000092	6701.299673	43611.815051	3921.918424	23012.161728
5.537500	-0.000540	-0.000392	0.001715	0.000070	6709.554936	43586.303351	3925.889933	23004.668700
6.035000	0.001415	0.000373	0.004202	0.000425	6723.580118	43624.742006	3931.027038	22988.263692
6.535500	-0.002293	0.000232	-0.000869	0.005316	6648.816335	43156.010117	3907.245114	22763.319941
7.035500	-0.000538	-0.000499	0.002187	0.000048	6709.767096	43578.421867	3927.078303	23005.698542
7.538500	0.002427	0.000263	-0.003818	0.000247	6734.042308	43631.110166	3912.259382	22996.486832
8.036500	0.001209	0.000189	-0.001610	0.000465	6721.415484	43603.738468	3916.989434	22986.401248
8.536500	-0.001057	0.000000	-0.003889	-0.000202	6707.408336	43648.539204	3913.155187	23017.278621
9.036500	-0.000932	0.000760	0.000022	0.000452	6702.783952	43658.499572	3920.914655	22987.002680
9.537000	0.000000	-0.000185	-0.003219	-0.000168	6716.368312	43628.055176	3914.667450	23015.708713
10.037500	0.000166	0.000164	0.001151	0.000126	6715.243529	43633.169458	3924.400202	23002.082520
10.535000	-0.000301	-0.000272	-0.003422	0.004137	6676.210802	43218.566480	3904.004484	22817.288380
11.035000	0.001316	-0.000133	0.003094	-0.000394	6729.909094	43654.089153	3930.329296	23026.176981
11.537500	0.000419	0.000235	0.000000	0.000000	6718.565802	43651.628106	3921.944727	23007.919214
12.035500	0.001786	-0.000072	-0.000861	0.000079	6729.880437	43615.448293	3919.697056	23004.283007
12.536000	-0.002033	0.000120	0.002173	0.000267	6694.795791	43615.844316	3926.518339	22995.572921
13.036500	0.000812	-0.000185	-0.005846	-0.002118	6740.655185	43811.219218	3913.060150	23106.241506
13.536500	-0.001462	-0.000303	0.001859	-0.000029	6702.353555	43603.920091	3926.472585	23009.241258
14.036500	0.000159	-0.000090	0.001063	0.000794	6709.335958	43546.875535	3922.588160	22971.188872
14.534500	-0.001554	-0.000341	0.001960	0.004069	6665.950149	43218.450024	3916.907909	22820.403648
15.035000	0.000626	0.000761	0.004626	0.001226	6709.635916	43585.990439	3930.115914	22951.224032
15.539500	0.002167	-0.000198	0.000197	0.000431	6730.127677	43570.701334	3921.384987	22987.961799
16.035000	0.002205	0.000220	0.005734	0.000271	6731.880787	43624.788789	3935.104568	22995.381095
16.535500	-0.003854	-0.000809	-0.004483	0.004669	6640.947941	43119.529990	3900.265516	22792.909502
17.036000	0.000023	-0.000006	0.001871	0.000122	6714.029761	43617.565080	3926.140652	23002.263066
17.536500	0.003245	-0.000093	-0.002788	-0.003234	6772.087360	43925.045005	3923.013857	23158.229225
18.036500	0.000334	0.000706	0.000716	0.000229	6715.815283	43674.378446	3923.113267	22997.342080
18.537000	-0.001296	-0.000249	-0.005953	0.002084	6685.399193	43411.545540	3902.881114	22911.665598
19.037500	-0.001281	0.000363	-0.001110	0.001950	6686.693102	43481.136646	3914.644918	22917.842563
19.537500	-0.000355	-0.000813	-0.002061	0.001077	6702.367538	43452.869866	3914.459112	22958.121968
20.038000	-0.000440	-0.000675	-0.000788	0.000991	6702.377518	43473.751675	3917.694475	22962.076879
20.538000	-0.000146	0.000278	-0.000576	0.002252	6693.938999	43445.049485	3915.196912	22903.924438
21.035500	0.001368	-0.000170	-0.002624	0.001559	6713.221389	43467.895628	3911.978006	22935.867840
21.535500	-0.001235	-0.000623	0.000690	0.000969	6695.634253	43480.689115	3921.276867	22963.102628
22.036000	0.000123	0.000360	-0.003015	0.001711	6701.005495	43503.219764	3910.692723	22928.850751
22.536000	-0.001928	0.000390	-0.002854	0.003063	6671.419862	43379.979688	3907.875999	22866.627498
23.036500	0.000839	0.000367	-0.002695	0.001489	6709.209719	43524.606911	3911.978229	22939.109358
23.536500	0.000023	-0.000014	0.000088	0.001512	6701.864955	43486.784319	3918.539189	22938.018033
24.040000	-0.000490	-0.000173	-0.000146	0.001196	6700.149049	43501.561769	3918.736407	22952.623591
24.536500	-0.001850	-0.000796	0.000899	0.002219	6679.406392	43348.041709	3918.787653	22905.425821
25.035000	-0.000716	0.000121	0.001323	0.001326	6697.050645	43516.902236	3921.937738	22946.639804
25.535500	-0.002181	0.000482	-0.000348	0.001233	6685.101310	43559.299970	3918.166081	22950.915885
26.035500	-0.001670	-0.000293	-0.000934	0.000533	6695.640380	43552.296173	3918.439642	22983.258034
26.536000	-0.001924	0.000239	0.002292	0.002830	6673.471696	43387.538464	3920.656947	22877.312468
27.036000	0.000691	-0.000685	-0.002541	0.001024	6711.981978	43469.848058	3913.446633	22960.584517
27.536500	-0.000550	-0.000920	-0.002471	0.000463	6706.026876	43500.255595	3914.944919	22986.501415
28.039500	0.000235	-0.000099	-0.001043	-0.002513	6739.047434	43856.353960	3925.468816	23124.587289
28.537000	-0.001264	-0.000789	0.003660	-0.000236	6705.901230	43577.788940	3931.314130	23018.851117
29.048000	-0.000016	-0.000305	-0.001884	-0.000386	6718.138321	43637.233661	3918.363833	23025.801905
29.537500	0.000838	-0.000180	0.000202	-0.000356	6725.372410	43646.106063	3923.283511	23024.427734
30.035000	0.000838	0.000591	-0.001055	0.000483	6718.012280	43639.743688	3918.271343	22985.587985
30.535500	-0.000240	-0.000266	0.004394	-0.000183	6714.393110	43621.821580	3932.959680	23016.406403
31.036000	-0.000169	-0.000541	0.002776	-0.000272	6715.798385	43604.457546	3929.267671	23020.531030
31.536000	-0.003516	0.000543	-0.004459	0.003368	6655.059834	43365.745754	3903.376457	22852.610197
32.037000	0.000462	0.000058	-0.003957	0.001740	6703.718217	43472.294310	3908.395993	22927.524644
32.583500	-0.003331	-0.000945	-0.002354	0.000661	6680.081115	43479.375855	3914.751006	22977.331728
33.037000	0.000748	0.000454	0.001189	0.000391	6718.023051	43635.536261	3923.857676	22989.838533
33.534500	-0.001056	-0.000402	0.000640	0.002243	6686.104103	43382.481238	3918.114232	22904.341147
34.037500	0.000470	0.000607	-0.002012	0.000211	6717.161367	43666.728867	3916.636826	22998.155494
34.535000	-0.000418	-0.000240	-0.002361	0.003085	6684.321496	43319.195084	3908.987957	22865.586466
35.035000	-0.001873	-0.000427	-0.004051	0.001584	6684.725558	43441.614310	3908.541449	22934.704469
35.535500	-0.001298	0.000518	-0.003581	0.002324	6683.293899	43460.675983	3907.903954	22900.592705
36.036000	0.000825	-0.000031	-0.000292	0.002463	6700.565414	43396.571543	3915.369721	22894.193415
36.536000	-0.003350	-0.000269	-0.000416	0.002523	6663.784478	43368.816491	3914.933197	22891.445097
37.036500	-0.002128	-0.000164	0.000815	0.002236	6676.853507	43405.333899	3918.549707	22904.675431
37.536000	-0.000083	-0.000471	-0.001464	0.002376	6693.410972	43363.764081	3912.793577	22898.229873
38.037000	-0.001716	-0.000236	-0.004502	0.001852	6683.762884	43434.415119	3906.846082	22922.378301
38.537500	-0.001937	0.000015	0.001556	0.002953	6672.290686	43355.158172	3918.605376	22871.649699
39.037000	-0.000773	-0.000057	-0.002269	0.002242	6688.571907	43414.698126	3911.201596	22904.380611
39.535000	-0.002474	-0.000661	-0.002777	0.001925	6676.543815	43387.997586	3910.748771	22918.977057
40.035000	-0.001330	0.000029	-0.003277	0.002244	6683.703544	43422.510359	3908.811016	22904.279420
40.538500	0.000253	-0.000097	-0.001249	0.002679	6693.696898	43370.321739	3912.585084	22884.272704
41.036000	-0.000615	-0.000214	-0.002323	0.001878	6693.112446	43433.988371	3911.936159	22921.154172
41.535500	-0.001187	0.000071	-0.004231	0.002518	6682.578218	43400.946587	3905.914059	22891.690677
42.036500	-0.000765	-0.000307	-0.002981	0.002119	6689.713095	43402.890979	3909.807591	22910.051414
42.537000	-0.000826	0.000048	-0.000995	0.003039	6681.179267	43350.301558	3912.331955	22867.701708
43.037000	-0.003631	-0.001034	-0.002778	0.001382	6671.220894	43403.822902	3912.032711	22944.018637
43.537000	-0.000853	0.000098	-0.000589	0.002668	6684.168429	43389.465645	3914.176841	22884.769364
44.035000	-0.000244	0.000123	0.000694	0.002243	6693.163929	43431.444267	3918.242716	22904.336511
44.538000	-0.000939	0.000106	-0.003955	0.002295	6686.664297	43425.027693	3907.091240	22901.952470
45.035500	0.001274	-0.000496	0.001502	-0.000842	6733.475840	43662.031116	3927.570341	23046.935805
45.536000	0.000857	-0.000332	0.000454	-0.000132	6723.570483	43610.874340	3923.348045	23014.033223
46.036000	0.001958	0.000412	0.000453	0.000447	6728.151536	43626.267487	3921.957792	22987.231772
46.536500	-0.002323	0.000297	-0.004990	0.004620	6654.551076	43226.536953	3899.192323	22795.169973
47.036500	0.000034	0.000080	-0.000072	0.000068	6714.601861	43630.723024	3921.609781	23004.784722
47.536500	0.000047	0.000565	0.003050	0.000604	6710.015867	43625.937033	3927.815879	22979.960776
48.042500	0.000784	-0.000453	0.001278	-0.000244	6723.912637	43610.038183	3925.593461	23019.212147
48.535000	-0.004996	0.000387	-0.002546	0.004763	6630.351903	43221.601219	3904.595708	22788.623224
49.035500	0.000237	0.000668	0.001863	0.002410	6695.905209	43466.720045	3920.635310	22896.650701
49.537500	-0.000648	-0.000340	0.001271	0.001000	6700.488436	43504.258566	3922.593565	22961.689499
50.035500	0.002114	0.000290	0.001574	0.000404	6729.906920	43618.859792	3924.748144	22989.214959
50.536000	-0.002480	0.000020	-0.002512	0.006042	6640.958613	43069.205947	3901.668318	22730.120735
51.036000	0.000015	-0.000662	0.003049	-0.003104	6742.312591	43859.052057	3936.779123	23152.129476
51.536500	0.002241	0.000115	0.004092	-0.000491	6738.907509	43686.412206	3932.972608	23030.654062
52.037000	0.000420	0.000173	0.004830	-0.001396	6730.831253	43776.863808	3936.956132	23072.637055
52.537000	-0.022659	-0.013305	-0.009151	0.213399	5119.437042	27080.155548	3505.071620	15202.088699
53.037500	-0.040135	-0.017142	-0.006149	0.306736	4621.856331	22239.348255	3388.115296	12823.136441
53.535000	-0.028068	-0.020988	-0.013555	-0.079900	7197.213096	49541.718095	4093.541447	27069.296391
54.035500	-0.030645	-0.016113	-0.015320	-0.014975	6580.054000	43523.060666	3921.120067	23713.329066
54.535500	-0.028675	-0.062478	-0.016190	-0.239337	9090.251047	64085.106082	4620.239281	37789.651505
55.035500	-0.019127	-0.113248	0.003479	-0.300284	10179.442486	65535.000000	4974.732442	43046.004360
55.535500	-0.026306	-0.053918	-0.004272	-0.223895	8906.999595	63123.729052	4606.196856	36570.976231
56.036000	-0.030485	-0.045893	-0.016129	-0.211747	8685.715641	62554.985226	4513.493030	35642.165948
56.536500	-0.024313	-0.039046	-0.014844	-0.204268	8668.359094	62468.224837	4490.393821	35083.143765
57.039500	-0.016180	-0.030088	-0.013766	-0.188249	8564.751497	61508.307810	4436.013990	33917.767606
57.537000	-0.012161	-0.024333	-0.011197	-0.178041	8484.732928	60910.679108	4408.924113	33197.215347
58.034500	-0.008264	-0.019793	-0.014887	-0.167232	8396.708213	60079.904695	4358.799113	32452.492640
58.535000	-0.006187	-0.017880	-0.013579	-0.163000	8369.551747	59775.556940	4348.890781	32165.920033
59.034500	-0.002458	-0.012366	-0.009015	-0.146724	8214.073675	58384.290976	4309.867509	31089.442140
59.535500	-0.005541	-0.008586	-0.013301	-0.122431	7890.039755	55826.083865	4218.946048	29555.916813
60.035500	-0.010001	-0.007726	-0.012176	-0.095497	7542.757183	52744.114245	4141.826294	27953.074859
60.536000	-0.011348	-0.008495	-0.015503	-0.091867	7489.966772	52242.045349	4121.809623	27744.529271
61.039000	-0.013986	-0.008244	-0.016394	-0.075787	7296.764013	50477.304058	4074.307727	26841.504849
61.536500	-0.014482	-0.006633	-0.019500	-0.070443	7238.167960	50070.368749	4051.337070	26548.699720
62.036500	-0.017175	-0.007463	-0.020585	-0.071567	7222.552567	50102.269869	4051.443761	26609.983553
62.537000	-0.016773	-0.007932	-0.020919	-0.071604	7226.920175	50055.445381	4050.642099	26611.997390
63.035000	-0.018748	-0.007275	-0.018701	-0.063725	7130.079955	49278.362364	4035.513622	26185.737840
63.535500	-0.022951	-0.006862	-0.028575	-0.059115	7045.296484	48832.672431	3997.687224	25939.868894
64.035500	-0.017486	-0.003455	-0.028257	-0.071059	7214.441280	50484.043486	4029.628561	26582.303392
64.535500	-0.016676	-0.003093	-0.022164	-0.068540	7197.531979	50248.419607	4039.109165	26445.334651
65.047000	-0.013817	-0.002992	-0.022770	-0.065185	7192.636342	49895.220042	4028.608043	26264.143656
65.536000	-0.015768	-0.002276	-0.024581	-0.061266	7135.141703	49550.172281	4013.581748	26054.284051
66.036500	-0.015245	-0.003088	-0.018178	-0.059116	7119.340386	49233.322013	4024.714512	25939.932034
66.537000	-0.013703	-0.002994	-0.022370	-0.055222	7096.604049	48829.958202	4003.639900	25734.274632
67.037000	-0.014876	-0.002157	-0.018913	-0.051723	7051.812026	48549.536919	4003.532538	25551.067125
67.537500	-0.016543	-0.002383	-0.024308	-0.048894	7009.157759	48229.823886	3982.500531	25403.993011
68.038000	-0.015454	-0.002789	-0.021549	-0.047487	7006.150020	48041.131961	3985.929806	25331.201315
68.535500	-0.019889	-0.002058	-0.024414	-0.039457	6890.250390	47289.321835	3958.585974	24920.263604
69.036000	-0.017441	-0.002181	-0.019930	-0.042299	6939.035555	47567.870101	3976.898791	25064.844787
69.536000	-0.015509	-0.002089	-0.019170	-0.040205	6937.535020	47362.627190	3973.541349	24958.232127
70.036000	-0.018750	-0.002426	-0.017653	-0.038806	6894.727587	47185.394472	3973.837443	24887.287417
70.536500	-0.018912	-0.002980	-0.022829	-0.031628	6827.944158	46404.536084	3943.222117	24526.870266
71.036500	-0.019385	-0.002809	-0.024456	-0.035798	6861.438988	46841.239191	3949.454896	24735.530288
71.534000	-0.018207	-0.003829	-0.018643	-0.034829	6863.342646	46640.602533	3961.423062	24686.859440
72.037000	-0.020343	-0.002916	-0.022316	-0.033869	6835.262439	46635.872903	3949.972411	24638.757328
72.537500	-0.021804	-0.003400	-0.024944	-0.028797	6776.662434	46080.334244	3931.210452	24386.377912
73.036000	-0.019487	-0.003791	-0.023619	-0.033132	6836.337073	46473.951079	3944.968505	24601.881933
73.538000	-0.020265	-0.003282	-0.022049	-0.032613	6824.631766	46472.961826	3947.544494	24576.006399
74.036000	-0.018618	-0.003983	-0.019218	-0.033102	6843.933870	46451.774431	3955.718246	24600.417072
74.536000	-0.021723	-0.003543	-0.022668	-0.027762	6768.174359	45963.455462	3934.210192	24335.218464
75.036500	-0.017498	-0.003773	-0.018417	-0.033079	6853.878507	46470.411405	3957.641402	24599.234240
75.536500	-0.018958	-0.004414	-0.015880	-0.033992	6848.913155	46497.728960	3966.220729	24644.928398
76.037000	-0.018743	-0.003668	-0.021062	-0.033662	6847.878344	46539.525464	3952.550207	24628.416838
76.537500	-0.022395	-0.004157	-0.024225	-0.029776	6780.112577	46102.411758	3935.318397	24434.859760
77.035500	-0.018101	-0.003687	-0.015674	-0.034327	6859.738843	46604.341493	3967.569427	24661.676930
77.537500	-0.019557	-0.004653	-0.022191	-0.036080	6862.445883	46683.618766	3955.732293	24749.735352
78.035500	-0.020231	-0.004712	-0.025545	-0.037366	6868.020885	46807.329225	3950.631319	24814.514646
78.535500	-0.019181	-0.004066	-0.019031	-0.037262	6876.650615	46862.176317	3966.517735	24809.282357
79.036000	-0.019168	-0.004573	-0.015448	-0.038063	6884.095678	46891.972643	3977.518263	24849.718455
79.535500	-0.017994	-0.004274	-0.018128	-0.039111	6904.479778	47028.498325	3973.409560	24902.746359
80.036500	-0.019002	-0.005503	-0.018613	-0.040875	6911.437970	47082.764529	3976.626211	24992.277621
80.536500	-0.016919	-0.004871	-0.017479	-0.041087	6932.633998	47168.672153	3980.022505	25003.049134
81.037000	-0.019285	-0.005625	-0.020287	-0.041176	6911.599634	47100.986602	3973.174024	25007.607097
81.537500	-0.017828	-0.005126	-0.022319	-0.042317	6935.609227	47268.142807	3970.937474	25065.767603
82.037500	-0.019106	-0.005294	-0.018374	-0.043142	6931.417661	47335.274497	3982.961395	25107.917328
82.535000	-0.018412	-0.005162	-0.022200	-0.043601	6942.107970	47395.753935	3974.462165	25131.404764
83.035500	-0.018475	-0.005956	-0.019869	-0.043366	6939.339664	47290.509192	3979.743986	25119.367307
83.536000	-0.019419	-0.005378	-0.015071	-0.044898	6944.799495	47506.525556	3995.857676	25197.898141
84.036000	-0.017445	-0.005329	-0.021619	-0.045407	6967.932681	47563.742618	3980.479686	25224.018927
84.539000	-0.017442	-0.005384	-0.018304	-0.046434	6977.566934	47663.783101	3991.513058	25276.864299
85.036500	-0.019471	-0.005953	-0.018723	-0.045070	6945.912964	47465.104403	3986.967607	25206.680991
85.537000	-0.017341	-0.005618	-0.018857	-0.047407	6987.635487	47739.931737	3992.586474	25327.037767
86.037000	-0.015820	-0.005194	-0.015950	-0.047663	7004.356987	47810.153940	4000.701544	25340.264671
86.537500	-0.017842	-0.005352	-0.017636	-0.043218	6943.834845	47336.977665	3985.025205	25111.763860
87.038000	-0.016144	-0.004500	-0.016789	-0.045291	6979.018406	47637.108965	3992.464911	25218.041212
87.534500	-0.016153	-0.004290	-0.018769	-0.048042	7004.800279	47942.947429	3994.439846	25359.899831
88.035500	-0.013929	-0.005333	-0.013792	-0.048845	7033.433466	47918.082260	4009.337211	25401.428150
88.535500	-0.013594	-0.004856	-0.016291	-0.049247	7040.433309	48009.260027	4003.909933	25422.278419
89.036500	-0.017513	-0.005880	-0.015464	-0.047277	6984.804976	47699.563448	4000.962178	25320.367960
89.536000	-0.016701	-0.005008	-0.019087	-0.050062	7018.692899	48078.060607	3998.803399	25464.580055
90.039500	-0.014182	-0.005885	-0.021934	-0.050941	7050.968328	48078.334571	3993.758095	25510.306580
90.537000	-0.015213	-0.005518	-0.015985	-0.050478	7036.747735	48068.251888	4007.884971	25486.202221
91.037500	-0.015052	-0.005610	-0.016579	-0.051375	7046.818907	48152.097473	4008.671829	25532.914910
91.534500	-0.014966	-0.005361	-0.015437	-0.050884	7042.959959	48126.847780	4010.360965	25507.326790
92.035500	-0.013165	-0.005314	-0.012146	-0.051068	7061.884878	48150.818894	4019.422775	25516.894840
92.535000	-0.019655	-0.005720	-0.023019	-0.046798	6960.282326	47666.616019	3980.457153	25295.618160
93.035500	-0.013219	-0.004971	-0.015754	-0.050950	7060.241158	48174.303290	4009.709183	25510.741063
93.535500	-0.014157	-0.004621	-0.017219	-0.050758	7049.465570	48190.847190	4005.416189	25500.784073
94.039000	-0.014922	-0.005746	-0.015142	-0.051660	7050.774202	48167.597261	4013.147186	25547.768211
94.536500	-0.018206	-0.006028	-0.019646	-0.047612	6981.450487	47718.866162	3991.096295	25337.659658
95.114500	-0.015177	-0.005701	-0.016315	-0.051847	7050.120528	48191.691459	4010.580355	25557.503626
95.534000	-0.014036	-0.005190	-0.015593	-0.051417	7056.903320	48200.164304	4011.339568	25535.073191
96.045000	-0.017043	-0.005624	-0.021915	-0.051528	7029.333948	48166.473608	3995.307696	25540.851892
96.535500	-0.014851	-0.005550	-0.016143	-0.051282	7047.844775	48148.553807	4009.561471	25528.051442
97.035000	-0.015006	-0.005644	-0.013839	-0.051461	7048.071609	48157.514138	4016.025655	25537.407450
97.535500	-0.014212	-0.006047	-0.014857	-0.051401	7055.078617	48109.281504	4013.214199	25534.276960
98.036000	-0.014745	-0.004916	-0.018042	-0.049940	7036.076966	48074.872626	4001.177884	25458.220016
98.536000	-0.014897	-0.005727	-0.011083	-0.050268	7037.755124	48024.768201	4020.112342	25475.283311
