sample name	sample
index	941
start time	 04-12-2021  02:13:16 PM
880	-0.014060
Peak Time (s)	121.535
Peak Height 	-0.01406
calc peak height	120,123
Baseline Time (s)	8.536
Baseline Value 	-0.005171
subtract baseline	10,4
Abs	0.004238
Peak Time (s)	120.538
Peak Height 	0.004238
calc peak height	120,123
Baseline Time (s)	9.537
Baseline Value 	0.0018
subtract baseline	10,3
PK_550	-0.000158
Peak Time (s)	122.536
Peak Height 	-1.5838E-4
calc peak height	120,123
Baseline Time (s)	10.037
Baseline Value 	2.631E-5
subtract baseline	10,2
PK_880	-0.002248
Peak Time (s)	122.035
Peak Height 	-0.002248
calc peak height	120,123
Baseline Time (s)	10.037
Baseline Value 	0.002934
subtract baseline	10,1


Time (s)	A880-A510	A880-A775	A880-A975	A880	I510	I775	I975	I880	
0.033500	-0.000353	0.000028	-0.001520	0.002952	7145.836064	43256.984023	3930.017796	23230.700432
0.537500	-0.002981	-0.000398	-0.002511	0.003914	7110.810264	43128.485651	3925.162497	23185.712419
1.040000	-0.003251	-0.000626	-0.002504	0.003172	7115.396504	43176.018836	3927.019776	23220.391110
1.536500	-0.005694	0.000086	-0.001164	0.006373	7060.857973	42946.300572	3922.407467	23071.140271
2.034500	0.000176	-0.000545	0.000471	0.000592	7174.232978	43423.063818	3940.914714	23341.535785
2.535500	0.000471	0.000089	0.002125	0.000514	7177.908720	43489.385351	3945.284361	23345.188207
3.035500	-0.000424	0.000175	0.000142	-0.001139	7185.410702	43652.018636	3944.451730	23423.205022
3.535500	-0.003653	-0.000057	-0.000027	0.004213	7101.381303	43132.349259	3930.595713	23171.733559
4.036500	0.000689	0.000457	0.006066	0.000595	7179.268194	43516.251511	3955.081113	23341.375066
4.536500	-0.001777	0.000258	-0.001176	-0.000154	7162.349801	43567.663538	3938.650070	23376.686955
5.037000	-0.001001	-0.000033	0.004351	0.000094	7167.545594	43517.305913	3951.992790	23364.997383
5.537000	-0.001902	0.000013	-0.002333	0.002281	7137.243983	43317.957264	3929.665275	23262.171569
6.038000	-0.000123	-0.000121	0.001838	-0.000458	7181.649928	43560.554032	3947.015257	23391.024555
6.535000	-0.000207	0.000219	0.001798	0.000233	7173.998041	43527.888075	3945.168134	23358.458425
7.035000	0.000312	0.000620	0.001486	0.000298	7178.483044	43559.230720	3944.216573	23355.388876
7.535500	0.001892	0.000392	-0.001725	0.000432	7192.778342	43525.385866	3935.803757	23349.076847
8.035500	0.000227	-0.000572	0.004661	-0.000615	7186.663058	43533.149521	3954.586975	23398.453090
8.536000	0.002330	0.000339	-0.004014	0.000000	7201.408912	43560.807434	3931.158759	23369.424017
9.036500	0.000068	0.000833	0.002343	0.000480	7174.277150	43562.150156	3945.920805	23346.809730
9.536500	-0.001093	-0.000311	0.000000	-0.000911	7176.544108	43585.165562	3943.516782	23412.431103
10.037500	0.000000	0.000000	-0.001538	-0.000716	7185.412579	43596.021615	3939.151284	23403.202125
10.537500	-0.000712	-0.000529	-0.004976	-0.000970	7180.887605	43570.304029	3931.181446	23415.219549
11.034500	0.001627	0.000750	0.005218	0.000128	7193.165556	43587.269440	3954.113338	23363.413094
11.535500	-0.001341	-0.000176	0.002523	0.002157	7143.947870	43311.888391	3942.143433	23267.978606
12.035500	0.000726	0.000741	0.001272	-0.000352	7188.993803	43631.338281	3945.317119	23386.030628
12.536000	-0.000020	-0.000190	0.003928	-0.000935	7187.391437	43598.761991	3953.535644	23413.577596
13.036000	0.000238	0.000258	0.001596	-0.000555	7186.170752	43605.048706	3946.649447	23395.595401
13.537000	-0.001740	-0.000049	-0.000300	0.003178	7130.069925	43228.961672	3932.500176	23220.149776
14.036500	-0.001685	-0.001076	-0.003107	0.000745	7154.421573	43359.406542	3931.564470	23334.321850
14.537000	0.000682	0.000933	0.002361	0.002179	7163.587927	43412.990692	3941.680624	23266.960884
15.037000	0.000285	0.000296	0.003785	-0.000430	7185.410504	43597.037876	3951.884981	23389.727058
15.537500	0.000290	0.000442	0.006020	0.002747	7154.152642	43314.439966	3949.490959	23240.302531
16.035500	-0.002311	-0.000588	-0.002279	-0.000808	7163.526957	43549.652642	3937.523309	23407.554314
16.535500	0.001348	-0.000118	-0.003787	-0.000544	7197.056076	43568.870743	3933.083878	23395.068146
17.036000	0.001153	0.000749	0.005476	-0.002766	7217.204201	43858.663376	3962.169657	23500.258296
17.535500	-0.000434	0.000284	0.001923	0.001973	7154.643565	43371.758981	3941.094736	23276.623986
18.036500	-0.000563	-0.000879	0.000557	0.000428	7168.574080	43407.327895	3941.546735	23349.270720
18.536500	-0.001833	0.000306	-0.001579	0.000745	7152.959972	43488.089101	3935.384068	23334.313999
19.036500	-0.000103	-0.000104	-0.003756	0.000691	7170.511484	43455.042978	3930.082037	23336.891249
19.539500	-0.001741	0.000433	-0.000987	0.001953	7142.023164	43387.459637	3933.842867	23277.544664
20.034500	-0.001104	0.000832	-0.002621	0.001127	7156.374145	43501.569954	3931.823985	23316.357758
20.534500	0.000413	0.000753	0.002103	0.001480	7167.817439	43461.285930	3942.790413	23299.772686
21.034500	0.000554	0.000885	0.001701	0.001556	7168.467556	43466.579401	3941.585276	23296.210777
21.535000	-0.000896	-0.000018	0.000398	0.001410	7155.639442	43396.026160	3938.673894	23303.048405
22.035500	-0.001334	0.000610	0.000060	0.000803	7157.296403	43511.042745	3939.350533	23331.584905
22.536000	0.000230	0.000950	0.006136	0.001533	7165.490104	43474.680448	3952.870641	23297.256139
23.036000	-0.001657	0.000059	0.006408	0.000884	7153.334834	43452.204804	3955.219288	23327.800160
23.536500	-0.000943	0.001572	0.002189	0.002660	7142.925214	43427.727510	3940.035142	23244.403933
24.037000	0.000083	-0.000228	-0.000036	0.000604	7173.201725	43451.508431	3939.609738	23340.983026
24.537000	-0.000040	-0.000165	0.000746	0.000894	7169.130469	43430.293203	3940.847632	23327.297390
25.037500	-0.002755	-0.000483	0.001710	0.000541	7145.926580	43433.627284	3944.167067	23343.924370
25.535000	-0.000566	-0.000988	0.000732	0.001606	7156.949556	43287.575216	3939.019805	23293.823039
26.035500	-0.000560	0.000728	0.004928	0.001757	7155.530397	43433.147783	3949.235798	23286.767716
26.535500	-0.001065	-0.000116	0.007237	0.001175	7156.278836	43408.729578	3956.591363	23314.093407
27.035500	0.001278	-0.000592	0.000555	-0.002475	7215.549759	43705.305915	3948.874568	23486.436878
27.535500	0.001335	0.000766	0.003818	-0.000567	7197.153955	43653.769851	3952.316616	23396.174059
28.036500	0.000988	-0.000106	0.000267	-0.000177	7189.853065	43535.728213	3942.338861	23377.765648
28.539500	-0.000379	0.000117	0.001078	-0.000268	7177.248228	43565.057562	3944.614848	23382.067269
29.037500	-0.001129	0.000300	0.005735	-0.000446	7171.606969	43598.858562	3956.895496	23390.481809
29.540000	-0.002173	-0.000521	0.003486	0.003272	7124.921071	43176.522874	3941.759583	23215.731322
30.034500	-0.001775	0.000285	0.006623	-0.000378	7164.569772	43591.052170	3958.991772	23387.262189
30.535500	-0.000814	0.000486	0.001659	0.002011	7150.548395	43386.993905	3940.335522	23274.841110
31.035000	0.000528	-0.000449	0.001908	0.000913	7174.545092	43402.141341	3943.727685	23326.421238
31.538500	-0.000064	0.000524	0.004912	0.000776	7170.064091	43505.603613	3951.685576	23332.885471
32.039000	-0.000933	0.000147	0.004952	-0.000522	7174.291429	43591.629671	3955.090064	23394.065829
32.536000	-0.001553	-0.000230	0.003424	-0.000285	7165.847870	43534.245524	3950.599611	23382.877851
33.036500	0.000652	0.000321	0.000366	-0.000396	7188.695030	43596.111502	3943.140902	23388.109469
33.539500	0.001815	0.000719	0.004137	-0.000771	7203.949445	43668.584197	3953.650063	23405.829516
34.037000	-0.000248	0.000077	-0.000156	0.001673	7159.418892	43380.411491	3936.624423	23290.701058
34.537500	0.000563	0.000130	-0.000934	0.001325	7170.826167	43417.743210	3935.548528	23307.063508
35.037500	-0.000496	0.000301	0.002994	0.001252	7161.110687	43440.413899	3945.613884	23310.458107
35.535500	-0.002039	0.000131	0.003275	0.001240	7146.083007	43425.635918	3946.355522	23311.017724
36.034500	0.000783	0.000445	0.000464	0.001643	7169.860232	43417.454195	3938.254877	23292.110338
36.536000	0.001005	0.000732	-0.002896	0.002096	7167.583342	43401.956824	3928.722735	23270.813971
37.036500	0.000828	0.000135	0.003816	0.001342	7173.267241	43416.574659	3947.466808	23306.259785
37.536000	-0.001577	0.001036	0.002080	0.003076	7132.647070	43339.111737	3938.715362	23224.902636
38.039500	0.000072	0.000455	-0.000865	0.001423	7165.021168	43438.849893	3935.475129	23302.449141
38.537000	0.000198	0.000221	0.001071	0.001329	7167.188816	43425.745709	3940.569940	23306.847409
39.037000	-0.001215	0.000444	0.005967	0.001630	7150.339693	43418.496328	3952.194071	23292.694052
39.540000	-0.001042	-0.000395	-0.001882	0.002394	7144.555495	43269.572285	3930.506305	23256.854999
40.035000	-0.000921	-0.000395	0.007012	0.000863	7160.760084	43411.799070	3956.813903	23328.773691
40.538000	0.001046	0.000570	0.003174	0.001653	7172.347008	43428.069737	3945.055504	23291.628083
41.035000	-0.000391	0.000357	0.004692	0.001533	7159.388703	43419.407120	3949.202817	23297.262907
41.536000	-0.004324	0.000023	-0.001922	0.002449	7112.000019	43303.275927	3930.269272	23254.289090
42.036500	-0.002789	-0.001038	-0.000002	0.000410	7146.872653	43394.097203	3940.183611	23350.093697
42.539500	-0.001301	0.000426	-0.000736	0.001474	7151.026224	43431.342991	3935.668818	23300.019137
43.036500	-0.001043	0.000324	0.000923	0.001536	7152.960169	43416.105320	3939.677595	23297.142377
43.536500	-0.001583	-0.000031	0.000204	0.002638	7136.867688	43280.676979	3935.109525	23245.410641
44.037500	0.002689	0.000103	-0.000993	-0.000108	7206.042535	43548.785686	3938.994260	23374.500935
44.541500	-0.000822	-0.000404	0.005235	-0.000988	7179.972314	43583.655572	3956.999932	23416.050615
45.035000	0.000811	0.000823	0.008077	-0.000132	7187.663629	43618.406365	3962.087978	23375.664994
45.535500	-0.000442	0.000575	0.003077	0.003494	7139.662280	43257.445562	3940.170236	23205.339515
46.035500	-0.000537	0.000101	0.008454	0.000867	7164.499563	43457.637839	3960.489610	23328.570492
46.536000	0.000970	0.000871	0.011469	0.000148	7186.462558	43596.641322	3970.098991	23362.424525
47.036500	-0.000870	-0.000342	0.003063	-0.000692	7176.582004	43561.842848	3950.717199	23402.081684
47.536500	-0.000714	-0.000442	-0.001915	0.003263	7139.257723	43184.697127	3928.260665	23216.162528
48.036500	0.000351	-0.000030	0.004786	0.000358	7178.265696	43492.868958	3952.426302	23352.539824
48.537000	-0.000267	0.000193	0.001186	-0.000287	7178.536949	43573.987735	3944.935214	23382.951486
49.035000	0.001761	0.000500	0.001070	0.000198	7193.802925	43557.290850	3943.417235	23360.089548
49.535000	-0.000779	0.000747	0.004863	0.003518	7136.131058	43271.145740	3944.610717	23204.206319
50.035000	0.000365	0.000550	0.001045	0.000241	7179.558024	43557.918228	3943.244425	23358.044335
50.535500	0.000785	0.000907	0.007851	0.006693	7120.404347	42992.384594	3944.138130	23056.247951
51.036000	-0.035453	-0.008258	0.012366	0.272058	5002.879935	24242.889999	3449.070045	13837.148778
51.536000	-0.049464	-0.016172	-0.000592	-0.040651	7092.212329	45880.546139	4046.879306	25378.684038
52.036000	-0.031155	-0.026360	0.003698	-0.172528	8827.956250	59755.739073	4488.478840	33357.051799
52.536500	-0.022114	-0.019498	0.005368	-0.149554	8640.491640	57687.844249	4409.933666	31787.305515
53.037000	-0.027573	-0.017632	-0.003304	-0.143280	8487.245150	57135.308889	4357.087290	31372.907055
53.537500	-0.011560	-0.019879	-0.003398	-0.168565	9045.529926	60085.892599	4447.225198	33080.284569
54.034500	-0.002027	-0.017794	-0.003201	-0.169244	9191.971488	60450.496713	4450.454690	33127.525659
54.535000	0.006541	-0.011900	-0.003213	-0.151080	9054.268403	58849.457318	4384.761403	31889.042951
55.038000	0.003903	-0.008424	-0.003721	-0.132427	8759.402121	56930.524349	4318.421359	30669.992631
55.535000	0.003593	-0.008078	-0.002518	-0.119268	8580.198654	55361.980110	4278.488546	29840.978711
56.036000	0.002474	-0.008095	0.000348	-0.120612	8583.141619	55522.316504	4292.423299	29924.474954
56.539000	-0.000745	-0.004634	0.000102	-0.077064	8002.025049	50889.159720	4153.843158	27345.345471
57.036500	-0.001383	-0.003774	-0.000281	-0.060238	7800.570584	49159.705414	4103.099513	26416.055369
57.536500	-0.001865	-0.003530	-0.000090	-0.050611	7687.613920	48172.552057	4076.119029	25900.353268
58.037000	-0.004859	-0.001870	0.000666	-0.036720	7504.707932	46917.501629	4039.525326	25176.098919
58.538000	-0.005124	-0.001977	0.001412	-0.031777	7449.700761	46409.496172	4028.061592	24923.896680
59.035000	-0.005469	-0.002069	0.001358	-0.025367	7379.350042	45764.011763	4010.624078	24601.106996
59.535500	-0.003703	-0.002027	-0.003676	-0.018976	7331.794111	45143.072158	3980.428595	24283.975330
60.035500	-0.007095	-0.001427	-0.000352	-0.011229	7219.344377	44454.826216	3968.953070	23905.785012
60.536000	-0.007042	-0.002089	0.000791	-0.006555	7173.529698	43948.291657	3959.873685	23680.825352
61.039000	-0.006478	-0.001918	0.002520	-0.005230	7166.039674	43839.544812	3960.909970	23617.514866
61.536500	-0.007255	-0.001374	-0.000644	-0.001922	7126.015369	43580.260973	3944.442349	23460.232919
62.037000	-0.002461	-0.000397	0.001370	0.000077	7153.357611	43484.863401	3944.478791	23365.778034
62.537000	-0.008811	-0.002320	-0.002528	-0.006946	7159.970784	43963.398919	3952.400017	23699.554306
63.037000	-0.009623	-0.001943	0.003122	0.002777	7057.659714	43090.789861	3942.089347	23238.895779
63.537500	-0.008850	-0.002485	0.001834	-0.004283	7133.482073	43697.356499	3956.729297	23572.350668
64.035500	-0.009112	-0.003353	0.002826	-0.011361	7200.598564	44283.874591	3977.532154	23912.177420
64.534500	-0.006759	-0.003203	0.001332	-0.019720	7308.219214	45101.146637	3995.532198	24320.663321
65.035500	-0.006104	-0.003162	0.004427	-0.026783	7387.427682	45795.870146	4022.696680	24672.013053
65.536000	-0.002857	-0.003112	0.000940	-0.036113	7519.540991	46730.731775	4038.609760	25144.952419
66.036000	-0.005162	-0.003685	-0.002157	-0.035268	7486.099078	46588.220809	4027.849346	25101.715516
66.536500	-0.006706	-0.003385	-0.003352	-0.032323	7438.838856	46323.345822	4016.653769	24951.623859
67.036500	-0.010198	-0.004035	0.000886	-0.032472	7403.974424	46273.366917	4028.521182	24959.194523
67.537000	-0.012361	-0.004734	-0.000274	-0.027648	7331.941941	45726.292022	4012.364149	24715.442049
68.037000	-0.009299	-0.004272	-0.000167	-0.031337	7401.521937	46136.806024	4022.588336	24901.612414
68.535000	-0.009330	-0.004327	0.002851	-0.030363	7391.093443	46034.727489	4028.129896	24852.298921
69.035500	-0.012786	-0.004244	0.000717	-0.026410	7314.973201	45652.659327	4011.700730	24653.303626
69.536000	-0.011716	-0.003844	-0.002382	-0.024986	7311.372906	45552.180651	3999.641572	24582.086718
70.035500	-0.007298	-0.004328	0.003774	-0.029621	7404.478193	45961.112483	4028.621934	24814.821252
70.536000	-0.007784	-0.004511	-0.000801	-0.030274	7406.211244	46007.615673	4018.004809	24847.778825
71.036500	-0.009084	-0.004262	0.000788	-0.025140	7339.818192	45526.360269	4008.491515	24589.782243
71.536500	-0.010684	-0.004494	0.000011	-0.025089	7322.928604	45498.505003	4006.280062	24587.203672
72.039500	-0.007978	-0.004259	-0.003369	-0.030312	7404.592475	46036.369737	4011.208313	24849.693366
72.537000	-0.009537	-0.004330	-0.004107	-0.030423	7389.568600	46040.317996	4009.530745	24855.327288
73.037500	-0.010366	-0.003823	0.001124	-0.026576	7341.387404	45710.389234	4013.236061	24661.608765
73.535500	-0.008760	-0.004464	0.004184	-0.030968	7403.285868	46081.183108	4033.411339	24882.919257
74.035500	-0.005385	-0.003637	0.000034	-0.030580	7434.420950	46124.687687	4021.083664	24863.254347
74.536000	-0.007152	-0.002553	-0.000707	-0.029895	7408.846740	46164.308663	4017.238004	24828.617916
75.038500	-0.009282	-0.004151	-0.004296	-0.026261	7349.275118	45647.166710	3997.946808	24645.830005
75.536000	-0.009672	-0.003151	-0.002062	-0.025588	7338.387076	45679.343735	4002.091195	24612.171916
76.036500	-0.006114	-0.004099	0.002351	-0.030729	7428.364067	46093.613807	4027.764827	24870.808974
76.536000	-0.006836	-0.003906	-0.000506	-0.030822	7421.789235	46121.925046	4020.278162	24875.483594
77.037000	-0.009974	-0.003881	-0.003429	-0.027824	7358.229263	45827.677973	4004.402574	24724.286145
77.537000	-0.005630	-0.003672	0.002582	-0.030510	7431.124665	46114.170894	4027.798032	24859.700229
78.035000	-0.006241	-0.003436	0.003782	-0.030325	7422.818610	46119.341775	4030.559758	24850.382303
78.535500	-0.007969	-0.003767	0.001025	-0.030024	7401.693187	46056.607377	4022.259037	24835.149626
79.035000	-0.008190	-0.003708	-0.000187	-0.025794	7355.700588	45644.776269	4007.634252	24622.452214
79.538500	-0.006057	-0.003003	0.000345	-0.029756	7418.793205	46105.810147	4019.698368	24821.597489
80.036000	-0.007074	-0.003594	0.002094	-0.030277	7413.638619	46098.910354	4025.842255	24847.947517
80.536500	-0.004762	-0.002656	0.003548	-0.029456	7429.189979	46110.468549	4027.559707	24806.481553
81.036500	-0.008339	-0.003003	-0.001418	-0.023757	7333.285060	45514.157703	3998.939388	24520.779026
81.537000	-0.006197	-0.003826	0.001201	-0.029893	7418.766129	46037.675911	4022.380377	24828.509866
82.037000	-0.005466	-0.002853	0.003327	-0.028743	7414.406970	46020.205345	4025.026012	24770.529218
82.537500	-0.007047	-0.003549	0.001980	-0.029468	7405.494673	46023.120533	4023.340492	24807.084582
83.035000	-0.005706	-0.003088	0.003721	-0.029256	7417.250821	46047.749476	4027.487134	24796.393112
83.535500	-0.009946	-0.002299	-0.000067	-0.023602	7315.296431	45567.961453	4002.113814	24513.063589
84.038000	-0.005385	-0.002647	0.005747	-0.028682	7414.608902	46034.484049	4031.434527	24767.424444
84.536000	-0.005916	-0.002287	0.002540	-0.028174	7403.800260	46019.908437	4021.355486	24741.878352
85.036500	-0.003159	-0.002327	0.000132	-0.027896	7429.632826	45988.425277	4014.118645	24727.902380
85.536500	-0.007881	-0.002082	-0.003016	-0.022796	7328.141838	45510.226236	3992.174222	24472.974354
86.036000	-0.005097	-0.002511	0.002293	-0.027928	7409.761340	45973.318784	4020.022865	24729.483781
86.537000	-0.005650	-0.002157	0.003184	-0.027633	7400.950874	45979.270029	4021.633178	24714.700114
87.037000	-0.003751	-0.002593	0.001594	-0.027782	7422.268348	45950.788520	4017.744020	24722.183451
87.537500	-0.008914	-0.001669	-0.001793	-0.022024	7309.739512	45475.092109	3993.365380	24434.671156
88.035000	-0.003321	-0.002316	0.001672	-0.027288	7421.596443	45929.240129	4016.622508	24697.327648
88.535500	-0.005125	-0.002596	-0.000492	-0.027517	7405.189872	45924.229942	4011.427927	24708.842272
89.035500	-0.006660	-0.002837	0.000834	-0.027690	7391.058116	45917.543267	4015.452247	24717.545017
89.536000	-0.009043	-0.002331	-0.001066	-0.022547	7313.752269	45461.518696	3996.666172	24460.605109
90.036500	-0.004127	-0.001890	0.001037	-0.026410	7404.064249	45884.554035	4012.558217	24653.298029
90.537000	-0.005715	-0.001755	-0.001140	-0.026340	7386.861758	45890.986064	4006.546480	24649.780341
91.036500	-0.008039	-0.002110	0.000148	-0.020663	7304.799012	45299.064782	3994.894772	24367.237846
91.537000	-0.004436	-0.001741	-0.002521	-0.026146	7398.113347	45873.250597	4002.352586	24640.079159
92.035000	-0.004105	-0.001968	0.001880	-0.026173	7401.829999	45853.594779	4014.185211	24641.456552
92.535000	-0.005060	-0.001976	0.000118	-0.026014	7390.266247	45836.976667	4009.036452	24633.461601
93.035500	-0.008358	-0.002193	-0.001159	-0.020532	7300.228879	45278.213680	3991.102079	24360.765579
93.536000	-0.006180	-0.002365	-0.000597	-0.025831	7376.794539	45780.663897	4006.637472	24624.318653
94.036000	-0.004407	-0.001249	0.002966	-0.025393	7390.610080	45847.488479	4015.009337	24602.422845
94.536500	-0.005722	-0.001819	0.000228	-0.025477	7377.869617	45799.536017	4007.896470	24606.623245
95.036500	-0.007688	-0.001926	-0.004526	-0.020002	7301.643344	45252.679934	3980.890733	24334.591460
95.536500	-0.003203	-0.001146	0.002451	-0.024024	7388.893779	45722.729276	4009.954049	24534.092442
96.036000	-0.003999	-0.001209	-0.001860	-0.024442	7384.979987	45757.655357	3999.583493	24554.921953
96.537500	-0.003036	-0.001368	-0.000005	-0.024484	7395.395289	45746.188459	4004.627300	24557.032803
97.035000	-0.008001	-0.001659	-0.000116	-0.019343	7291.785222	45214.508047	3990.718453	24302.055743
97.535000	-0.004607	-0.001598	-0.002112	-0.024433	7378.601356	45718.402096	3998.890553	24554.452276
98.038000	-0.005636	-0.001659	0.002750	-0.024049	7364.023936	45674.642395	4010.822501	24535.314982
98.535500	-0.005140	-0.002556	-0.000863	-0.025222	7381.248908	45701.910016	4004.307605	24593.887202
99.035500	-0.008244	-0.001116	0.000841	-0.018069	7276.435597	45143.452544	3989.885909	24239.352221
99.536000	-0.008339	-0.001898	-0.002571	-0.019004	7284.930392	45158.344380	3983.390018	24285.377569
100.036500	-0.005180	-0.001136	-0.002528	-0.023910	7367.292750	45712.489743	3996.406141	24528.406393
100.536000	-0.006373	-0.001412	-0.000367	-0.023836	7354.250500	45678.026135	4001.938905	24524.724855
101.037000	-0.005847	-0.001979	-0.000563	-0.020165	7322.047404	45263.351379	3991.707126	24342.648558
101.537500	-0.010014	-0.001780	-0.005688	-0.018827	7266.241497	45152.594974	3974.809436	24276.670340
102.035000	-0.003643	-0.001358	0.002196	-0.023485	7378.765096	45648.835252	4007.832073	24507.252130
102.537500	-0.004131	-0.001020	0.002221	-0.022751	7366.151909	45609.967285	4005.939333	24470.734878
103.035000	-0.009348	-0.001846	-0.002937	-0.018058	7265.194828	45071.579689	3979.963152	24238.820251
103.536000	-0.007487	-0.001921	-0.001955	-0.017965	7283.043187	45055.338923	3982.284223	24234.245555
104.036000	-0.002775	-0.000987	0.000204	-0.022182	7374.273077	45557.389856	3999.064859	24442.494825
104.536000	-0.003146	-0.000776	-0.002865	-0.022034	7368.918584	45563.503059	3990.565561	24435.117942
105.036500	-0.006083	-0.001600	-0.000886	-0.018144	7299.081713	45103.781122	3985.548883	24243.052202
105.537000	-0.007645	-0.000968	-0.005250	-0.017568	7277.427620	45109.186489	3972.679645	24214.733337
106.037500	-0.005452	-0.001109	0.001657	-0.022199	7346.902228	45547.127434	4002.967772	24443.335759
106.537500	-0.003557	-0.001095	-0.001740	-0.021904	7363.345953	45519.519162	3993.186787	24428.696755
107.035500	-0.003599	-0.001163	-0.001461	-0.022333	7367.336328	45554.905518	3995.056082	24449.983729
107.535500	-0.003298	-0.001173	-0.000281	-0.021654	7363.435778	45487.388425	3996.379322	24416.283557
108.035500	-0.003194	-0.000595	0.003923	-0.021695	7364.938585	45548.111377	4007.664755	24418.355394
108.535500	-0.003640	-0.001245	0.004878	-0.021995	7363.419868	45513.754319	4011.018755	24433.191999
109.036000	-0.003413	-0.001409	0.000122	-0.022149	7367.355745	45512.820566	3998.759522	24440.849595
109.536000	-0.006904	-0.001344	0.000867	-0.016811	7277.262694	44999.373707	3986.648670	24177.592213
110.036500	-0.005160	-0.001533	0.001106	-0.021648	7344.244003	45451.658212	4000.041207	24416.017194
110.537500	-0.003287	-0.001352	-0.000333	-0.021566	7362.640944	45461.288000	3996.009587	24411.935674
111.037000	-0.003632	-0.001136	-0.000326	-0.021547	7358.907394	45480.579435	3995.979911	24411.022427
111.535000	-0.004445	-0.001561	0.002781	-0.021440	7349.436733	45428.524886	4003.937354	24405.679025
112.035000	-0.002845	-0.000646	-0.000347	-0.020810	7359.410768	45456.435084	3993.976125	24374.518228
112.535500	-0.005295	-0.001549	-0.000473	-0.021413	7340.447606	45427.025864	3995.234899	24404.335986
113.036000	-0.007075	-0.002016	-0.001841	-0.017158	7279.053355	44968.047817	3980.475176	24194.648801
113.536000	-0.009146	-0.001547	-0.003904	-0.015599	7242.522179	44862.710622	3971.066629	24118.294661
114.036500	-0.002435	-0.001136	-0.005372	-0.021238	7368.045142	45450.362457	3981.908412	24395.701314
114.539500	-0.003287	-0.001042	-0.000898	-0.020534	7352.024501	45390.669554	3991.795863	24360.845202
115.037000	-0.005541	-0.000247	-0.000164	-0.015915	7281.993405	45018.941835	3981.606826	24133.760133
115.534500	-0.004147	-0.000993	0.003627	-0.020561	7343.480445	45398.100870	4003.848996	24362.190020
116.035000	-0.002794	-0.000071	-0.003093	-0.019794	7349.494886	45413.277273	3984.088536	24324.294924
116.538000	-0.004485	-0.001000	0.001458	-0.020442	7338.804726	45385.869080	3997.775427	24356.335302
117.035500	-0.005789	-0.001304	0.000451	-0.018840	7309.139249	45200.149600	3990.889007	24277.295090
117.543500	-0.006889	-0.001256	-0.001602	-0.014765	7256.800875	44810.386906	3974.869013	24077.547261
118.035500	-0.002434	-0.000057	0.000977	-0.019206	7347.155149	45357.191921	3993.237946	24295.324752
118.536000	-0.003369	-0.000639	0.001797	-0.020115	7346.893729	45389.208234	3997.807204	24340.175027
119.036500	-0.005060	-0.000643	0.000060	-0.016743	7295.232943	45060.656527	3984.356227	24174.255308
119.537000	-0.006557	-0.001077	-0.003153	-0.014690	7259.384493	44820.352255	3970.656700	24073.897190
120.037000	-0.003989	-0.000638	-0.002729	-0.019745	7336.745085	45353.130704	3984.915812	24321.897074
120.537500	-0.003602	-0.000743	0.004238	-0.019561	7338.817424	45324.855446	4002.813364	24312.800547
121.040000	-0.005764	-0.001279	-0.000885	-0.017012	7290.828131	45025.096292	3982.588132	24187.441183
121.535000	-0.007349	-0.001059	0.001667	-0.014060	7245.111478	44761.489192	3981.545442	24043.209536
122.035500	-0.002248	-0.000731	0.003222	-0.019582	7352.926600	45328.131684	4000.171033	24313.847201
122.536000	-0.002823	-0.000158	0.003276	-0.019012	7341.176628	45328.372177	3998.801368	24285.739562
123.036000	-0.006161	-0.001448	0.002315	-0.018001	7296.837829	45104.622040	3993.589417	24236.016584
123.536500	-0.004041	-0.000365	0.002630	-0.019073	7329.331050	45314.178673	3997.252060	24288.740975
124.036500	-0.003956	-0.000869	0.002129	-0.019455	7334.110132	45302.308098	3996.938907	24307.601588
124.537000	-0.002342	-0.000613	-0.003221	-0.019265	7348.705092	45308.814816	3982.373028	24298.234696
125.037000	-0.004947	-0.001435	0.001247	-0.016374	7292.645818	44948.306379	3986.499909	24156.182685
125.537500	-0.002525	-0.001152	0.000749	-0.019781	7352.128456	45306.536894	3994.155475	24323.697073
126.035000	-0.003872	-0.000908	-0.000288	-0.019605	7336.512569	45313.195170	3990.955641	24315.009006
126.535500	-0.003854	0.000116	0.006065	-0.018202	7322.352946	45276.258338	4004.060794	24245.907004
127.035500	-0.004658	-0.000934	0.003327	-0.019279	7325.147093	45278.847687	3999.647132	24298.936114
127.555500	-0.002845	-0.000170	0.001412	-0.018828	7339.058142	45309.348261	3993.386192	24276.681018
128.036000	-0.002711	-0.000961	0.006946	-0.018996	7342.159312	45248.647410	4008.529007	24284.952290
128.536500	-0.003763	-0.000975	0.004814	-0.019295	7334.442947	45276.398891	4003.638111	24299.683258
129.036500	-0.004192	-0.001140	0.000837	-0.018803	7325.038197	45212.459869	3991.804866	24275.456468
129.536500	-0.003596	-0.000675	0.004337	-0.018783	7330.915728	45255.760357	4001.011840	24274.480921
130.034500	-0.003804	-0.000737	0.006413	-0.018550	7326.417977	45227.066865	4005.916266	24263.026160
