sample name	sample
index	510
start time	 03-11-2021  03:18:27 PM


Wavelength (nm)	Absorbance
494.344910	-0.534047
494.563924	-0.534047
494.782919	-0.534047
495.001897	NaN
495.220856	-0.550801
495.439797	-0.434526
495.658719	-0.280851
495.877624	0.011052
496.096510	0.351818
496.315378	0.844483
496.534227	0.688382
496.753059	0.350102
496.971872	0.120145
497.190667	0.025773
497.409444	0.019869
497.628203	0.018203
497.846943	0.017193
498.065665	0.016818
498.284369	0.017039
498.503055	0.015458
498.721723	0.015171
498.940372	0.016012
499.159003	0.016067
499.377616	0.015602
499.596210	0.014803
499.814787	0.014590
500.033345	0.014345
500.251885	0.012745
500.470406	0.012939
500.688910	0.013022
500.907395	0.012181
501.125862	0.012134
501.344311	0.012303
501.562742	0.011937
501.781154	0.012326
501.999548	0.012951
502.217924	0.015149
502.436282	0.016078
502.654621	0.016019
502.872942	0.016768
503.091245	0.016399
503.309530	0.016247
503.527797	0.017526
503.746045	0.017106
503.964275	0.016235
504.182487	0.015183
504.400681	0.014311
504.618856	0.014083
504.837013	0.013879
505.055152	0.014263
505.273273	0.013944
505.491376	0.013846
505.709460	0.013641
505.927526	0.013795
506.145574	0.013885
506.363604	0.013924
506.581615	0.014445
506.799608	0.014277
507.017583	0.014472
507.235540	0.015049
507.453478	0.015508
507.671399	0.015808
507.889301	0.015856
508.107185	0.015771
508.325050	0.016203
508.542898	0.016117
508.760727	0.016210
508.978538	0.015916
509.196330	0.015591
509.414105	0.015145
509.631861	0.015680
509.849599	0.015433
510.067319	0.015595
510.285021	0.014505
510.502704	0.014718
510.720369	0.014701
510.938016	0.014078
511.155645	0.013963
511.373255	0.013789
511.590848	0.013076
511.808422	0.013599
512.025977	0.013124
512.243515	0.014162
512.461034	0.013431
512.678536	0.013518
512.896018	0.013530
513.113483	0.013454
513.330930	0.013517
513.548358	0.013761
513.765768	0.013440
513.983160	0.013620
514.200533	0.013451
514.417889	0.014397
514.635226	0.014898
514.852545	0.015132
515.069845	0.015817
515.287128	0.015312
515.504392	0.014736
515.721638	0.014892
515.938866	0.014851
516.156075	0.014962
516.373267	0.014725
516.590440	0.013908
516.807594	0.013374
517.024731	0.012917
517.241850	0.013074
517.458950	0.013842
517.676032	0.013119
517.893095	0.012590
518.110141	0.012485
518.327168	0.011957
518.544177	0.012183
518.761168	0.012498
518.978141	0.012802
519.195095	0.012682
519.412031	0.012161
519.628949	0.012179
519.845849	0.012828
520.062731	0.013016
520.279594	0.013422
520.496439	0.013549
520.713266	0.014083
520.930074	0.013894
521.146865	0.014143
521.363637	0.014407
521.580391	0.014962
521.797127	0.014570
522.013844	0.014700
522.230543	0.014994
522.447224	0.015195
522.663887	0.014642
522.880532	0.014394
523.097158	0.014355
523.313766	0.014001
523.530356	0.014002
523.746928	0.014624
523.963481	0.014521
524.180017	0.013524
524.396534	0.013093
524.613032	0.012849
524.829513	0.013019
525.045975	0.013067
525.262420	0.013580
525.478845	0.013660
525.695253	0.013564
525.911643	0.013457
526.128014	0.013817
526.344367	0.013773
526.560702	0.014694
526.777018	0.014646
526.993316	0.014452
527.209597	0.014469
527.425858	0.014187
527.642102	0.014028
527.858328	0.013964
528.074535	0.014084
528.290724	0.014154
528.506894	0.013674
528.723047	0.013749
528.939181	0.013767
529.155297	0.013720
529.371395	0.013928
529.587475	0.014494
529.803536	0.014311
530.019579	0.014230
530.235604	0.014078
530.451611	0.014275
530.667600	0.014467
530.883570	0.014601
531.099522	0.015087
531.315456	0.014810
531.531372	0.014241
531.747269	0.014707
531.963148	0.014395
532.179009	0.014780
532.394852	0.015366
532.610676	0.015478
532.826482	0.015478
533.042271	0.014659
533.258040	0.014624
533.473792	0.014826
533.689525	0.014830
533.905240	0.014967
534.120937	0.014880
534.336616	0.014261
534.552277	0.013557
534.767919	0.013713
534.983543	0.014217
535.199149	0.014897
535.414736	0.014845
535.630306	0.014951
535.845857	0.015384
536.061390	0.015244
536.276904	0.015261
536.492401	0.015731
536.707879	0.015520
536.923339	0.015736
537.138781	0.015172
537.354204	0.014914
537.569610	0.014611
537.784997	0.014446
538.000366	0.014324
538.215716	0.014130
538.431049	0.014526
538.646363	0.014592
538.861659	0.014035
539.076937	0.014418
539.292196	0.014866
539.507438	0.014666
539.722661	0.015056
539.937866	0.015342
540.153052	0.015516
540.368221	0.015388
540.583371	0.015340
540.798503	0.015278
541.013617	0.015063
541.228712	0.015024
541.443789	0.015558
541.658848	0.015300
541.873889	0.015679
542.088912	0.015862
542.303916	0.015556
542.518902	0.015956
542.733870	0.016294
542.948820	0.016432
543.163752	0.016369
543.378665	0.016274
543.593560	0.016460
543.808437	0.015960
544.023295	0.015943
544.238136	0.015792
544.452958	0.015224
544.667762	0.015021
544.882548	0.015281
545.097315	0.015540
545.312064	0.015109
545.526795	0.015179
545.741508	0.015241
545.956203	0.014923
546.170879	0.015339
546.385537	0.015701
546.600177	0.015718
546.814799	0.015512
547.029402	0.015337
547.243988	0.015702
547.458555	0.015754
547.673103	0.015694
547.887634	0.015869
548.102146	0.015960
548.316640	0.015775
548.531116	0.015698
548.745574	0.015660
548.960013	0.015475
549.174435	0.015477
549.388838	0.014848
549.603222	0.014888
549.817589	0.014769
550.031937	0.014469
550.246267	0.014848
550.460579	0.015140
550.674873	0.015333
550.889148	0.015463
551.103405	0.015365
551.317644	0.015757
551.531865	0.015989
551.746068	0.015784
551.960252	0.015683
552.174418	0.015551
552.388566	0.015619
552.602696	0.015528
552.816807	0.015261
553.030900	0.015412
553.244975	0.015391
553.459032	0.015385
553.673070	0.015536
553.887091	0.015767
554.101093	0.015462
554.315077	0.015086
554.529042	0.014982
554.742990	0.015128
554.956919	0.014705
555.170830	0.014660
555.384722	0.014413
555.598597	0.014603
555.812453	0.014597
556.026291	0.014886
556.240111	0.015012
556.453913	0.015086
556.667696	0.014986
556.881461	0.015380
557.095208	0.015385
557.308937	0.015710
557.522647	0.015646
557.736339	0.015746
557.950013	0.015599
558.163669	0.015575
558.377307	0.015355
558.590926	0.015709
558.804527	0.015256
559.018110	0.014984
559.231675	0.014910
559.445221	0.014892
559.658749	0.014716
559.872259	0.014686
560.085751	0.014864
560.299225	0.014828
560.512680	0.014651
560.726117	0.015265
560.939536	0.015472
561.152937	0.015404
561.366319	0.015296
561.579683	0.015218
561.793029	0.015207
562.006357	0.015111
562.219667	0.015123
562.432958	0.014842
562.646231	0.014615
562.859486	0.014589
563.072723	0.014497
563.285941	0.014593
563.499141	0.014596
563.712323	0.014542
563.925487	0.014562
564.138632	0.014532
564.351760	0.014596
564.564869	0.014482
564.777960	0.014603
564.991032	0.014344
565.204087	0.014633
565.417123	0.014486
565.630141	0.014487
565.843140	0.014479
566.056122	0.014887
566.269085	0.015030
566.482030	0.015102
566.694957	0.015013
566.907866	0.015319
567.120756	0.015480
567.333628	0.015458
567.546482	0.015658
567.759318	0.015443
567.972135	0.015406
568.184935	0.015490
568.397716	0.015432
568.610478	0.015625
568.823223	0.015549
569.035949	0.015246
569.248657	0.015423
569.461347	0.015303
569.674019	0.015495
569.886672	0.015239
570.099308	0.015109
570.311925	0.015003
570.524523	0.015001
570.737104	0.015041
570.949666	0.015255
571.162210	0.015550
571.374736	0.015818
571.587244	0.015813
571.799733	0.015829
572.012205	0.016110
572.224658	0.016131
572.437092	0.015655
572.649509	0.015503
572.861907	0.015293
573.074287	0.015142
573.286649	0.014968
573.498993	0.015038
573.711318	0.015132
573.923625	0.014918
574.135914	0.014778
574.348185	0.015291
574.560438	0.015522
574.772672	0.015213
574.984888	0.015007
575.197086	0.015101
575.409266	0.015034
575.621427	0.014836
575.833570	0.014769
576.045695	0.015086
576.257802	0.015147
576.469890	0.014926
576.681961	0.015232
576.894013	0.015495
577.106046	0.015276
577.318062	0.015650
577.530059	0.015929
577.742039	0.015871
577.954000	0.015682
578.165942	0.015537
578.377867	0.015963
578.589773	0.015796
578.801661	0.015834
579.013531	0.016026
579.225382	0.015891
579.437216	0.015969
579.649031	0.016258
579.860828	0.016573
580.072606	0.016305
580.284367	0.016098
580.496109	0.016102
580.707833	0.016085
580.919539	0.016037
581.131227	0.015852
581.342896	0.015745
581.554547	0.015756
581.766180	0.015716
581.977795	0.016122
582.189391	0.016202
582.400969	0.016599
582.612529	0.016365
582.824071	0.016598
583.035595	0.016751
583.247100	0.016645
583.458587	0.016399
583.670056	0.016398
583.881506	0.016583
584.092939	0.016555
584.304353	0.016475
584.515749	0.016831
584.727127	0.016676
584.938486	0.016476
585.149828	0.016513
585.361151	0.016695
585.572456	0.016823
585.783742	0.016712
585.995011	0.016568
586.206261	0.016522
586.417493	0.016258
586.628706	0.016116
586.839902	0.016216
587.051079	0.016328
587.262238	0.016243
587.473379	0.016094
587.684502	0.015875
587.895606	0.016147
588.106692	0.016232
588.317760	0.016322
588.528810	0.016409
588.739841	0.016506
588.950855	0.016599
589.161850	0.016866
589.372827	0.017094
589.583785	0.017033
589.794726	0.017012
590.005648	0.016854
590.216552	0.016797
590.427437	0.016851
590.638305	0.016635
590.849154	0.016686
591.059985	0.016426
591.270798	0.016158
591.481592	0.016147
591.692369	0.016197
591.903127	0.016493
592.113867	0.016332
592.324588	0.016402
592.535292	0.016752
592.745977	0.016412
592.956644	0.016710
593.167293	0.016744
593.377923	0.017045
593.588536	0.017059
593.799130	0.017139
594.009706	0.017444
594.220263	0.017487
594.430803	0.017565
594.641324	0.017813
594.851827	0.017721
595.062312	0.017798
595.272778	0.017566
595.483227	0.017538
595.693657	0.017275
595.904069	0.017143
596.114462	0.017239
596.324838	0.016856
596.535195	0.017137
596.745534	0.017206
596.955855	0.017343
597.166157	0.017731
597.376441	0.017903
597.586707	0.018038
597.796955	0.018452
598.007185	0.018583
598.217396	0.018932
598.427589	0.018736
598.637764	0.018776
598.847921	0.018581
599.058060	0.018455
599.268180	0.018282
599.478282	0.018384
599.688366	0.018200
599.898431	0.017860
600.108479	0.017626
600.318508	0.017460
600.528519	0.017283
600.738511	0.017605
600.948486	0.017705
601.158442	0.017793
601.368380	0.017684
601.578300	0.017670
601.788202	0.017804
601.998085	0.018127
602.207950	0.018227
602.417797	0.018527
602.627626	0.018522
602.837436	0.018392
603.047228	0.018497
603.257002	0.018564
603.466758	0.018757
603.676496	0.018855
603.886215	0.018801
604.095916	0.019167
604.305599	0.019212
604.515264	0.019393
604.724910	0.019680
604.934538	0.019885
605.144148	0.020021
605.353740	0.020205
605.563314	0.020471
605.772869	0.020465
605.982406	0.020217
606.191925	0.020046
606.401425	0.019945
606.610908	0.019978
606.820372	0.019932
607.029818	0.020133
607.239246	0.020010
607.448655	0.019810
607.658047	0.019972
607.867420	0.020178
608.076775	0.020533
608.286111	0.020511
608.495430	0.020442
608.704730	0.020221
608.914012	0.019839
609.123275	0.019804
609.332521	0.019791
609.541748	0.019812
609.750957	0.019798
609.960148	0.019585
610.169321	0.019755
610.378475	0.019804
610.587611	0.019913
610.796729	0.020207
611.005829	0.020217
611.214910	0.020608
611.423974	0.020471
611.633019	0.020569
611.842045	0.020467
612.051054	0.020407
612.260044	0.020354
612.469017	0.020402
612.677970	0.020401
612.886906	0.020443
613.095824	0.020118
613.304723	0.020280
613.513604	0.020234
613.722467	0.020318
613.931311	0.020200
614.140138	0.020397
614.348946	0.020253
614.557736	0.020163
614.766507	0.020301
614.975261	0.020355
615.183996	0.020244
615.392713	0.020247
615.601412	0.020305
615.810092	0.020416
616.018754	0.020253
616.227399	0.020502
616.436024	0.020508
616.644632	0.020361
616.853222	0.020464
617.061793	0.020472
617.270346	0.020671
617.478880	0.020764
617.687397	0.021009
617.895895	0.021064
618.104375	0.021172
618.312837	0.021410
618.521281	0.021704
618.729706	0.021778
618.938113	0.021935
619.146502	0.021860
619.354873	0.022057
619.563226	0.021950
619.771560	0.022188
619.979876	0.022209
620.188174	0.022147
620.396453	0.022110
620.604715	0.022031
620.812958	0.022255
621.021183	0.022282
621.229390	0.021981
621.437578	0.021962
621.645748	0.021957
621.853900	0.021997
622.062034	0.021907
622.270150	0.021858
622.478247	0.021909
622.686326	0.021783
622.894387	0.021743
623.102430	0.022114
623.310454	0.022199
623.518461	0.021928
623.726449	0.021854
623.934418	0.021753
624.142370	0.021706
624.350303	0.021691
624.558218	0.021508
624.766115	0.021461
624.973994	0.021229
625.181855	0.021206
625.389697	0.021380
625.597521	0.021348
625.805327	0.021462
626.013114	0.021539
626.220883	0.021573
626.428634	0.021706
626.636367	0.021887
626.844082	0.022010
627.051778	0.022125
627.259457	0.022168
627.467117	0.022231
627.674758	0.022468
627.882382	0.022484
628.089987	0.022488
628.297574	0.022537
628.505143	0.022674
628.712694	0.022714
628.920226	0.022773
629.127740	0.022690
629.335236	0.022714
629.542714	0.022508
629.750174	0.022577
629.957615	0.022538
630.165038	0.022507
630.372443	0.022629
630.579829	0.022817
630.787198	0.022728
630.994548	0.022908
631.201880	0.023128
631.409194	0.023347
631.616489	0.023266
631.823766	0.023512
632.031025	0.023691
632.238266	0.023398
632.445489	0.023328
632.652693	0.023465
632.859879	0.023538
633.067047	0.023457
633.274197	0.023526
633.481329	0.023521
633.688442	0.023754
633.895537	0.023670
634.102614	0.023932
634.309672	0.023926
634.516713	0.024034
634.723735	0.023842
634.930739	0.023793
635.137724	0.023756
635.344692	0.023894
635.551641	0.023602
635.758572	0.023592
635.965485	0.023571
636.172379	0.023678
636.379256	0.023457
636.586114	0.023469
636.792954	0.023382
636.999775	0.023272
637.206579	0.023177
637.413364	0.023123
637.620131	0.023058
637.826880	0.022978
638.033610	0.022802
638.240323	0.022840
638.447017	0.023115
638.653692	0.023337
638.860350	0.023444
639.066990	0.023673
639.273611	0.023730
639.480214	0.023929
639.686798	0.023664
639.893365	0.023820
640.099913	0.023726
640.306443	0.023701
640.512955	0.023549
640.719449	0.023653
640.925924	0.023453
641.132381	0.023697
641.338820	0.023791
641.545241	0.023914
641.751644	0.023955
641.958028	0.024111
642.164394	0.024082
642.370742	0.024442
642.577071	0.024460
642.783383	0.024574
642.989676	0.024501
643.195951	0.024566
643.402207	0.024762
643.608446	0.024737
643.814666	0.024883
644.020868	0.024831
644.227052	0.024747
644.433218	0.024641
644.639365	0.024927
644.845494	0.024895
645.051605	0.024757
645.257698	0.024921
645.463772	0.024961
645.669828	0.024834
645.875866	0.024865
646.081886	0.024696
646.287888	0.024873
646.493871	0.024745
646.699836	0.024686
646.905783	0.024741
647.111712	0.024705
647.317622	0.024558
647.523514	0.024624
647.729388	0.024637
647.935244	0.024819
648.141082	0.024713
648.346901	0.024697
648.552702	0.024837
648.758485	0.024811
648.964250	0.024800
649.169996	0.024855
649.375724	0.024964
649.581434	0.025006
649.787126	0.024894
649.992800	0.024945
650.198455	0.024916
650.404092	0.025127
650.609711	0.025120
650.815311	0.024928
651.020894	0.024881
651.226458	0.024754
651.432004	0.024716
651.637532	0.024738
651.843041	0.024741
652.048532	0.024766
652.254006	0.024490
652.459460	0.024512
652.664897	0.024721
652.870315	0.024946
653.075716	0.024911
653.281097	0.024914
653.486461	0.024792
653.691807	0.024830
653.897134	0.024814
654.102443	0.025017
654.307734	0.025108
654.513006	0.025317
654.718261	0.025339
654.923497	0.025338
655.128715	0.025289
655.333915	0.025578
655.539096	0.025708
655.744259	0.025645
655.949404	0.025624
656.154531	0.025612
656.359640	0.025500
656.564730	0.025417
656.769802	0.025625
656.974856	0.025894
657.179892	0.025767
657.384909	0.025590
657.589908	0.025897
657.794889	0.025866
657.999852	0.025822
658.204797	0.025789
658.409723	0.025793
658.614631	0.025790
658.819521	0.025732
659.024393	0.025750
659.229246	0.025999
659.434081	0.025868
659.638898	0.025831
659.843697	0.026020
660.048478	0.026049
660.253240	0.026307
660.457984	0.026372
660.662710	0.026377
660.867417	0.026544
661.072107	0.026486
661.276778	0.026434
661.481431	0.026357
661.686066	0.026375
661.890682	0.026450
662.095281	0.026297
662.299861	0.026150
662.504422	0.026248
662.708966	0.026194
662.913491	0.026184
663.117999	0.026379
663.322488	0.026506
663.526958	0.026634
663.731411	0.026566
663.935845	0.026552
664.140261	0.026821
664.344659	0.026900
664.549038	0.026852
664.753400	0.026846
664.957743	0.026847
665.162068	0.026920
665.366375	0.026834
665.570663	0.027032
665.774933	0.027266
665.979185	0.027324
666.183419	0.027260
666.387635	0.027336
666.591832	0.027532
666.796011	0.027487
667.000172	0.027609
667.204315	0.027683
667.408439	0.027626
667.612545	0.027498
667.816634	0.027473
668.020703	0.027524
668.224755	0.027619
668.428788	0.027579
668.632803	0.027671
668.836800	0.027470
669.040779	0.027592
669.244739	0.027623
669.448681	0.027673
669.652605	0.027585
669.856511	0.027624
670.060399	0.027636
670.264268	0.027734
670.468119	0.027782
670.671952	0.028006
670.875767	0.028017
671.079563	0.028104
671.283341	0.028333
671.487101	0.028399
671.690843	0.028509
671.894567	0.028649
672.098272	0.028611
672.301959	0.028589
672.505628	0.028746
672.709278	0.028659
672.912911	0.028591
673.116525	0.028407
673.320121	0.028573
673.523699	0.028517
673.727258	0.028497
673.930799	0.028426
674.134322	0.028536
674.337827	0.028524
674.541314	0.028605
674.744782	0.028721
674.948232	0.028806
675.151664	0.028832
675.355078	0.028888
675.558474	0.028832
675.761851	0.028929
675.965210	0.028961
676.168551	0.028906
676.371873	0.029038
676.575178	0.029024
676.778464	0.029035
676.981732	0.028991
677.184981	0.029140
677.388213	0.029171
677.591426	0.029041
677.794621	0.028985
677.997798	0.028992
678.200956	0.028787
678.404097	0.028837
678.607219	0.028919
678.810323	0.028978
679.013408	0.029053
679.216476	0.029223
679.419525	0.029531
679.622556	0.029712
679.825569	0.029790
680.028563	0.030027
680.231540	0.030136
680.434498	0.030367
680.637438	0.030458
680.840359	0.030315
681.043263	0.030353
681.246148	0.030232
681.449015	0.030123
681.651864	0.030139
681.854694	0.030107
682.057506	0.030242
682.260301	0.030099
682.463076	0.030072
682.665834	0.030038
682.868573	0.030141
683.071295	0.030170
683.273998	0.030288
683.476682	0.030375
683.679349	0.030517
683.881997	0.030457
684.084627	0.030444
684.287239	0.030439
684.489833	0.030582
684.692408	0.030429
684.894965	0.030639
685.097504	0.030649
685.300025	0.030778
685.502527	0.030746
685.705012	0.030718
685.907478	0.030829
686.109925	0.030829
686.312355	0.030923
686.514766	0.031044
686.717159	0.030996
686.919534	0.031009
687.121891	0.030981
687.324230	0.031184
687.526550	0.031344
687.728852	0.031430
687.931136	0.031527
688.133401	0.031522
688.335649	0.031694
688.537878	0.031806
688.740089	0.031777
688.942281	0.031654
689.144456	0.031446
689.346612	0.031465
689.548750	0.031359
689.750870	0.031230
689.952971	0.031199
690.155055	0.030942
690.357120	0.030907
690.559167	0.030855
690.761195	0.031013
690.963206	0.031057
691.165198	0.031004
691.367172	0.031030
691.569128	0.031059
691.771065	0.031001
691.972984	0.031042
692.174885	0.031122
692.376768	0.031317
692.578633	0.031240
692.780479	0.031195
692.982308	0.031063
693.184118	0.030988
693.385909	0.031081
693.587683	0.031086
693.789438	0.031117
693.991175	0.030895
694.192894	0.030930
694.394595	0.031068
694.596277	0.031145
694.797941	0.031305
694.999587	0.031401
695.201215	0.031354
695.402824	0.031534
695.604416	0.031556
695.805989	0.031632
696.007543	0.031554
696.209080	0.031314
696.410598	0.031233
696.612099	0.031057
696.813580	0.031150
697.015044	0.031219
697.216490	0.031118
697.417917	0.031271
697.619326	0.031388
697.820717	0.031551
698.022089	0.031720
698.223444	0.031881
698.424780	0.032110
698.626098	0.032013
698.827397	0.032007
699.028679	0.032209
699.229942	0.032239
699.431187	0.032276
699.632414	0.032203
699.833622	0.032241
700.034813	0.032262
700.235985	0.032248
700.437139	0.032242
700.638274	0.032410
700.839392	0.032408
701.040491	0.032386
701.241572	0.032562
701.442635	0.032678
701.643679	0.032852
701.844706	0.032913
702.045714	0.032868
702.246704	0.032921
702.447675	0.032997
702.648629	0.032839
702.849564	0.032671
703.050481	0.032650
703.251380	0.032499
703.452260	0.032400
703.653122	0.032270
703.853966	0.032307
704.054792	0.032318
704.255600	0.032208
704.456389	0.032288
704.657160	0.032452
704.857913	0.032313
705.058648	0.032391
705.259365	0.032321
705.460063	0.032353
705.660743	0.032332
705.861405	0.032364
706.062048	0.032351
706.262674	0.032334
706.463281	0.032318
706.663870	0.032217
706.864441	0.032139
707.064993	0.032186
707.265527	0.032268
707.466043	0.032050
707.666541	0.032136
707.867021	0.032178
708.067482	0.032340
708.267925	0.032466
708.468350	0.032686
708.668757	0.032811
708.869145	0.033017
709.069516	0.033054
709.269868	0.033226
709.470201	0.033277
709.670517	0.033251
709.870814	0.033168
710.071093	0.033108
710.271354	0.033045
710.471597	0.032997
710.671821	0.032860
710.872028	0.032681
711.072216	0.032719
711.272385	0.032572
711.472537	0.032482
711.672670	0.032453
711.872785	0.032357
712.072882	0.032443
712.272961	0.032343
712.473021	0.032241
712.673063	0.032362
712.873087	0.032344
713.073093	0.032360
713.273081	0.032344
713.473050	0.032295
713.673001	0.032364
713.872934	0.032239
714.072849	0.032245
714.272745	0.032345
714.472623	0.032288
714.672483	0.032332
714.872325	0.032436
715.072148	0.032495
715.271954	0.032549
715.471741	0.032527
715.671509	0.032603
715.871260	0.032834
716.070992	0.032741
716.270707	0.032713
716.470403	0.032730
716.670080	0.032495
716.869740	0.032611
717.069381	0.032588
717.269004	0.032721
717.468609	0.032697
717.668195	0.032630
717.867764	0.032870
718.067314	0.032995
718.266846	0.032947
718.466360	0.033072
718.665855	0.033056
718.865332	0.033043
719.064791	0.032918
719.264232	0.032828
719.463655	0.032692
719.663059	0.032415
719.862445	0.032196
720.061813	0.032155
720.261163	0.032123
720.460494	0.031995
720.659807	0.031870
720.859102	0.031821
721.058379	0.031660
721.257638	0.031586
721.456878	0.031646
721.656100	0.031901
721.855304	0.032061
722.054490	0.032126
722.253657	0.032122
722.452806	0.032359
722.651937	0.032378
722.851050	0.032603
723.050145	0.032728
723.249221	0.032620
723.448279	0.032422
723.647319	0.032492
723.846340	0.032345
724.045344	0.032223
724.244329	0.031988
724.443296	0.031830
724.642245	0.031759
724.841175	0.031712
725.040088	0.031773
725.238982	0.031823
725.437857	0.031506
725.636715	0.031622
725.835554	0.031627
726.034376	0.031598
726.233179	0.031690
726.431963	0.031598
726.630730	0.031565
726.829478	0.031617
727.028208	0.031637
727.226920	0.031659
727.425614	0.031548
727.624289	0.031579
727.822946	0.031666
728.021585	0.031738
728.220206	0.031802
728.418808	0.031574
728.617392	0.031575
728.815958	0.031531
729.014506	0.031601
729.213036	0.031700
729.411547	0.031635
729.610040	0.031487
729.808515	0.031400
730.006972	0.031346
730.205410	0.031631
730.403831	0.031424
730.602233	0.031399
730.800616	0.031368
730.998982	0.031248
731.197329	0.031258
731.395658	0.031337
731.593969	0.031175
731.792262	0.031180
731.990536	0.031170
732.188793	0.031130
732.387031	0.031068
732.585250	0.031025
732.783452	0.030906
732.981635	0.030941
733.179800	0.030877
733.377947	0.030756
733.576076	0.030641
733.774186	0.030517
733.972278	0.030687
734.170352	0.030699
734.368408	0.030657
734.566446	0.030507
734.764465	0.030493
734.962466	0.030409
735.160449	0.030399
735.358413	0.030551
735.556360	0.030398
735.754288	0.030133
735.952198	0.029924
736.150090	0.029899
736.347963	0.030002
736.545818	0.030046
736.743655	0.029859
736.941474	0.029955
737.139275	0.029781
737.337057	0.029745
737.534821	0.029812
737.732567	0.029883
737.930295	0.029733
738.128005	0.029835
738.325696	0.029568
738.523369	0.029633
738.721024	0.029539
738.918660	0.029512
739.116279	0.029693
739.313879	0.029740
739.511461	0.029770
739.709024	0.029894
739.906570	0.029861
740.104097	0.030188
740.301606	0.030328
740.499097	0.030460
740.696569	0.030365
740.894024	0.030273
741.091460	0.030313
741.288878	0.030323
741.486277	0.030265
741.683659	0.030162
741.881022	0.029852
742.078367	0.029857
742.275694	0.029692
742.473002	0.029577
742.670293	0.029460
742.867565	0.029306
743.064819	0.029177
743.262054	0.029138
743.459272	0.029083
743.656471	0.029161
743.853652	0.029067
744.050815	0.029080
744.247959	0.029307
744.445085	0.029317
744.642194	0.029148
744.839283	0.029233
745.036355	0.029099
745.233408	0.029166
745.430444	0.029148
745.627461	0.029131
745.824459	0.029147
746.021440	0.029008
746.218402	0.028972
746.415346	0.029057
746.612272	0.029023
746.809180	0.029070
747.006069	0.029084
747.202940	0.029035
747.399793	0.029019
747.596628	0.029006
747.793444	0.029130
747.990243	0.029134
748.187023	0.029197
748.383784	0.029139
748.580528	0.029225
748.777253	0.029053
748.973960	0.029027
749.170649	0.028999
749.367320	0.029212
749.563973	0.029053
749.760607	0.029206
749.957223	0.029032
750.153821	0.029115
750.350400	0.028965
750.546962	0.029043
750.743505	0.029038
750.940030	0.029192
751.136536	0.029099
751.333025	0.029228
751.529495	0.029194
751.725947	0.029331
751.922381	0.029234
752.118796	0.029452
752.315194	0.029613
752.511573	0.029603
752.707934	0.029670
752.904276	0.029502
753.100601	0.029496
753.296907	0.029401
753.493195	0.029433
753.689465	0.029484
753.885716	0.029267
754.081949	0.029132
754.278164	0.029390
754.474361	0.029093
754.670540	0.029123
754.866700	0.028918
755.062843	0.029024
755.258967	0.029015
755.455072	0.028874
755.651160	0.028838
755.847229	0.028728
756.043280	0.028363
756.239313	0.028353
756.435328	0.028233
756.631324	0.028185
756.827302	0.027989
757.023262	0.027814
757.219204	0.027715
757.415127	0.027588
757.611033	0.027760
757.806920	0.027916
758.002788	0.027957
758.198639	0.027998
758.394471	0.028081
758.590286	0.027987
758.786081	0.028014
758.981859	0.028054
759.177619	0.028213
759.373360	0.027921
759.569083	0.027780
759.764788	0.027963
759.960474	0.028036
760.156143	0.028066
760.351793	0.028001
760.547425	0.028027
760.743038	0.028093
760.938634	0.028183
761.134211	0.028391
761.329770	0.028483
761.525311	0.028396
761.720833	0.028340
761.916338	0.028231
762.111824	0.028485
762.307292	0.028452
762.502741	0.028550
762.698173	0.028437
762.893586	0.028366
763.088981	0.028348
763.284358	0.028048
763.479716	0.028032
763.675057	0.028089
763.870379	0.027917
764.065683	0.027776
764.260968	0.027664
764.456236	0.027566
764.651485	0.027386
764.846716	0.027257
765.041929	0.027302
765.237123	0.027214
765.432299	0.027216
765.627457	0.027312
765.822597	0.027509
766.017719	0.027470
766.212822	0.027546
766.407907	0.027758
766.602974	0.027680
766.798023	0.027728
766.993054	0.027861
767.188066	0.027964
767.383060	0.027865
767.578036	0.027805
767.772993	0.027658
767.967933	0.027589
768.162854	0.027299
768.357757	0.027450
768.552642	0.027429
768.747508	0.027293
768.942356	0.027185
769.137186	0.027046
769.331998	0.026996
769.526792	0.027143
769.721567	0.027200
769.916324	0.027199
770.111063	0.027143
770.305784	0.027241
770.500486	0.027200
770.695171	0.026950
770.889837	0.026926
771.084484	0.026825
771.279114	0.026697
771.473725	0.026727
771.668318	0.026822
771.862893	0.026670
772.057450	0.026465
772.251988	0.026518
772.446509	0.026485
772.641011	0.026471
772.835494	0.026521
773.029960	0.026577
773.224407	0.026494
773.418836	0.026680
773.613247	0.026839
773.807640	0.027004
774.002014	0.026852
774.196370	0.027091
774.390708	0.027250
774.585028	0.027389
774.779330	0.027259
774.973613	0.027235
775.167878	0.027069
775.362125	0.027069
775.556354	0.027005
775.750564	0.027384
775.944756	0.027401
776.138930	0.027454
776.333086	0.027469
776.527223	0.027602
776.721343	0.027689
776.915444	0.027821
777.109526	0.027660
777.303591	0.027685
777.497637	0.027272
777.691666	0.027026
777.885676	0.027132
778.079667	0.027109
778.273641	0.027136
778.467596	0.027106
778.661533	0.027087
778.855452	0.027141
779.049352	0.027144
779.243235	0.027292
779.437099	0.027515
779.630945	0.027345
779.824773	0.027442
780.018582	0.027232
780.212373	0.027127
780.406146	0.027036
780.599901	0.026969
780.793638	0.027025
780.987356	0.027200
781.181056	0.027102
781.374738	0.027246
781.568402	0.027035
781.762047	0.027195
781.955674	0.027371
782.149283	0.027470
782.342874	0.027737
782.536447	0.027818
782.730001	0.027560
782.923537	0.027822
783.117055	0.027839
783.310555	0.027809
783.504036	0.027803
783.697499	0.027744
783.890944	0.027851
784.084371	0.027874
784.277780	0.027684
784.471170	0.027951
784.664542	0.027782
784.857896	0.027698
785.051231	0.027972
785.244549	0.027890
785.437848	0.027935
785.631129	0.027823
785.824392	0.027685
786.017636	0.027749
786.210863	0.027650
786.404071	0.027557
786.597260	0.027495
786.790432	0.027304
786.983585	0.027359
787.176721	0.027410
787.369838	0.027302
787.562936	0.027512
787.756017	0.027558
787.949079	0.027594
788.142123	0.027699
788.335149	0.027804
788.528156	0.027835
788.721146	0.027947
788.914117	0.027749
789.107070	0.027880
789.300005	0.027828
789.492921	0.027762
789.685819	0.027543
789.878699	0.027525
790.071561	0.027407
790.264405	0.027355
790.457230	0.027245
790.650037	0.027497
790.842826	0.027500
791.035597	0.027452
791.228349	0.027473
791.421084	0.027660
791.613800	0.027745
791.806497	0.027833
791.999177	0.027927
792.191838	0.027982
792.384481	0.028010
792.577106	0.028031
792.769713	0.027983
792.962301	0.027863
793.154871	0.027841
793.347423	0.027947
793.539957	0.028066
793.732473	0.028347
793.924970	0.028601
794.117449	0.028648
794.309910	0.028782
794.502353	0.028914
794.694777	0.029157
794.887183	0.029242
795.079571	0.029321
795.271941	0.029265
795.464293	0.029097
795.656626	0.028908
795.848941	0.028928
796.041238	0.028899
796.233516	0.029040
796.425777	0.029022
796.618019	0.028856
796.810243	0.028660
797.002449	0.028735
797.194636	0.028579
797.386805	0.028615
797.578956	0.028585
797.771089	0.028531
797.963204	0.028286
798.155300	0.028269
798.347378	0.028662
798.539438	0.028684
798.731480	0.028629
798.923503	0.028953
799.115509	0.028959
799.307496	0.028984
799.499465	0.029118
799.691415	0.029249
799.883348	0.029429
800.075262	0.029242
800.267158	0.029213
800.459035	0.029131
800.650895	0.028942
800.842736	0.028889
801.034559	0.028876
801.226364	0.028803
801.418150	0.028530
801.609919	0.028525
801.801669	0.028704
801.993401	0.028709
802.185114	0.029018
802.376810	0.029019
802.568487	0.029146
802.760146	0.028885
802.951787	0.028864
803.143409	0.029157
803.335014	0.029099
803.526600	0.029010
803.718168	0.028937
803.909717	0.028632
804.101249	0.028659
804.292762	0.028492
804.484257	0.028565
804.675734	0.028682
804.867192	0.028819
805.058632	0.028947
805.250054	0.029089
805.441458	0.029351
805.632844	0.029688
805.824211	0.029873
806.015561	0.030233
806.206891	0.030478
806.398204	0.030441
806.589499	0.030344
806.780775	0.030327
806.972033	0.030222
807.163273	0.030261
807.354495	0.029951
807.545698	0.029862
807.736883	0.029902
807.928050	0.029927
808.119199	0.029894
808.310329	0.030004
808.501441	0.029996
808.692535	0.029715
808.883611	0.029575
809.074669	0.029760
809.265708	0.029684
809.456729	0.029480
809.647732	0.029447
809.838717	0.029553
810.029683	0.029644
810.220632	0.029638
810.411562	0.030111
810.602474	0.030312
810.793367	0.030468
810.984242	0.030771
811.175100	0.031113
811.365938	0.031163
811.556759	0.031226
811.747562	0.031211
811.938346	0.031145
812.129112	0.031112
812.319860	0.031080
812.510589	0.031014
812.701300	0.030924
812.891994	0.030859
813.082668	0.031065
813.273325	0.031038
813.463964	0.030946
813.654584	0.031270
813.845186	0.031451
814.035769	0.031518
814.226335	0.031464
814.416882	0.031394
814.607411	0.031327
814.797922	0.030995
814.988415	0.030927
815.178889	0.031176
815.369345	0.031103
815.559783	0.030945
815.750203	0.030992
815.940605	0.031197
816.130988	0.031264
816.321353	0.031301
816.511700	0.031550
816.702028	0.031792
816.892339	0.031785
817.082631	0.031829
817.272905	0.031906
817.463161	0.031920
817.653398	0.031911
817.843617	0.032078
818.033819	0.031902
818.224001	0.031853
818.414166	0.031734
818.604312	0.031581
818.794440	0.031560
818.984550	0.031449
819.174642	0.031355
819.364716	0.031306
819.554771	0.031251
819.744808	0.031296
819.934827	0.031363
820.124827	0.031505
820.314810	0.031716
820.504774	0.031688
820.694720	0.031712
820.884647	0.031803
821.074557	0.031762
821.264448	0.031805
821.454321	0.032052
821.644176	0.031909
821.834012	0.031979
822.023831	0.031718
822.213631	0.031674
822.403413	0.031706
822.593176	0.031708
822.782922	0.031689
822.972649	0.031745
823.162358	0.031711
823.352049	0.031825
823.541721	0.031726
823.731376	0.031946
823.921012	0.032135
824.110629	0.032163
824.300229	0.032167
824.489811	0.032309
824.679374	0.032458
824.868919	0.032628
825.058445	0.032928
825.247954	0.032985
825.437444	0.033100
825.626916	0.033265
825.816370	0.033385
826.005806	0.033639
826.195223	0.033566
826.384622	0.033443
826.574003	0.033574
826.763366	0.033551
826.952711	0.033628
827.142037	0.033737
827.331345	0.033687
827.520635	0.033718
827.709906	0.033695
827.899160	0.033858
828.088395	0.033868
828.277612	0.033815
828.466810	0.033966
828.655991	0.033859
828.845153	0.033698
829.034297	0.033691
829.223423	0.033785
829.412531	0.033931
829.601620	0.034074
829.790691	0.034001
829.979744	0.034042
830.168779	0.033739
830.357795	0.033941
830.546793	0.034162
830.735773	0.034249
830.924735	0.034207
831.113679	0.034129
831.302604	0.034155
831.491511	0.034334
831.680400	0.034124
831.869271	0.034382
832.058123	0.034568
832.246957	0.034555
832.435773	0.034544
832.624571	0.034766
832.813351	0.035125
833.002112	0.035339
833.190855	0.035367
833.379580	0.035633
833.568287	0.035675
833.756975	0.035601
833.945645	0.035682
834.134297	0.035824
834.322931	0.035750
834.511547	0.035525
834.700144	0.035358
834.888723	0.035608
835.077284	0.035617
835.265826	0.035800
835.454351	0.035927
835.642857	0.036056
835.831345	0.035981
836.019815	0.036261
836.208266	0.036303
836.396699	0.036494
836.585114	0.036428
836.773511	0.036456
836.961890	0.036662
837.150250	0.036693
837.338592	0.036664
837.526916	0.036740
837.715222	0.036652
837.903510	0.036881
838.091779	0.036945
838.280030	0.037078
838.468263	0.037245
838.656477	0.037163
838.844674	0.037299
839.032852	0.037224
839.221012	0.037223
839.409153	0.037111
839.597277	0.036835
839.785382	0.036735
839.973469	0.036676
840.161538	0.036726
840.349589	0.036668
840.537621	0.036447
840.725635	0.036604
840.913631	0.036676
841.101609	0.037002
841.289568	0.037239
841.477509	0.037475
841.665432	0.037569
841.853337	0.037578
842.041224	0.037792
842.229092	0.037967
842.416942	0.037949
842.604774	0.038105
842.792588	0.038184
842.980383	0.038402
843.168160	0.038395
843.355919	0.038469
843.543660	0.038711
843.731382	0.038746
843.919087	0.038886
844.106773	0.038997
844.294441	0.038832
844.482090	0.038824
844.669722	0.038727
844.857335	0.038582
845.044930	0.038373
845.232507	0.038192
845.420065	0.038190
845.607605	0.038267
845.795127	0.038220
845.982631	0.038592
846.170117	0.038596
846.357584	0.038617
846.545033	0.038540
846.732464	0.038941
846.919877	0.038987
847.107272	0.039077
847.294648	0.039229
847.482006	0.039395
847.669346	0.039380
847.856667	0.039474
848.043971	0.039621
848.231256	0.040022
848.418523	0.040134
848.605771	0.040366
848.793002	0.040543
848.980214	0.040436
849.167408	0.040666
849.354584	0.040853
849.541742	0.040754
849.728881	0.040707
849.916002	0.040737
850.103105	0.040669
850.290190	0.040680
850.477256	0.040404
850.664304	0.040594
850.851334	0.040576
851.038346	0.040550
851.225340	0.040748
851.412315	0.040901
851.599272	0.041200
851.786211	0.041334
851.973132	0.041546
852.160034	0.041979
852.346918	0.041958
852.533784	0.042103
852.720632	0.042153
852.907462	0.042219
853.094273	0.042682
853.281066	0.042570
853.467841	0.042562
853.654598	0.042649
853.841336	0.042684
854.028056	0.042900
854.214758	0.042915
854.401442	0.043160
854.588107	0.043517
854.774755	0.043512
854.961384	0.043767
855.147995	0.044006
855.334587	0.044124
855.521162	0.044077
855.707718	0.044190
855.894256	0.044219
856.080775	0.044050
856.267277	0.043878
856.453760	0.043556
856.640225	0.043318
856.826672	0.043153
857.013101	0.043237
857.199511	0.043169
857.385903	0.043065
857.572277	0.043141
857.758633	0.043390
857.944970	0.043670
858.131290	0.043902
858.317591	0.044220
858.503873	0.044333
858.690138	0.044180
858.876384	0.044575
859.062612	0.044722
859.248822	0.044836
859.435014	0.044849
859.621188	0.044848
859.807343	0.045046
859.993480	0.045212
860.179599	0.045415
860.365699	0.045600
860.551781	0.045283
860.737846	0.045071
860.923891	0.045179
861.109919	0.044982
861.295929	0.044882
861.481920	0.044906
861.667893	0.044770
861.853848	0.044556
862.039784	0.044615
862.225702	0.044997
862.411603	0.045267
862.597484	0.045152
862.783348	0.045734
862.969193	0.045813
863.155021	0.045790
863.340830	0.045880
863.526620	0.046145
863.712393	0.045974
863.898147	0.045779
864.083883	0.045811
864.269601	0.045998
864.455301	0.045744
864.640982	0.045724
864.826645	0.045669
865.012290	0.045783
865.197917	0.045859
865.383526	0.046046
865.569116	0.046311
865.754688	0.046507
865.940242	0.046606
866.125777	0.046845
866.311295	0.046914
866.496794	0.047221
866.682275	0.047413
866.867737	0.047503
867.053182	0.047623
867.238608	0.047606
867.424016	0.048065
867.609406	0.047969
867.794778	0.047952
867.980131	0.048296
868.165466	0.048381
868.350783	0.048397
868.536082	0.048607
868.721362	0.048720
868.906625	0.048979
869.091869	0.048553
869.277094	0.048760
869.462302	0.048787
869.647491	0.048554
869.832662	0.048575
870.017815	0.048771
870.202950	0.048675
870.388066	0.048854
870.573165	0.048705
870.758245	0.048988
870.943306	0.048989
871.128350	0.049148
871.313375	0.049438
871.498382	0.049349
871.683371	0.049173
871.868342	0.049226
872.053294	0.049142
872.238229	0.049329
872.423144	0.049290
872.608042	0.049665
872.792922	0.049753
872.977783	0.049577
873.162626	0.049887
873.347451	0.049999
873.532258	0.050233
873.717046	0.050233
873.901816	0.049965
874.086568	0.050152
874.271302	0.049788
874.456017	0.049723
874.640715	0.049705
874.825394	0.049459
875.010055	0.049258
875.194697	0.049018
875.379322	0.048890
875.563928	0.049176
875.748516	0.049031
875.933085	0.048975
876.117637	0.049381
876.302170	0.049869
876.486685	0.050096
876.671182	0.050606
876.855661	0.050984
877.040121	0.051378
877.224563	0.051388
877.408987	0.051595
877.593393	0.051974
877.777780	0.051724
877.962150	0.051557
878.146501	0.051203
878.330833	0.051036
878.515148	0.050866
878.699444	0.050871
878.883722	0.051023
879.067982	0.051100
879.252224	0.051014
879.436447	0.050697
879.620653	0.050711
879.804840	0.050802
879.989008	0.050790
880.173159	0.051094
880.357291	0.050973
880.541405	0.050958
880.725501	0.050883
880.909579	0.050983
881.093638	0.051242
881.277680	0.051279
881.461703	0.051635
881.645707	0.051637
881.829694	0.051639
882.013662	0.051778
882.197612	0.051786
882.381544	0.051946
882.565458	0.052049
882.749353	0.052329
882.933230	0.052487
883.117089	0.052177
883.300930	0.052223
883.484753	0.052137
883.668557	0.052075
883.852343	0.051907
884.036111	0.051536
884.219861	0.051448
884.403592	0.051262
884.587305	0.051214
884.771000	0.051598
884.954677	0.051391
885.138335	0.051279
885.321976	0.051600
885.505598	0.051939
885.689201	0.052062
885.872787	0.051871
886.056354	0.052114
886.239904	0.052212
886.423434	0.052160
886.606947	0.052135
886.790442	0.052047
886.973918	0.051896
887.157376	0.051581
887.340816	0.051509
887.524237	0.051482
887.707641	0.051098
887.891026	0.050893
888.074393	0.050821
888.257741	0.051179
888.441072	0.051185
888.624384	0.051012
888.807678	0.051031
888.990954	0.051120
889.174211	0.051082
889.357451	0.051216
889.540672	0.051538
889.723875	0.051388
889.907059	0.051624
890.090226	0.051644
890.273374	0.051795
890.456504	0.052024
890.639616	0.052007
890.822709	0.052203
891.005785	0.052121
891.188842	0.051938
891.371881	0.051921
891.554901	0.051445
891.737904	0.051661
891.920888	0.051659
892.103854	0.051453
892.286802	0.051892
892.469731	0.052015
892.652643	0.052363
892.835536	0.052205
893.018410	0.052109
893.201267	0.051990
893.384106	0.051965
893.566926	0.051797
893.749728	0.051898
893.932511	0.051624
894.115277	0.051689
894.298024	0.051365
894.480753	0.051485
894.663464	0.051609
894.846157	0.051962
895.028831	0.051825
895.211487	0.051971
895.394125	0.052221
895.576745	0.052276
895.759346	0.052071
895.941930	0.052081
896.124495	0.052080
896.307041	0.052027
896.489570	0.051809
896.672080	0.051753
896.854573	0.051781
897.037046	0.051436
897.219502	0.050973
897.401940	0.051156
897.584359	0.051249
897.766760	0.051002
897.949143	0.051325
898.131507	0.051489
898.313854	0.051308
898.496182	0.051469
898.678492	0.051487
898.860783	0.051576
899.043057	0.051368
899.225312	0.051486
899.407549	0.051338
899.589768	0.051106
899.771968	0.050935
899.954151	0.051132
900.136315	0.050607
900.318461	0.050516
900.500588	0.050632
900.682698	0.050644
900.864789	0.050363
901.046862	0.050674
901.228917	0.050449
901.410953	0.050197
901.592971	0.050104
901.774972	0.049779
901.956953	0.049976
902.138917	0.049760
902.320862	0.049698
902.502790	0.049840
902.684699	0.049660
902.866589	0.049758
903.048462	0.050128
903.230316	0.050169
903.412152	0.050638
903.593970	0.050162
903.775770	0.050117
903.957551	0.049740
904.139314	0.049384
904.321059	0.049231
904.502786	0.048961
904.684494	0.048654
904.866185	0.048103
905.047857	0.047644
905.229510	0.047572
905.411146	0.047384
905.592763	0.047561
905.774363	0.047554
905.955943	0.047430
906.137506	0.047556
906.319051	0.047396
906.500577	0.047801
906.682085	0.047890
906.863575	0.047925
907.045046	0.047877
907.226500	0.047504
907.407935	0.047247
907.589352	0.047130
907.770750	0.046996
907.952131	0.046691
908.133493	0.046551
908.314837	0.046499
908.496163	0.046601
908.677470	0.046569
908.858760	0.046378
909.040031	0.046344
909.221284	0.046225
909.402518	0.046022
909.583735	0.046266
909.764933	0.046178
909.946113	0.046106
910.127275	0.045728
910.308418	0.045623
910.489544	0.045643
910.670651	0.045371
910.851740	0.045485
911.032810	0.045585
911.213863	0.045567
911.394897	0.045676
911.575913	0.045535
911.756911	0.046065
911.937890	0.046075
912.118851	0.046155
912.299794	0.046137
912.480719	0.046096
912.661626	0.045873
912.842514	0.045712
913.023384	0.045406
913.204236	0.045563
913.385070	0.044789
913.565886	0.045120
913.746683	0.045278
913.927462	0.045516
914.108223	0.045376
914.288965	0.045510
914.469690	0.045510
914.650396	0.045336
914.831084	0.044961
915.011754	0.044998
915.192405	0.044802
915.373038	0.044597
915.553653	0.044450
915.734250	0.044232
915.914829	0.044151
916.095389	0.043710
916.275931	0.043339
916.456455	0.043352
916.636961	0.043365
916.817448	0.042830
916.997917	0.042356
917.178368	0.042059
917.358801	0.041753
917.539216	0.041440
917.719612	0.041372
917.899990	0.041498
918.080350	0.041410
918.260692	0.040993
918.441015	0.040755
918.621320	0.040883
918.801607	0.040632
918.981876	0.040745
919.162127	0.040632
919.342359	0.040718
919.522573	0.040507
919.702769	0.040193
919.882947	0.039769
920.063106	0.039952
920.243247	0.039523
920.423370	0.039635
920.603475	0.039674
920.783562	0.039064
920.963630	0.038806
921.143680	0.038878
921.323712	0.038795
921.503725	0.039041
921.683721	0.038666
921.863698	0.038742
922.043657	0.038386
922.223598	0.037875
922.403520	0.037920
922.583424	0.037356
922.763311	0.036526
922.943178	0.036483
923.123028	0.036329
923.302859	0.036060
923.482673	0.036071
923.662467	0.035757
923.842244	0.035779
924.022003	0.036178
924.201743	0.036478
924.381465	0.036537
924.561169	0.036292
924.740854	0.035947
924.920522	0.036066
925.100171	0.035680
925.279802	0.035579
925.459414	0.034993
925.639009	0.034245
925.818585	0.033662
925.998143	0.033830
926.177683	0.033333
926.357205	0.033324
926.536708	0.033256
926.716193	0.033211
926.895660	0.033352
927.075109	0.033140
927.254539	0.033120
927.433951	0.033342
927.613345	0.033480
927.792721	0.033511
927.972079	0.033732
928.151418	0.033088
928.330739	0.032734
928.510042	0.032319
928.689327	0.032829
928.868593	0.032729
929.047841	0.032240
929.227071	0.031505
929.406283	0.031394
929.585476	0.030778
929.764652	0.031070
929.943809	0.030699
930.122948	0.030317
930.302068	0.029802
930.481171	0.029463
930.660255	0.029608
930.839321	0.029710
931.018369	0.029480
931.197398	0.029080
931.376409	0.028273
931.555402	0.028806
931.734377	0.028167
931.913334	0.027779
932.092272	0.027604
932.271192	0.027238
932.450094	0.026293
932.628978	0.026039
932.807844	0.026253
932.986691	0.026440
933.165520	0.025738
933.344331	0.025479
933.523123	0.025745
933.701898	0.025403
933.880654	0.024448
934.059392	0.024885
934.238111	0.024267
934.416813	0.023564
934.595496	0.022522
934.774161	0.022572
934.952808	0.023230
935.131437	0.022358
935.310047	0.022045
935.488639	0.022521
935.667213	0.021625
935.845769	0.021720
936.024306	0.021523
936.202825	0.022007
936.381326	0.021454
936.559809	0.020595
936.738274	0.020274
936.916720	0.020263
937.095148	0.019507
937.273558	0.019806
937.451950	0.018857
937.630323	0.018565
937.808678	0.018115
937.987015	0.018188
938.165334	0.017949
938.343635	0.018187
938.521917	0.017218
938.700181	0.017033
938.878427	0.016559
939.056655	0.017052
939.234864	0.017533
939.413055	0.016721
939.591228	0.015898
939.769383	0.016608
939.947519	0.016295
940.125638	0.016290
940.303738	0.016296
940.481820	0.016455
940.659883	0.016138
940.837929	0.015495
941.015956	0.015516
941.193965	0.015856
941.371955	0.015461
941.549928	0.015073
941.727882	0.015687
941.905818	0.015762
942.083736	0.015129
942.261636	0.015135
942.439517	0.015101
942.617380	0.015925
942.795225	0.015204
942.973052	0.014486
943.150860	0.013918
943.328651	0.013579
943.506423	0.013150
943.684176	0.013591
943.861912	0.013205
944.039629	0.013234
944.217328	0.012425
944.395009	0.012354
944.572672	0.011911
944.750317	0.011056
944.927943	0.010474
945.105551	0.010088
945.283141	0.009529
945.460712	0.009972
945.638265	0.009439
945.815801	0.010015
945.993317	0.010447
946.170816	0.010956
946.348297	0.011851
946.525759	0.012053
946.703203	0.012093
946.880629	0.011037
947.058036	0.011017
947.235425	0.010456
947.412797	0.009136
947.590149	0.007953
947.767484	0.007342
947.944800	0.008492
948.122099	0.009185
948.299379	0.009930
948.476640	0.010881
948.653884	0.009200
948.831109	0.009065
949.008316	0.009780
949.185505	0.010930
949.362676	0.011170
949.539828	0.009722
949.716962	0.008232
949.894078	0.007484
950.071176	0.006711
950.248256	0.007192
950.425317	0.007753
950.602360	0.007462
950.779385	0.006372
950.956391	0.007797
951.133380	0.007932
951.310350	0.007475
951.487302	0.007814
951.664235	0.007388
951.841151	0.007573
952.018048	0.005999
952.194927	0.006067
952.371788	0.005733
952.548631	0.003783
952.725455	0.003308
952.902261	0.004372
953.079049	0.004653
953.255819	0.005499
953.432570	0.004840
953.609303	0.006992
953.786018	0.006438
953.962715	0.007707
954.139394	0.007807
954.316054	0.007656
954.492696	0.006726
954.669320	0.006002
954.845926	0.007535
955.022513	0.008129
955.199083	0.007976
955.375634	0.008591
955.552166	0.008316
955.728681	0.008485
955.905177	0.010892
956.081655	0.011929
956.258115	0.011613
956.434557	0.011531
956.610980	0.010557
956.787385	0.009786
956.963772	0.009609
957.140141	0.009389
957.316492	0.010801
957.492824	0.008195
957.669138	0.008299
957.845434	0.008087
958.021712	0.006212
958.197971	0.008355
958.374212	0.006703
958.550435	0.006186
958.726640	0.006697
958.902826	0.005398
959.078995	0.007886
959.255145	0.008286
959.431277	0.009177
959.607390	0.008389
959.783486	0.007239
959.959563	0.008780
960.135622	0.010260
960.311662	0.010111
960.487685	0.011285
960.663689	0.008984
960.839675	0.008210
961.015643	0.009120
961.191593	0.011358
961.367524	0.012500
961.543437	0.011240
961.719332	0.009246
961.895209	0.009756
962.071067	0.009311
962.246907	0.011576
962.422730	0.011424
962.598533	0.009939
962.774319	0.008004
962.950086	0.008513
963.125835	0.009473
963.301566	0.009444
963.477279	0.008652
963.652973	0.008409
963.828650	0.008694
964.004308	0.008934
964.179947	0.009080
964.355569	0.010452
964.531172	0.010096
964.706757	0.012430
964.882324	0.015842
965.057873	0.017009
965.233403	0.015630
965.408916	0.014975
965.584410	0.014277
965.759885	0.012532
965.935343	0.013406
966.110782	0.012648
966.286203	0.009868
966.461606	0.007187
966.636991	0.006585
966.812357	0.009129
966.987705	0.010120
967.163035	0.010960
967.338347	0.014130
967.513641	0.014208
967.688916	0.014504
967.864173	0.017726
968.039412	0.016761
968.214632	0.016162
968.389835	0.016493
968.565019	0.013239
968.740185	0.012810
968.915333	0.011554
969.090462	0.011409
969.265573	0.012387
969.440667	0.012005
969.615741	0.014545
969.790798	0.014556
969.965836	0.013648
970.140856	0.015239
970.315858	0.017363
970.490842	0.017298
970.665808	0.017160
970.840755	0.017012
971.015684	0.014623
971.190595	0.014445
971.365487	0.012353
971.540362	0.011869
971.715218	0.013652
971.890056	0.012828
972.064875	0.012867
972.239677	0.012461
972.414460	0.010505
972.589225	0.012921
972.763972	0.013370
972.938700	0.015142
973.113411	0.015449
973.288103	0.013440
973.462777	0.012418
973.637432	0.011793
973.812070	0.013509
973.986689	0.015312
974.161290	0.014075
974.335873	0.013488
974.510437	0.013885
974.684984	0.014398
974.859512	0.013683
975.034022	0.014278
975.208513	0.014562
975.382987	0.012651
975.557442	0.011385
975.731879	0.011280
975.906298	0.011023
976.080698	0.010881
976.255080	0.011962
976.429445	0.012423
976.603790	0.012069
976.778118	0.013021
976.952427	0.012139
977.126719	0.013556
977.300992	0.014215
977.475246	0.012019
977.649483	0.012570
977.823701	0.012251
977.997901	0.013143
978.172083	0.012954
978.346247	0.012049
978.520392	0.012982
978.694519	0.013066
978.868628	0.013624
979.042719	0.016728
979.216791	0.016125
979.390845	0.016066
979.564882	0.015779
979.738899	0.016398
979.912899	0.016729
980.086880	0.018802
980.260843	0.017731
980.434788	0.016407
980.608715	0.013929
980.782623	0.014409
980.956514	0.013285
981.130386	0.013262
981.304240	0.011792
981.478075	0.012946
981.651892	0.010732
981.825692	0.011199
981.999472	0.013035
982.173235	0.015460
982.346980	0.015173
982.520706	0.015125
982.694414	0.013812
982.868104	0.015405
983.041775	0.014228
983.215428	0.014133
983.389064	0.014562
983.562680	0.012539
983.736279	0.011553
983.909860	0.013141
984.083422	0.013682
984.256966	0.014574
984.430491	0.013482
984.603999	0.014682
984.777488	0.016012
984.950959	0.016244
985.124412	0.016526
985.297847	0.020130
985.471263	0.018978
985.644661	0.020060
985.818041	0.019978
985.991403	0.022165
986.164747	0.021383
986.338072	0.020707
986.511379	0.020001
986.684668	0.019480
986.857938	0.016118
987.031191	0.016104
987.204425	0.015069
987.377641	0.014658
987.550839	0.011852
987.724018	0.012417
987.897179	0.011471
988.070322	0.010609
988.243447	0.010697
988.416554	0.010308
988.589642	0.010888
988.762712	0.009920
988.935764	0.012605
989.108798	0.013727
989.281813	0.012919
989.454811	0.013732
989.627790	0.015499
989.800751	0.015037
989.973693	0.015890
990.146617	0.014500
990.319524	0.016187
990.492412	0.012811
990.665281	0.011785
990.838133	0.013260
991.010966	0.012786
991.183781	0.012662
991.356578	0.013448
991.529356	0.013167
991.702117	0.013053
991.874859	0.011498
992.047583	0.012900
992.220288	0.014158
992.392976	0.014227
992.565645	0.013548
992.738296	0.013462
992.910929	0.012353
993.083543	0.012025
993.256139	0.013829
993.428718	0.015057
993.601277	0.014440
993.773819	0.013203
993.946342	0.012055
994.118848	0.012773
994.291335	0.013424
994.463803	0.015859
994.636254	0.016250
994.808686	0.014892
994.981100	0.014382
995.153496	0.015214
995.325874	0.015555
995.498233	0.016740
995.670574	0.017312
995.842897	0.015672
996.015202	0.014051
996.187488	0.014042
996.359757	0.014100
996.532007	0.013579
996.704239	0.013485
996.876452	0.013811
997.048648	0.014125
997.220825	0.013342
997.392984	0.013034
997.565124	0.013115
997.737247	0.011288
997.909351	0.011038
998.081437	0.011502
998.253505	0.010509
998.425554	0.010528
998.597586	0.009065
998.769599	0.008993
998.941594	0.011302
999.113571	0.011306
999.285529	0.012431
999.457469	0.012095
999.629391	0.013423
999.801295	0.014569
999.973181	0.015348
1000.145048	0.015988
1000.316897	0.016569
1000.488728	0.016356
1000.660541	0.015379
1000.832335	0.016892
1001.004111	0.016916
1001.175869	0.015681
1001.347609	0.015933
1001.519331	0.015186
1001.691034	0.013679
1001.862719	0.014530
1002.034386	0.013416
1002.206035	0.015404
1002.377665	0.013589
1002.549277	0.012458
1002.720871	0.012425
1002.892447	0.010795
1003.064004	0.011240
1003.235544	0.010979
1003.407065	0.010352
1003.578568	0.009337
1003.750052	0.009671
1003.921519	0.009248
1004.092967	0.009543
1004.264397	0.007910
1004.435809	0.008667
1004.607202	0.008010
1004.778577	0.008397
1004.949934	0.006894
1005.121273	0.008427
1005.292594	0.007290
1005.463896	0.007279
1005.635180	0.008090
1005.806446	0.009341
1005.977694	0.009565
1006.148923	0.008906
1006.320135	0.009682
1006.491328	0.010606
1006.662503	0.009841
1006.833659	0.009595
1007.004798	0.010317
1007.175918	0.010528
1007.347020	0.010474
1007.518103	0.010603
1007.689169	0.011252
1007.860216	0.011514
1008.031245	0.009751
1008.202256	0.008015
1008.373248	0.007452
1008.544223	0.008495
1008.715179	0.009388
1008.886117	0.009222
1009.057036	0.008686
1009.227938	0.009180
1009.398821	0.008424
1009.569686	0.010393
1009.740533	0.012421
1009.911361	0.012940
1010.082172	0.011717
1010.252964	0.011174
1010.423738	0.011366
1010.594493	0.012840
1010.765231	0.013178
1010.935950	0.012377
1011.106651	0.011868
1011.277334	0.010138
1011.447998	0.011915
1011.618645	0.011509
1011.789273	0.010053
1011.959882	0.010007
1012.130474	0.008709
1012.301048	0.008632
1012.471603	0.009653
1012.642140	0.010378
1012.812658	0.011373
1012.983159	0.009280
1013.153641	0.008923
1013.324105	0.008408
1013.494551	0.008837
1013.664979	0.008288
1013.835388	0.007726
1014.005779	0.007601
1014.176152	0.006529
1014.346507	0.006851
1014.516843	0.007434
1014.687162	0.008676
1014.857462	0.009903
1015.027744	0.009427
1015.198007	0.009861
1015.368252	0.010540
1015.538480	0.009477
1015.708689	0.009316
1015.878879	0.009424
1016.049052	0.008942
1016.219206	0.008691
1016.389342	0.009238
1016.559460	0.009453
1016.729559	0.009885
1016.899641	0.009593
1017.069704	0.011353
1017.239749	0.012329
1017.409775	0.011486
1017.579784	0.011870
1017.749774	0.011525
1017.919746	0.010573
1018.089700	0.009932
1018.259635	0.009044
1018.429553	0.009568
1018.599452	0.008875
1018.769333	0.008553
1018.939195	0.010707
1019.109040	0.010553
1019.278866	0.010891
1019.448674	0.011800
1019.618464	0.012200
1019.788235	0.012401
1019.957989	0.011148
1020.127724	0.011424
1020.297441	0.011153
1020.467139	0.010150
1020.636820	0.009921
1020.806482	0.009557
1020.976126	0.008368
1021.145752	0.006566
1021.315359	0.006636
1021.484948	0.007652
1021.654519	0.007920
1021.824072	0.008436
1021.993607	0.008140
1022.163123	0.009254
1022.332621	0.010250
1022.502101	0.011512
1022.671563	0.013862
1022.841007	0.013529
1023.010432	0.013538
1023.179839	0.014663
1023.349228	0.015077
1023.518598	0.014062
1023.687951	0.014294
1023.857285	0.013820
1024.026601	0.013244
1024.195899	0.013294
1024.365178	0.013744
1024.534439	0.012525
1024.703682	0.011355
1024.872907	0.010540
1025.042114	0.010806
1025.211302	0.009655
1025.380472	0.009622
1025.549624	0.010881
1025.718758	0.010324
1025.887873	0.011169
1026.056970	0.012353
1026.226049	0.011231
1026.395110	0.011814
1026.564153	0.013408
1026.733177	0.013699
1026.902183	0.013189
1027.071171	0.010804
1027.240141	0.009691
1027.409092	0.009308
1027.578026	0.007416
1027.746940	0.008428
1027.915837	0.008180
1028.084716	0.006628
1028.253576	0.006319
1028.422418	0.006506
1028.591242	0.007361
1028.760048	0.007541
1028.928835	0.008244
1029.097604	0.009279
1029.266355	0.008727
1029.435088	0.009963
1029.603803	0.010449
1029.772499	0.010608
1029.941177	0.010353
1030.109837	0.010742
1030.278478	0.012685
1030.447102	0.011187
1030.615707	0.010799
1030.784294	0.010480
1030.952863	0.008549
1031.121413	0.007920
1031.289945	0.008544
1031.458460	0.009051
1031.626955	0.007946
1031.795433	0.005523
1031.963892	0.004780
1032.132334	0.003133
1032.300756	0.003389
1032.469161	0.003751
1032.637548	0.003726
1032.805916	0.003236
1032.974266	0.004165
1033.142598	0.004371
1033.310911	0.004543
1033.479207	0.005084
1033.647484	0.007431
1033.815743	0.006149
1033.983983	0.006139
1034.152206	0.006150
1034.320410	0.005411
1034.488596	0.004034
1034.656764	0.004797
1034.824914	0.005213
1034.993045	0.004770
1035.161158	0.004458
1035.329253	0.005170
1035.497330	0.004118
1035.665388	0.004774
1035.833428	0.006258
1036.001450	0.007157
1036.169454	0.006939
1036.337440	0.007410
1036.505407	0.007781
1036.673356	0.006476
1036.841287	0.006848
1037.009200	0.007474
1037.177094	0.007195
1037.344970	0.006619
1037.512828	0.005516
1037.680668	0.006187
1037.848489	0.005167
1038.016293	0.005394
1038.184078	0.006724
1038.351845	0.005991
1038.519593	0.005167
1038.687324	0.004564
1038.855036	0.004345
1039.022730	0.004539
1039.190406	0.004309
1039.358063	0.005254
1039.525702	0.006485
1039.693323	0.005451
1039.860926	0.004822
1040.028511	0.005843
1040.196077	0.006925
1040.363625	0.006055
1040.531155	0.006864
1040.698667	0.007229
1040.866161	0.007188
1041.033636	0.005972
1041.201093	0.009440
1041.368532	0.011425
1041.535952	0.012956
1041.703355	0.011480
1041.870739	0.011844
1042.038105	0.011379
1042.205452	0.011683
1042.372782	0.011052
1042.540093	0.009289
1042.707386	0.006646
1042.874661	0.005624
1043.041918	0.003846
1043.209156	0.006052
1043.376376	0.006930
1043.543578	0.008586
1043.710762	0.009315
1043.877927	0.010959
1044.045074	0.013225
1044.212203	0.012466
1044.379314	0.014054
1044.546407	0.013407
1044.713481	0.012708
1044.880537	0.010664
1045.047575	0.008799
1045.214595	0.006477
1045.381596	0.006869
1045.548579	0.005743
1045.715544	0.005381
1045.882491	0.004728
1046.049420	0.007108
1046.216330	0.005730
1046.383222	0.006877
1046.550096	0.007196
1046.716951	0.008418
1046.883789	0.007102
1047.050608	0.008188
1047.217409	0.009216
1047.384192	0.008884
1047.550956	0.007780
1047.717703	0.008371
1047.884431	0.007452
1048.051140	0.005511
1048.217832	0.004253
1048.384505	0.003142
1048.551161	0.001749
1048.717798	0.002057
1048.884416	0.001968
1049.051017	0.001306
1049.217599	0.001957
1049.384163	0.003509
1049.550709	0.004620
1049.717237	0.005036
1049.883746	0.005797
1050.050237	0.006256
1050.216710	0.007120
1050.383165	0.007820
1050.549601	0.008223
1050.716019	0.006125
1050.882420	0.004724
1051.048801	0.004393
1051.215165	0.006267
1051.381510	0.008043
1051.547837	0.009022
1051.714146	0.007314
1051.880437	0.007063
1052.046709	0.007628
1052.212964	0.010259
1052.379200	0.011330
1052.545417	0.013185
1052.711617	0.012675
1052.877798	0.012602
1053.043961	0.011951
1053.210106	0.013499
1053.376233	0.014253
1053.542341	0.013919
1053.708432	0.012668
1053.874504	0.012046
1054.040557	0.009643
1054.206593	0.008065
1054.372610	0.006389
1054.538609	0.007960
1054.704590	0.006835
1054.870553	0.006273
1055.036497	0.006192
1055.202424	0.005824
1055.368331	0.004830
1055.534221	0.004921
1055.700093	0.004383
1055.865946	0.005384
1056.031781	0.005660
1056.197598	0.005801
1056.363397	0.005870
1056.529177	0.006553
1056.694939	0.005459
1056.860683	0.007614
1057.026409	0.007915
1057.192116	0.008460
1057.357806	0.007564
1057.523477	0.006378
1057.689130	0.008146
1057.854764	0.007802
1058.020381	0.006277
1058.185979	0.007060
1058.351559	0.007305
1058.517120	0.007827
1058.682664	0.009043
1058.848189	0.010384
1059.013696	0.010352
1059.179185	0.006683
1059.344656	0.006527
1059.510108	0.006420
1059.675542	0.006364
1059.840958	0.004507
1060.006356	0.004316
1060.171735	0.003041
1060.337096	0.000861
1060.502439	0.002437
1060.667764	0.005411
1060.833071	0.004621
1060.998359	0.005704
1061.163629	0.006686
1061.328881	0.006605
1061.494115	0.007219
1061.659330	0.006679
1061.824527	0.008544
1061.989706	0.006991
1062.154867	0.005335
1062.320010	0.005576
1062.485134	0.004031
1062.650240	0.003728
1062.815328	0.006269
1062.980398	0.007131
1063.145449	0.007201
1063.310482	0.006561
1063.475497	0.005014
1063.640494	0.006162
1063.805473	0.005122
1063.970433	0.007807
1064.135375	0.007039
1064.300299	0.004458
1064.465204	0.003557
1064.630092	0.004069
1064.794961	0.003967
1064.959812	0.005334
1065.124645	0.004589
1065.289459	0.005601
1065.454256	0.005729
1065.619034	0.006255
1065.783793	0.008098
1065.948535	0.009478
1066.113258	0.009579
1066.277964	0.010843
1066.442651	0.009725
1066.607319	0.009604
1066.771970	0.008540
1066.936602	0.006402
1067.101216	0.005430
1067.265812	0.004068
1067.430389	0.003072
1067.594949	0.004104
1067.759490	0.003633
1067.924013	0.004673
1068.088518	0.005513
1068.253004	0.005566
1068.417472	0.004461
1068.581922	0.006666
1068.746354	0.006262
1068.910768	0.007072
1069.075163	0.006586
1069.239540	0.005575
1069.403899	0.004731
1069.568240	0.005949
1069.732562	0.006842
1069.896866	0.008040
1070.061152	0.005363
1070.225420	0.005580
1070.389670	0.005477
1070.553901	0.006510
1070.718114	0.007131
1070.882309	0.006894
1071.046486	0.004899
1071.210644	0.006258
1071.374784	0.006410
1071.538906	0.007661
1071.703010	0.008381
1071.867096	0.006908
1072.031163	0.006216
1072.195212	0.004662
1072.359243	0.004564
1072.523256	0.004417
1072.687250	0.002563
1072.851226	0.000301
1073.015184	-0.000104
1073.179124	-0.000165
1073.343045	0.000106
1073.506949	0.000067
1073.670834	0.001418
1073.834701	0.000709
1073.998549	0.000703
1074.162380	0.000351
1074.326192	0.002718
1074.489986	0.003292
1074.653761	0.002773
1074.817519	0.003059
1074.981258	0.001047
1075.144979	0.000260
1075.308682	0.000792
1075.472367	0.002692
1075.636033	0.003875
1075.799681	0.005000
1075.963311	0.005919
1076.126923	0.005196
1076.290516	0.004921
1076.454092	0.007475
1076.617649	0.006562
1076.781187	0.007334
1076.944708	0.005053
1077.108210	0.005610
1077.271695	0.003959
1077.435160	0.002679
1077.598608	0.004665
1077.762038	0.002640
1077.925449	0.001005
1078.088842	0.000462
1078.252217	0.002084
1078.415573	0.004392
1078.578912	0.002300
1078.742232	0.003168
1078.905534	0.004688
1079.068817	0.004220
1079.232083	0.006573
1079.395330	0.004516
1079.558559	0.007053
1079.721770	0.006429
1079.884962	0.005417
1080.048136	0.005834
1080.211293	0.004713
1080.374430	0.002390
1080.537550	0.003320
1080.700651	0.002234
1080.863735	0.005241
1081.026800	0.004508
1081.189846	0.004727
1081.352875	0.003163
1081.515885	0.003930
1081.678877	0.003561
1081.841851	0.003816
1082.004807	0.002368
1082.167744	0.003367
1082.330663	0.002732
1082.493564	0.003089
1082.656447	0.003705
1082.819312	0.004756
1082.982158	0.005771
1083.144986	0.005680
1083.307796	0.006433
1083.470587	0.006799
1083.633361	0.006588
1083.796116	0.008027
1083.958853	0.008085
1084.121571	0.006250
1084.284272	0.006441
1084.446954	0.007586
1084.609618	0.008635
1084.772264	0.008095
1084.934892	0.007741
1085.097501	0.006933
1085.260092	0.004678
1085.422665	0.005125
1085.585220	0.004351
1085.747756	0.003068
1085.910274	0.001622
1086.072774	0.002799
1086.235256	0.002275
1086.397720	0.004409
1086.560165	0.005782
1086.722592	0.005398
1086.885001	0.005275
1087.047392	0.005814
1087.209764	0.007226
1087.372119	0.005800
1087.534455	0.006715
1087.696772	0.007241
1087.859072	0.005051
1088.021353	0.003058
1088.183616	0.004695
1088.345861	0.004020
1088.508088	0.005653
1088.670296	0.005209
1088.832486	0.007075
1088.994658	0.004210
1089.156812	0.004607
1089.318948	0.004774
1089.481065	0.004772
1089.643164	0.006099
1089.805245	0.007370
1089.967308	0.007909
1090.129352	0.009247
1090.291378	0.007878
1090.453386	0.008228
1090.615376	0.009033
1090.777347	0.010892
1090.939301	0.013451
1091.101236	0.012571
1091.263153	0.012144
1091.425051	0.010587
1091.586932	0.009192
1091.748794	0.010619
1091.910638	0.012783
1092.072463	0.012530
1092.234271	0.010657
1092.396060	0.008992
1092.557831	0.008096
1092.719584	0.006903
1092.881319	0.005189
1093.043035	0.005443
1093.204733	0.002931
1093.366413	0.001052
1093.528075	0.001388
1093.689718	0.002047
1093.851343	0.003356
1094.012950	0.002871
1094.174539	0.003344
1094.336110	0.004701
1094.497662	0.004909
1094.659196	0.005866
1094.820712	0.006141
1094.982210	0.006075
1095.143689	0.004452
1095.305151	0.004162
1095.466594	0.003461
1095.628018	0.001279
1095.789425	0.003510
1095.950813	0.003130
1096.112183	0.002116
1096.273535	0.002524
1096.434869	0.003565
1096.596184	0.005065
1096.757482	0.002649
1096.918761	0.002820
1097.080021	0.006483
1097.241264	0.003085
1097.402488	0.003848
1097.563694	0.004356
1097.724882	0.004732
1097.886052	0.005539
1098.047203	0.003848
1098.208336	0.004671
1098.369451	0.004438
1098.530548	0.001590
1098.691627	0.003005
1098.852687	0.002306
1099.013729	0.004499
1099.174753	0.002744
1099.335758	0.001031
1099.496746	0.002326
1099.657715	0.001740
1099.818666	0.001925
1099.979599	0.001959
1100.140513	0.002642
1100.301409	0.005246
1100.462287	0.003712
1100.623147	0.006799
1100.783989	0.006213
1100.944812	0.004118
1101.105617	0.006200
1101.266404	0.007558
1101.427173	0.009687
1101.587923	0.007434
1101.748656	0.007273
1101.909370	0.006761
1102.070066	0.006750
1102.230743	0.007642
1102.391403	0.010855
1102.552044	0.010230
1102.712667	0.009365
1102.873271	0.009376
1103.033858	0.012065
1103.194426	0.011579
1103.354976	0.011885
1103.515508	0.009763
1103.676021	0.007391
1103.836517	0.003355
1103.996994	0.003613
1104.157453	0.007638
1104.317893	0.005088
1104.478316	0.002666
1104.638720	0.001149
1104.799106	-0.001052
1104.959474	-0.002369
1105.119823	0.000689
1105.280155	0.001174
1105.440468	0.000211
1105.600763	-0.004358
1105.761039	-0.004551
1105.921298	-0.004101
1106.081538	-0.004189
1106.241760	-0.001188
1106.401964	-0.000725
1106.562149	-0.004815
1106.722316	-0.002654
1106.882465	-0.003663
1107.042596	-0.001329
1107.202709	0.001859
1107.362803	-0.000795
1107.522879	-0.000469
1107.682937	0.001784
1107.842977	0.000256
1108.002999	0.002979
1108.163002	0.002157
1108.322987	0.004264
1108.482954	0.001076
1108.642902	-0.001363
1108.802833	0.001942
1108.962745	-0.000465
1109.122639	-0.002858
1109.282515	0.000203
1109.442372	0.004015
1109.602211	0.003005
1109.762032	0.004850
1109.921835	0.008862
1110.081620	0.011631
1110.241386	0.010372
1110.401134	0.009728
1110.560864	0.009281
1110.720576	0.007940
1110.880269	0.002793
1111.039945	0.002306
1111.199602	0.002208
1111.359240	-0.002004
1111.518861	-0.004658
1111.678463	-0.002297
1111.838047	-0.001931
1111.997613	0.002213
1112.157161	0.003584
1112.316690	0.006923
1112.476202	0.009085
1112.635695	0.010118
1112.795169	0.010184
1112.954626	0.009154
1113.114064	0.009757
1113.273484	0.011178
1113.432886	0.005970
1113.592270	0.002005
1113.751635	0.002006
1113.910983	0.005167
1114.070312	0.003984
1114.229622	0.007466
1114.388915	0.010132
1114.548189	0.009340
1114.707445	0.010378
1114.866683	0.014413
1115.025903	0.018203
1115.185104	0.014780
1115.344287	0.010731
1115.503452	0.006320
1115.662599	0.006953
1115.821727	0.004317
1115.980838	0.002226
1116.139930	0.001260
1116.299004	-0.002979
1116.458059	-0.001765
1116.617097	0.001379
1116.776116	0.004310
1116.935117	0.007458
1117.094099	0.008797
1117.253064	0.011388
1117.412010	0.009066
1117.570938	0.009324
1117.729848	0.010533
1117.888740	0.009750
1118.047613	0.007628
1118.206468	0.007035
1118.365305	0.003619
1118.524124	-0.002581
1118.682924	-0.004211
1118.841707	-0.000156
1119.000471	-0.001631
1119.159216	0.002586
1119.317944	0.002137
1119.476653	0.001117
1119.635344	0.000503
1119.794017	0.005028
1119.952672	0.009489
1120.111308	0.010331
1120.269927	0.009679
1120.428527	0.016176
1120.587108	0.017688
1120.745672	0.017794
1120.904217	0.014770
1121.062744	0.011605
1121.221253	0.013811
1121.379744	0.015904
1121.538216	0.016184
1121.696671	0.015520
1121.855107	0.010557
1122.013524	0.001813
1122.171924	0.003091
1122.330305	0.008327
1122.488668	0.004807
1122.647013	0.001990
1122.805340	-0.001959
1122.963648	0.000107
1123.121938	0.002460
1123.280210	0.003049
1123.438464	0.009204
1123.596700	0.010606
1123.754917	0.009758
1123.913116	0.015829
1124.071297	0.013704
1124.229459	0.015615
1124.387604	0.016204
1124.545730	0.013467
1124.703838	0.011937
1124.861928	0.008997
1125.019999	0.006991
1125.178052	0.006444
1125.336088	0.011787
1125.494104	0.012025
1125.652103	0.010021
1125.810083	0.007170
1125.968045	0.008412
1126.125989	0.008862
1126.283915	0.008590
1126.441823	0.006991
1126.599712	0.003991
1126.757583	-0.001250
1126.915436	-0.002999
1127.073270	-0.003981
1127.231087	-0.002528
1127.388885	0.000028
1127.546665	0.000927
1127.704426	0.002712
1127.862170	0.002346
1128.019895	0.005520
1128.177602	0.004574
1128.335291	0.009772
1128.492961	0.010925
1128.650614	0.006647
1128.808248	0.007931
1128.965864	0.007836
1129.123461	0.003696
1129.281041	0.005008
1129.438602	0.007669
1129.596145	0.009610
1129.753670	0.008255
1129.911176	0.012556
1130.068665	0.016595
1130.226135	0.012207
1130.383587	0.016284
1130.541020	0.016510
1130.698436	0.017179
1130.855833	0.015785
1131.013212	0.012824
1131.170573	0.009087
1131.327915	0.002405
1131.485239	0.004135
1131.642545	0.003739
1131.799833	-0.002230
1131.957103	0.000500
1132.114354	0.000446
1132.271588	-0.003498
1132.428803	-0.004038
1132.585999	0.003331
1132.743178	0.003979
1132.900338	0.000556
1133.057480	-0.004421
1133.214604	-0.003846
1133.371710	-0.002667
1133.528797	-0.002268
1133.685866	-0.002815
1133.842917	-0.003276
1133.999950	-0.006622
1134.156964	-0.001326
1134.313960	0.000893
1134.470938	0.007408
1134.627898	0.009413
1134.784840	0.001948
1134.941763	-0.002301
1135.098668	0.005723
1135.255555	0.012409
1135.412424	0.013117
1135.569274	0.012629
1135.726107	0.008953
1135.882921	0.007520
1136.039716	0.005357
1136.196494	0.011448
1136.353253	0.017310
1136.509995	0.015191
1136.666717	0.009818
1136.823422	0.014922
1136.980109	0.009759
1137.136777	0.010795
1137.293427	0.012844
1137.450059	0.014404
1137.606672	0.012942
1137.763267	0.006588
1137.919844	0.000438
1138.076403	0.003538
1138.232944	-0.002401
1138.389466	-0.003329
1138.545971	-0.004421
1138.702457	-0.004967
1138.858924	-0.001405
1139.015374	-0.001198
1139.171805	0.005832
1139.328218	0.016247
1139.484613	0.014797
1139.640990	0.009809
1139.797348	0.012475
1139.953688	0.015618
1140.110010	0.015996
1140.266314	0.010033
1140.422600	0.008171
1140.578867	0.008229
1140.735116	0.003135
1140.891347	0.007558
1141.047559	0.006165
1141.203754	0.004577
1141.359930	0.005884
1141.516088	0.005455
1141.672228	0.008658
1141.828349	0.015498
1141.984452	0.009977
1142.140537	0.006438
1142.296604	0.002064
1142.452653	0.009149
1142.608683	0.011307
1142.764695	0.014282
1142.920689	0.013077
1143.076665	0.006402
1143.232622	0.002013
1143.388562	0.007749
1143.544483	0.007326
1143.700385	0.006905
1143.856270	0.001889
1144.012136	0.001380
1144.167985	-0.004449
1144.323814	-0.001390
1144.479626	0.007746
1144.635420	0.010154
1144.791195	0.006750
1144.946952	0.010967
1145.102691	0.010798
1145.258411	0.014016
1145.414113	0.015492
1145.569798	0.019957
1145.725463	0.014591
1145.881111	0.012320
1146.036741	0.011330
1146.192352	0.005186
1146.347945	0.000830
1146.503519	-0.002449
1146.659076	-0.000181
1146.814614	0.002424
1146.970134	0.003938
1147.125636	0.009439
1147.281120	0.009097
1147.436585	0.011419
1147.592032	0.024390
1147.747461	0.027669
1147.902872	0.034984
1148.058265	0.027677
1148.213639	0.024867
1148.368995	0.029624
1148.524333	0.029378
1148.679653	0.031813
1148.834954	0.029430
1148.990237	0.023745
1149.145502	0.021572
1149.300749	0.014280
1149.455977	0.016606
1149.611188	0.010332
1149.766380	0.000226
1149.921553	-0.003366
1150.076709	-0.006021
1150.231846	-0.007289
1150.386966	-0.014026
1150.542066	-0.011637
1150.697149	-0.012389
1150.852214	-0.011212
1151.007260	-0.004010
1151.162288	-0.006029
1151.317298	-0.012175
1151.472289	-0.013912
1151.627263	-0.010120
1151.782218	-0.003418
1151.937155	-0.004101
1152.092073	-0.003812
1152.246974	-0.003974
1152.401856	-0.000684
1152.556720	-0.000783
1152.711566	0.007800
1152.866393	0.008247
1153.021203	0.010938
1153.175994	0.011605
1153.330767	0.020091
1153.485521	0.027199
1153.640258	0.027184
1153.794976	0.027504
1153.949676	0.034401
1154.104358	0.027271
1154.259021	0.028581
1154.413667	0.021575
1154.568294	0.018176
1154.722903	0.006292
1154.877493	0.004169
1155.032066	0.003031
1155.186620	-0.006661
1155.341156	-0.011908
1155.495674	-0.001428
1155.650173	0.005979
1155.804654	0.003084
1155.959118	0.004418
1156.113562	0.000495
1156.267989	0.006869
1156.422397	0.006787
1156.576788	0.008596
1156.731160	0.018706
1156.885513	0.019005
1157.039849	0.012774
1157.194166	0.017025
1157.348465	0.008811
1157.502746	0.016453
1157.657009	0.005625
1157.811253	0.008065
1157.965479	0.009381
1158.119687	-0.002515
1158.273877	-0.009826
1158.428048	-0.004112
1158.582201	-0.008217
1158.736337	-0.001176
1158.890453	-0.003251
1159.044552	-0.001540
1159.198632	0.001847
1159.352694	0.005496
1159.506738	0.006217
1159.660764	0.000857
1159.814771	-0.009311
1159.968761	-0.006528
1160.122732	-0.005093
1160.276685	0.004210
1160.430619	0.012738
1160.584535	0.008042
1160.738434	0.004031
1160.892313	0.003001
1161.046175	0.008649
1161.200019	0.004679
1161.353844	0.003047
1161.507651	-0.003723
1161.661440	-0.008114
1161.815210	-0.015635
1161.968962	-0.018296
1162.122697	-0.019620
1162.276412	-0.019978
1162.430110	-0.021250
1162.583789	-0.021792
1162.737451	-0.018121
1162.891094	-0.015208
1163.044718	-0.022734
1163.198325	-0.017645
1163.351913	-0.013015
1163.505483	-0.010816
1163.659035	-0.015762
1163.812569	-0.000245
1163.966084	-0.000111
1164.119581	0.002646
1164.273060	0.000286
1164.426521	0.004249
1164.579964	-0.006578
1164.733388	-0.001991
1164.886794	0.009457
1165.040182	0.026008
1165.193551	0.015428
1165.346903	0.020828
1165.500236	0.015145
1165.653551	0.023874
1165.806848	0.017042
1165.960126	0.026490
1166.113386	0.012829
1166.266628	-0.003603
1166.419852	-0.013652
1166.573058	-0.020004
1166.726245	-0.019756
1166.879414	-0.012590
1167.032565	-0.008282
1167.185698	0.003354
1167.338812	0.005996
1167.491909	0.013028
1167.644987	0.014026
1167.798046	0.021668
1167.951088	0.035215
1168.104111	0.039508
1168.257117	0.038149
1168.410103	0.027269
1168.563072	0.021299
1168.716023	0.006958
1168.868955	0.012020
1169.021869	0.022580
1169.174765	0.018197
1169.327642	0.022684
1169.480501	0.015718
1169.633343	0.000988
1169.786165	-0.003282
1169.938970	-0.000295
1170.091757	0.005266
1170.244525	-0.006779
1170.397275	0.000015
1170.550007	0.004250
1170.702720	-0.017554
1170.855415	-0.013331
1171.008092	-0.004655
1171.160751	0.001440
1171.313392	-0.000696
1171.466014	0.001372
1171.618619	0.004029
1171.771205	0.004029
1171.923772	0.004029
