sample name	sample
index	435
start time	 03-11-2021  10:23:13 AM
880	-0.006042
Peak Time (s)	90.535
Peak Height 	-0.006042
calc peak height	90,93
Baseline Time (s)	11.036
Baseline Value 	-0.005439
subtract baseline	10,4
Abs	-0.010271
Peak Time (s)	90.038
Peak Height 	-0.01027
calc peak height	90,93
Baseline Time (s)	8.537
Baseline Value 	0.004925
subtract baseline	10,3
PK_550	-0.004128
Peak Time (s)	91.038
Peak Height 	-0.004128
calc peak height	90,93
Baseline Time (s)	8.537
Baseline Value 	0.001073
subtract baseline	10,2
PK_880	-0.007726
Peak Time (s)	91.038
Peak Height 	-0.007726
calc peak height	90,93
Baseline Time (s)	11.536
Baseline Value 	0.002984
subtract baseline	10,1


Time (s)	A880-A510	A880-A775	A880-A975	A880	I510	I775	I975	I880	
0.034500	-0.001076	-0.000031	-0.003809	0.003791	7070.966942	46113.947651	3834.351857	24222.404979
0.540500	-0.003107	-0.000528	-0.006832	0.005156	7036.931534	45928.464323	3822.582872	24154.869699
1.035000	-0.001944	0.000212	-0.002381	0.003287	7067.308691	46188.689661	3839.575513	24247.431101
1.583500	0.000509	0.000241	-0.002703	-0.000349	7128.960310	46556.968399	3848.582722	24428.646607
2.038500	-0.000534	-0.000075	-0.001340	0.003227	7082.109981	46165.908888	3842.557988	24250.385711
2.538500	-0.001023	-0.000622	-0.001185	0.002026	7089.302616	46231.423177	3846.246090	24310.096749
3.037000	0.002023	0.000085	0.003564	-0.001371	7154.894016	46644.462295	3868.644991	24479.893559
3.537000	-0.001518	-0.000126	0.001905	0.000537	7099.364153	46430.767834	3858.786098	24384.374301
4.037000	-0.002109	-0.001172	-0.005377	-0.000488	7103.763778	46428.647623	3841.687953	24435.643090
4.540000	-0.000652	-0.000204	-0.003112	0.000238	7111.176627	46452.952009	3845.870813	24399.310264
5.035000	0.000741	-0.000223	-0.001536	0.000027	7127.499204	46472.272814	3850.744358	24409.862218
5.535000	-0.000544	-0.000162	-0.003610	0.000310	7111.543386	46449.918973	3844.318647	24395.705974
6.035500	-0.000586	0.000081	-0.001953	-0.000080	7115.082958	46513.754502	3849.899868	24415.231702
6.535500	0.001972	0.000677	-0.003716	0.001142	7128.678484	46450.580263	3841.771199	24354.153345
7.036000	0.001066	0.000195	-0.000595	0.000437	7126.626453	46473.167345	3852.199748	24389.379868
7.538500	-0.001668	-0.000483	-0.001768	-0.000438	7107.727818	46492.951905	3851.384263	24433.137947
8.037000	-0.000272	-0.000597	-0.001339	-0.000468	7122.221788	46484.482008	3852.640179	24434.632593
8.537000	0.001057	0.000000	0.000000	-0.000283	7133.888062	46526.045948	3855.804087	24425.390111
9.040000	-0.000149	-0.000193	-0.004400	-0.000352	7122.287896	46513.471859	3843.968829	24428.800047
9.534500	0.002687	0.000684	0.002575	0.000342	7144.156324	46532.010340	3861.168776	24394.129116
10.035500	-0.001939	-0.000536	0.001381	-0.000467	7105.264461	46490.535335	3860.108201	24434.565634
10.535000	-0.000316	-0.000750	-0.001414	0.002633	7090.308523	46157.869273	3843.972960	24279.916707
11.035500	0.000042	0.000178	0.002263	0.000000	7120.645807	46515.365787	3861.250972	24411.207304
11.536000	0.000000	0.000388	-0.004322	0.000023	7119.990305	46534.270427	3843.163706	24410.069472
12.036500	0.001118	0.000066	-0.001368	-0.000465	7136.357546	46551.010855	3852.551597	24434.469584
12.536500	-0.003385	-0.000085	-0.001726	0.003229	7053.427584	46164.779632	3841.507484	24250.320616
13.039500	0.000531	-0.000596	0.002295	-0.002543	7151.619570	46694.176813	3868.375269	24538.774432
13.537500	0.000880	0.000639	0.000624	-0.001992	7149.547577	46763.363290	3862.225443	24511.056098
14.035000	-0.000493	0.000801	0.000893	0.001083	7104.220461	46469.052533	3854.507150	24357.129104
14.534500	-0.002226	-0.000065	0.000145	0.002735	7070.028280	46216.258658	3847.941612	24274.869775
15.035500	0.002664	0.000319	0.002163	-0.001491	7162.705097	46680.207139	3865.094307	24485.912425
15.554500	0.002412	-0.000389	0.001502	-0.002384	7169.298408	46698.995799	3865.735865	24530.775334
16.036000	0.000168	0.000007	0.001126	-0.002139	7143.761650	46714.253190	3864.018860	24518.472415
16.538500	-0.000443	-0.000003	-0.003046	0.002266	7092.743174	46269.367096	3840.539330	24298.164064
17.036500	0.001517	-0.000313	0.001177	-0.002386	7160.116490	46706.804443	3864.841936	24530.850449
17.537000	0.000833	0.000344	0.000590	-0.003054	7159.953788	46841.228187	3865.064855	24564.472765
18.036500	0.000417	0.000571	0.000710	0.000821	7116.105911	46472.210613	3854.720154	24370.170078
18.540500	0.000279	-0.000218	-0.002740	0.001813	7104.640482	46293.328468	3842.599766	24320.738071
19.035000	0.000457	0.000695	-0.003706	0.001525	7109.374751	46413.965388	3840.761043	24335.083613
19.534500	0.000190	0.000108	-0.001894	0.000851	7113.499961	46422.681363	3847.520047	24368.704790
20.035500	0.000696	0.000804	-0.001111	0.001427	7112.782550	46434.681431	3848.081129	24339.937451
20.535000	0.000514	-0.000002	0.000857	0.001634	7108.835902	46332.874571	3852.893756	24329.615795
21.036000	0.000678	0.000242	-0.000487	0.001330	7113.601396	46388.062462	3850.052537	24344.814033
21.538500	-0.000875	-0.000201	0.001815	0.000256	7108.721027	46451.391481	3859.310222	24398.399904
22.036500	-0.000024	-0.000023	-0.000344	0.000977	7110.042506	46396.765692	3851.407174	24362.386804
22.536500	-0.000623	-0.000190	-0.001378	0.001367	7100.019062	46340.898384	3847.518997	24342.964137
23.039500	0.000851	0.000066	-0.003492	0.001059	7118.103544	46397.488304	3842.603898	24358.286725
23.536500	0.000891	0.000174	0.000582	0.001060	7118.502517	46408.309952	3853.715024	24358.251561
24.035000	0.000464	-0.000277	-0.001987	0.000800	7116.798716	46389.074200	3847.401788	24371.217128
24.538500	-0.000605	-0.000111	0.001787	0.001756	7096.264020	46309.762815	3855.112111	24323.574313
25.035500	0.001067	-0.000630	-0.001335	0.000698	7123.972132	46363.817658	3849.459815	24376.313804
25.538500	-0.000183	0.000441	0.001429	0.001216	7106.010974	46419.476408	3855.609709	24350.474366
26.036000	0.000033	0.000817	0.001371	0.001644	7103.856469	46414.230563	3854.279119	24329.149937
26.536500	-0.000344	-0.000117	-0.001117	0.002313	7093.258455	46253.281641	3845.652094	24295.816631
27.037000	-0.000134	-0.000407	0.001831	0.000782	7110.914713	46377.813297	3857.907644	24372.128718
27.537000	0.000897	0.000260	0.004672	-0.000680	7136.298552	46592.330567	3869.800380	24445.240286
28.037500	0.002387	-0.000217	0.000834	-0.002009	7165.185797	46678.473685	3862.853023	24511.941400
28.534500	0.001627	0.000084	-0.004950	-0.002097	7158.277705	46717.741557	3847.223419	24516.322253
29.035000	0.001854	0.000464	0.001392	-0.001904	7158.633544	46736.756043	3864.105255	24506.641975
29.538000	0.001470	0.000143	0.002293	-0.001956	7155.228413	46709.549964	3866.742044	24509.257215
30.036000	0.003514	0.000746	0.002701	-0.001655	7173.135617	46740.038727	3867.036038	24494.119230
30.538500	0.000920	-0.000344	0.004731	-0.002344	7153.562755	46699.437068	3874.598649	24528.757373
31.047500	0.000908	-0.000798	0.000121	-0.002758	7157.686335	46695.388760	3862.950917	24549.586676
31.536500	-0.001145	0.000414	-0.002748	0.002696	7081.303635	46268.071212	3840.181765	24276.764404
32.037000	-0.000705	0.000710	-0.001905	0.003511	7077.521023	46216.121016	3840.257574	24236.311343
32.567000	0.000915	-0.000428	-0.003375	-0.002376	7153.844235	46694.227881	3852.286901	24530.368700
33.035000	0.000281	0.000773	0.000218	-0.001672	7140.137243	46744.580544	3860.222036	24494.994365
33.537000	0.003140	0.000757	0.000329	-0.001598	7168.706347	46735.399094	3860.324062	24491.280429
34.035500	-0.002974	-0.000309	-0.003083	0.002854	7061.314655	46179.905443	3838.847870	24268.948525
34.535000	-0.002019	-0.000025	-0.001559	0.003219	7067.237345	46171.779054	3841.988712	24250.806354
35.035500	-0.000724	0.000123	-0.002201	0.001265	7100.025535	46382.540620	3845.554355	24348.029110
35.536000	-0.003010	-0.000326	-0.004338	0.000985	7079.756360	46365.540162	3840.510772	24362.010979
36.036500	-0.001027	-0.000170	-0.005267	0.001332	7096.279287	46346.290091	3837.054298	24344.668804
36.537000	-0.001447	-0.000141	-0.002573	0.002596	7079.268748	46222.490825	3840.926106	24281.757369
37.037000	-0.000306	0.001012	-0.000621	0.001965	7097.171900	46401.506582	3847.950856	24313.148006
37.539500	-0.001458	0.000063	0.002435	0.001067	7094.599351	46396.418723	3858.786769	24357.905874
38.037500	0.000151	-0.000011	0.002913	0.001180	7109.764089	46377.566872	3859.789419	24352.268163
38.535000	-0.002295	-0.000567	0.002267	0.002378	7072.917538	46201.655617	3854.721272	24292.585011
39.035500	0.001402	0.000506	0.000945	0.001981	7114.334470	46349.148370	3852.187578	24312.362209
39.536000	-0.000084	0.000306	-0.001144	0.001938	7099.700329	46333.408126	3846.600797	24314.516586
40.036000	0.000166	0.000505	-0.000772	0.001905	7102.558459	46356.647820	3847.702840	24316.139285
40.536500	-0.001440	-0.000683	0.001012	0.001839	7086.981259	46244.118831	3852.758059	24319.429927
41.036500	-0.000536	0.000551	-0.002370	0.002179	7092.678053	46333.640947	3842.609303	24302.482679
41.536500	-0.001061	0.000057	0.000690	0.001673	7092.478196	46334.881074	3852.331760	24327.674094
42.039500	0.001104	0.000498	0.002567	0.002426	7106.791578	46303.616341	3855.413920	24290.235713
42.537000	-0.001426	0.000159	0.001065	0.002993	7075.477440	46212.742788	3849.746751	24262.012380
43.035000	-0.002183	0.000092	-0.001480	0.002130	7076.547726	46292.603329	3845.160951	24304.943425
43.538000	-0.002448	0.000632	0.000149	0.001807	7077.126051	46379.201705	3850.484172	24321.007954
44.035500	-0.000394	0.000047	0.000073	0.002059	7095.330645	46295.257022	3849.589504	24308.493389
44.538500	0.001196	0.001101	0.000722	0.003802	7093.778281	46226.125641	3846.604257	24221.867710
45.036000	0.002086	0.000190	-0.001873	-0.001534	7157.217597	46671.585501	3854.096998	24488.081567
45.539000	0.001479	0.000111	0.001419	-0.001361	7149.210167	46645.996804	3862.677511	24479.368174
46.056000	0.001860	0.000199	0.003298	-0.001446	7153.990731	46663.602960	3868.115462	24483.654421
46.539000	-0.002788	0.000211	0.002532	0.003562	7056.080274	46161.128373	3852.205084	24233.803733
47.034500	0.000789	-0.000429	0.002236	-0.001943	7148.113349	46650.267550	3866.547150	24508.590449
47.536500	0.001074	0.000675	0.003605	-0.001209	7143.508876	46687.724130	3868.307877	24471.742434
48.035000	-0.001803	0.000396	-0.001642	0.001458	7087.156906	46390.586296	3846.549862	24338.409718
48.538500	-0.003313	0.000268	-0.004979	0.003112	7055.324473	46211.815864	3833.033506	24256.143501
49.035500	-0.001508	0.000843	0.002687	0.003103	7073.549967	46270.311158	3853.885355	24256.585299
49.535500	0.001160	0.000641	-0.000426	-0.001150	7143.787984	46678.339229	3857.015076	24468.795553
50.038500	-0.000517	0.000104	-0.001249	0.001874	7095.953883	46319.490033	3846.488322	24317.672012
50.539500	-0.002534	0.000944	0.005869	0.003756	7056.672978	46214.982696	3860.837514	24224.144993
51.042000	0.001350	0.000520	0.003838	-0.001569	7150.032719	46708.557415	3869.955682	24489.835778
51.539000	0.001468	0.001077	0.000623	-0.000868	7144.063684	46693.972832	3859.124951	24454.682324
52.039500	-0.000324	0.000213	-0.005344	0.002495	7091.633806	46268.207682	3833.710834	24286.802369
52.539000	0.000496	-0.001878	0.003627	0.006398	7060.569823	45671.412300	3847.447387	24093.557379
53.037500	-0.025592	-0.008144	-0.002314	0.201869	5318.381064	29717.299517	3408.053746	16336.416149
53.538500	-0.026182	-0.015829	-0.017402	-0.069529	7584.092195	52257.645882	4006.990819	28182.482632
54.036000	-0.038279	-0.148608	-0.022654	-0.305461	10876.979747	65535.000000	4948.732747	46577.610154
54.539000	-0.079480	-0.237918	-0.045030	-0.394771	11834.768024	65535.000000	5329.544694	56597.792895
55.036000	-0.102221	-0.304538	-0.091461	-0.461391	12805.859034	65535.000000	5456.405374	65535.000000
55.539000	-0.027345	-0.133186	-0.003325	-0.290039	10792.919418	65535.000000	4969.378874	45046.461193
56.039500	-0.032076	-0.119088	-0.008157	-0.275941	10449.583099	65535.000000	4871.028000	43693.624458
56.539000	-0.030659	-0.128617	-0.015768	-0.285470	10647.349322	65535.000000	4880.798244	44603.193156
57.034500	-0.016739	-0.132072	-0.010004	-0.288924	10971.714278	65535.000000	4928.372266	44937.949604
57.535000	-0.007847	-0.104272	-0.006230	-0.261124	10619.342042	65535.000000	4806.470563	42318.334905
58.035500	-0.011452	-0.065806	-0.004764	-0.218988	9827.756781	65006.496179	4614.888347	38654.146670
58.535500	-0.016326	-0.042912	-0.008634	-0.183146	9189.953301	63177.186712	4444.355886	35805.259049
59.035500	-0.011558	-0.029001	-0.006139	-0.155912	8862.792025	61351.032376	4345.740007	33792.402407
59.536000	-0.015184	-0.020542	-0.008401	-0.125830	8402.620428	58504.113730	4225.004073	31711.037137
60.036500	-0.014367	-0.015290	-0.007538	-0.096829	8044.342005	55536.169923	4127.033589	29836.397278
60.536500	-0.015168	-0.011564	-0.013050	-0.073981	7761.135821	53261.680109	4034.509027	28445.160485
61.037000	-0.009899	-0.006864	-0.007548	-0.054710	7600.587207	51594.629272	3991.721172	27327.330780
61.537500	-0.013157	-0.006955	-0.012630	-0.041502	7418.292549	50120.964651	3936.938489	26589.306819
62.035000	-0.014549	-0.006799	-0.009490	-0.026473	7243.236378	48525.556851	3902.546995	25776.402429
62.535000	-0.018443	-0.008996	-0.014329	-0.025610	7193.761175	48204.110310	3886.383196	25730.578416
63.035500	-0.016368	-0.007829	-0.012018	-0.017456	7131.298714	47478.338702	3870.039152	25302.019886
63.536000	-0.011358	-0.005455	-0.011500	-0.015137	7158.842295	47484.038871	3865.048174	25181.615619
64.036000	-0.011639	-0.005582	-0.007350	-0.015688	7161.619100	47527.816884	3878.124701	25210.172213
64.536000	-0.012031	-0.005391	-0.009508	-0.010857	7108.288901	47051.681785	3858.732305	24961.034826
65.043000	-0.009309	-0.003909	-0.009038	-0.012923	7157.150451	47415.286357	3865.734349	25067.264954
65.539500	-0.009124	-0.003559	-0.008368	-0.011804	7147.574549	47336.282994	3864.490689	25009.668494
66.045500	-0.009525	-0.003300	-0.010030	-0.009621	7121.207581	47139.139940	3853.904893	24897.786457
66.537000	-0.011337	-0.003159	-0.008788	-0.004458	7050.772818	46628.598912	3843.204056	24635.318752
67.037500	-0.009232	-0.001889	-0.003493	-0.009246	7120.368329	47245.202421	3870.915729	24878.604789
67.535000	-0.007352	-0.002839	-0.011865	-0.009972	7146.955758	47222.150430	3849.841788	24915.699683
68.035500	-0.008409	-0.002619	-0.010112	-0.007970	7115.756000	47039.981684	3849.162292	24813.481045
68.535500	-0.011698	-0.002815	-0.011982	-0.003091	7033.495473	46525.291090	3830.878101	24566.363995
69.039000	-0.006961	-0.002827	-0.010188	-0.008679	7137.730706	47091.094954	3850.891019	24849.625536
69.536500	-0.008493	-0.002325	-0.008295	-0.008600	7121.310005	47134.413551	3855.865317	24845.637867
70.036500	-0.007813	-0.002791	-0.012768	-0.006805	7109.975014	46903.807988	3838.777845	24754.241128
70.537000	-0.010006	-0.002210	-0.017879	-0.000677	7026.296168	46343.248065	3808.749301	24445.091688
71.037000	-0.004298	-0.001658	-0.011016	-0.004684	7124.153609	46803.521281	3837.779704	24646.761933
71.534500	-0.005564	-0.002352	-0.009272	-0.005013	7114.616987	46766.473926	3843.395714	24663.376846
72.035000	-0.004711	-0.001868	-0.011962	-0.004036	7113.363841	46716.520308	3833.475212	24614.022896
72.538000	-0.008940	-0.002339	-0.015061	0.000058	7029.601445	46256.596386	3814.255917	24408.300344
73.035500	-0.003318	-0.001475	-0.011358	-0.005175	7139.158017	46871.914723	3838.181508	24671.591356
73.536000	-0.004886	-0.001054	-0.011221	-0.005012	7121.507490	46898.174232	3838.111947	24663.347700
74.036000	-0.004755	-0.002051	-0.010087	-0.005084	7123.570589	46804.152890	3841.376005	24666.972956
74.536000	-0.006857	-0.001956	-0.015318	-0.000132	7052.313028	46314.063993	3814.078237	24417.824411
75.039500	-0.005763	-0.002061	-0.013125	-0.006782	7130.611047	46975.821432	3837.750338	24753.086997
75.537000	-0.005080	-0.002219	-0.011158	-0.006995	7139.759219	46981.459162	3843.658757	24763.906361
76.037000	-0.003880	-0.001490	-0.010743	-0.006036	7142.211706	46957.945266	3842.180301	24715.196018
76.535000	-0.005243	-0.002090	-0.013994	-0.007234	7140.526038	47018.937916	3836.619961	24776.033461
77.035500	-0.004784	-0.002571	-0.008844	-0.008158	7154.690157	47064.122592	3853.146350	24823.088377
77.535500	-0.006247	-0.001950	-0.008589	-0.007919	7137.275654	47103.189596	3853.190452	24810.919559
78.035500	-0.005596	-0.002403	-0.005130	-0.007401	7138.632361	47004.098412	3861.275691	24784.551239
78.536000	-0.003861	-0.002045	-0.013903	-0.007115	7153.460628	47011.415341	3836.544754	24769.987465
79.036500	-0.005858	-0.002224	-0.010450	-0.007913	7141.178576	47074.447507	3848.083918	24810.574683
79.537000	-0.006693	-0.002569	-0.012671	-0.008153	7135.106326	47063.844636	3842.693753	24822.848212
80.037000	-0.006266	-0.002357	-0.011366	-0.008214	7140.097124	47091.674120	3846.408537	24825.947692
80.539500	-0.010219	-0.002710	-0.017725	-0.002435	7041.715113	46469.778790	3813.801147	24533.323462
81.034500	-0.007361	-0.002403	-0.012323	-0.008423	7131.037343	47108.335025	3844.372664	24836.578093
81.534500	-0.005760	-0.002491	-0.010850	-0.008800	7151.260469	47137.804047	3849.413458	24855.806863
82.035500	-0.007264	-0.002943	-0.008318	-0.008934	7137.248183	47105.425806	3856.717175	24862.676018
82.538000	-0.010099	-0.003017	-0.012355	-0.003307	7051.640332	46526.668658	3830.455710	24577.238380
83.038500	-0.005490	-0.002646	-0.012745	-0.008833	7154.371868	47125.377286	3844.339751	24857.519052
83.536000	-0.007579	-0.002786	-0.012671	-0.008678	7131.425742	47095.256678	3844.122169	24849.617203
84.036500	-0.008034	-0.003002	-0.010025	-0.008906	7129.111253	47096.475546	3851.960752	24861.245078
84.539500	-0.006949	-0.003314	-0.008324	-0.009610	7147.391392	47136.585289	3858.561148	24897.220608
85.037500	-0.006201	-0.003407	-0.010307	-0.009434	7153.243971	47109.043117	3852.631538	24888.196059
85.540000	-0.009002	-0.003772	-0.011354	-0.010011	7130.498000	47130.736711	3851.346926	24917.718332
86.037500	-0.008423	-0.003068	-0.013711	-0.008974	7125.837449	47096.699761	3842.100653	24864.714037
86.535500	-0.012539	-0.003147	-0.012783	-0.003063	7024.831108	46489.016593	3828.650347	24564.929839
87.035500	-0.008424	-0.003950	-0.013848	-0.009823	7134.480964	47093.321807	3844.033295	24908.086362
87.535500	-0.009075	-0.004382	-0.008221	-0.010474	7134.485756	47115.661347	3861.223395	24941.432332
88.036000	-0.009005	-0.003604	-0.014286	-0.009347	7123.699101	47079.973066	3841.551069	24883.739676
88.536500	-0.011976	-0.004049	-0.015946	-0.005172	7051.524370	46610.804046	3825.826342	24671.417730
89.039000	-0.009440	-0.004354	-0.011714	-0.011081	7136.947681	47180.580795	3853.289775	24972.530104
89.536500	-0.009211	-0.004106	-0.006666	-0.010898	7137.427832	47187.312405	3866.694551	24963.168024
90.037500	-0.009996	-0.004319	-0.010271	-0.011133	7131.809893	47189.529059	3857.393658	24975.219948
90.535000	-0.013102	-0.004987	-0.013128	-0.006042	7048.954983	46603.959313	3835.741663	24715.508558
91.037500	-0.007726	-0.004128	-0.013334	-0.011168	7155.389089	47212.737075	3849.097826	24977.028754
91.535000	-0.010422	-0.004622	-0.010774	-0.011218	7128.331044	47167.203710	3856.246172	24979.583954
92.035500	-0.009518	-0.004496	-0.012740	-0.012155	7147.145239	47276.108832	3853.422838	25027.731487
92.536000	-0.011060	-0.004336	-0.015615	-0.011778	7127.539323	47253.906859	3844.544802	25008.351232
93.036500	-0.011334	-0.005086	-0.010087	-0.012206	7129.103793	47220.873114	3860.852697	25030.317008
93.536500	-0.010620	-0.004710	-0.008696	-0.011002	7124.108944	47136.168355	3861.369454	24968.487543
94.037000	-0.011531	-0.005256	-0.013820	-0.012092	7125.944073	47191.846092	3850.294614	25024.502784
94.537000	-0.011571	-0.005174	-0.009812	-0.012383	7128.492264	47229.991905	3862.101401	25039.429574
95.037500	-0.011736	-0.004506	-0.007560	-0.011779	7120.660135	47236.528524	3866.659091	25008.401556
95.551000	-0.012179	-0.004725	-0.010117	-0.008510	7083.046370	46880.637601	3850.627081	24841.047559
96.057000	-0.010475	-0.004706	-0.007855	-0.011769	7133.404057	47215.010382	3865.813842	25007.865341
96.535500	-0.012049	-0.005930	-0.004702	-0.012452	7124.323821	47159.657165	3876.482300	25042.998487
97.035000	-0.009422	-0.004900	-0.005831	-0.011967	7146.195461	47215.443924	3871.982827	25018.067484
97.536500	-0.015855	-0.006007	-0.016644	-0.010670	7067.773130	46969.889743	3838.746739	24951.469425
98.036500	-0.011163	-0.006299	-0.007209	-0.012828	7137.206186	47160.417626	3870.544273	25062.383621
98.539000	-0.013160	-0.006177	-0.007805	-0.012717	7115.716721	47161.508008	3868.580681	25056.626336
