sample name	sample
index	20
start time	 02-11-2021  12:02:45 PM


Wavelength (nm)	Absorbance
494.344910	-0.082701
494.563924	-0.082701
494.782919	-0.082701
495.001897	0.072639
495.220856	-0.019613
495.439797	-0.005049
495.658719	-0.002547
495.877624	0.011607
496.096510	0.034242
496.315378	0.028565
496.534227	0.071751
496.753059	0.012688
496.971872	0.017752
497.190667	0.028128
497.409444	0.034357
497.628203	0.042223
497.846943	0.044834
498.065665	0.040776
498.284369	0.040875
498.503055	0.042454
498.721723	0.044570
498.940372	0.046257
499.159003	0.047109
499.377616	0.049251
499.596210	0.048418
499.814787	0.047875
500.033345	0.050503
500.251885	0.049939
500.470406	0.049193
500.688910	0.049081
500.907395	0.045804
501.125862	0.044775
501.344311	0.043334
501.562742	0.043970
501.781154	0.043451
501.999548	0.041872
502.217924	0.042980
502.436282	0.043342
502.654621	0.043427
502.872942	0.046267
503.091245	0.046168
503.309530	0.046336
503.527797	0.046332
503.746045	0.046455
503.964275	0.047660
504.182487	0.047294
504.400681	0.046581
504.618856	0.046345
504.837013	0.043868
505.055152	0.043646
505.273273	0.044133
505.491376	0.044437
505.709460	0.042789
505.927526	0.041422
506.145574	0.041090
506.363604	0.042766
506.581615	0.043527
506.799608	0.043083
507.017583	0.043885
507.235540	0.043105
507.453478	0.043997
507.671399	0.044468
507.889301	0.045528
508.107185	0.046427
508.325050	0.045282
508.542898	0.044225
508.760727	0.046072
508.978538	0.045837
509.196330	0.046351
509.414105	0.044745
509.631861	0.047087
509.849599	0.047097
510.067319	0.047452
510.285021	0.047520
510.502704	0.049077
510.720369	0.049261
510.938016	0.048507
511.155645	0.048285
511.373255	0.048053
511.590848	0.046539
511.808422	0.044939
512.025977	0.043979
512.243515	0.043739
512.461034	0.043011
512.678536	0.043184
512.896018	0.043791
513.113483	0.044343
513.330930	0.044649
513.548358	0.045905
513.765768	0.046154
513.983160	0.046117
514.200533	0.046441
514.417889	0.046406
514.635226	0.046345
514.852545	0.046801
515.069845	0.044897
515.287128	0.044436
515.504392	0.043982
515.721638	0.042981
515.938866	0.043759
516.156075	0.042907
516.373267	0.042435
516.590440	0.041973
516.807594	0.043422
517.024731	0.046270
517.241850	0.046504
517.458950	0.045844
517.676032	0.047909
517.893095	0.047156
518.110141	0.048555
518.327168	0.048780
518.544177	0.048319
518.761168	0.045518
518.978141	0.043335
519.195095	0.043564
519.412031	0.043598
519.628949	0.043066
519.845849	0.043564
520.062731	0.043537
520.279594	0.044757
520.496439	0.044996
520.713266	0.045427
520.930074	0.046235
521.146865	0.045294
521.363637	0.045978
521.580391	0.046791
521.797127	0.046814
522.013844	0.046375
522.230543	0.045037
522.447224	0.045655
522.663887	0.045298
522.880532	0.045049
523.097158	0.046849
523.313766	0.047826
523.530356	0.046596
523.746928	0.046846
523.963481	0.047364
524.180017	0.047953
524.396534	0.047859
524.613032	0.049133
524.829513	0.048372
525.045975	0.047424
525.262420	0.045421
525.478845	0.046811
525.695253	0.047070
525.911643	0.047490
526.128014	0.046932
526.344367	0.046846
526.560702	0.046762
526.777018	0.048400
526.993316	0.047875
527.209597	0.047985
527.425858	0.046667
527.642102	0.045738
527.858328	0.045826
528.074535	0.047455
528.290724	0.046624
528.506894	0.045781
528.723047	0.043934
528.939181	0.044318
529.155297	0.044663
529.371395	0.045343
529.587475	0.045877
529.803536	0.044843
530.019579	0.043156
530.235604	0.044147
530.451611	0.044341
530.667600	0.045059
530.883570	0.045907
531.099522	0.045874
531.315456	0.045455
531.531372	0.045104
531.747269	0.045837
531.963148	0.046372
532.179009	0.046070
532.394852	0.045785
532.610676	0.045918
532.826482	0.045379
533.042271	0.045540
533.258040	0.045853
533.473792	0.046364
533.689525	0.046695
533.905240	0.046605
534.120937	0.047634
534.336616	0.048969
534.552277	0.050121
534.767919	0.050057
534.983543	0.050236
535.199149	0.049986
535.414736	0.050487
535.630306	0.050552
535.845857	0.050381
536.061390	0.049957
536.276904	0.049538
536.492401	0.049328
536.707879	0.049591
536.923339	0.050161
537.138781	0.050218
537.354204	0.049838
537.569610	0.049751
537.784997	0.050096
538.000366	0.049670
538.215716	0.048888
538.431049	0.048063
538.646363	0.048046
538.861659	0.047208
539.076937	0.047822
539.292196	0.048095
539.507438	0.048200
539.722661	0.048620
539.937866	0.048571
540.153052	0.049234
540.368221	0.050559
540.583371	0.050990
540.798503	0.052079
541.013617	0.052574
541.228712	0.052207
541.443789	0.051411
541.658848	0.052222
541.873889	0.052616
542.088912	0.053027
542.303916	0.052012
542.518902	0.051458
542.733870	0.050377
542.948820	0.050181
543.163752	0.050365
543.378665	0.050630
543.593560	0.049921
543.808437	0.049836
544.023295	0.049759
544.238136	0.049941
544.452958	0.050065
544.667762	0.050960
544.882548	0.050647
545.097315	0.050790
545.312064	0.051762
545.526795	0.052133
545.741508	0.052460
545.956203	0.052567
546.170879	0.052782
546.385537	0.053089
546.600177	0.052187
546.814799	0.052339
547.029402	0.052970
547.243988	0.051956
547.458555	0.052033
547.673103	0.051510
547.887634	0.050605
548.102146	0.050501
548.316640	0.050149
548.531116	0.050854
548.745574	0.050548
548.960013	0.049803
549.174435	0.049967
549.388838	0.049124
549.603222	0.049361
549.817589	0.050187
550.031937	0.049892
550.246267	0.049847
550.460579	0.050423
550.674873	0.051172
550.889148	0.051634
551.103405	0.051598
551.317644	0.051433
551.531865	0.051907
551.746068	0.051898
551.960252	0.051980
552.174418	0.052734
552.388566	0.051932
552.602696	0.051117
552.816807	0.050570
553.030900	0.050401
553.244975	0.050805
553.459032	0.050706
553.673070	0.050964
553.887091	0.051665
554.101093	0.051400
554.315077	0.052190
554.529042	0.053078
554.742990	0.053058
554.956919	0.053920
555.170830	0.053762
555.384722	0.053955
555.598597	0.053537
555.812453	0.053361
556.026291	0.053520
556.240111	0.053319
556.453913	0.053038
556.667696	0.053612
556.881461	0.052272
557.095208	0.052314
557.308937	0.052063
557.522647	0.052155
557.736339	0.052000
557.950013	0.052092
558.163669	0.051596
558.377307	0.051536
558.590926	0.050872
558.804527	0.051620
559.018110	0.051754
559.231675	0.051712
559.445221	0.051884
559.658749	0.051600
559.872259	0.051499
560.085751	0.051947
560.299225	0.051696
560.512680	0.052248
560.726117	0.051823
560.939536	0.052027
561.152937	0.052539
561.366319	0.052405
561.579683	0.052831
561.793029	0.052719
562.006357	0.052950
562.219667	0.053568
562.432958	0.053795
562.646231	0.054596
562.859486	0.054744
563.072723	0.054069
563.285941	0.054389
563.499141	0.054622
563.712323	0.055082
563.925487	0.054576
564.138632	0.054753
564.351760	0.053921
564.564869	0.053956
564.777960	0.053694
564.991032	0.054048
565.204087	0.053988
565.417123	0.053715
565.630141	0.053001
565.843140	0.053422
566.056122	0.052985
566.269085	0.053313
566.482030	0.052760
566.694957	0.052411
566.907866	0.052581
567.120756	0.052768
567.333628	0.053428
567.546482	0.053795
567.759318	0.053494
567.972135	0.053726
568.184935	0.054375
568.397716	0.054923
568.610478	0.055523
568.823223	0.055455
569.035949	0.054918
569.248657	0.054075
569.461347	0.054121
569.674019	0.053980
569.886672	0.054149
570.099308	0.054094
570.311925	0.053674
570.524523	0.053177
570.737104	0.052954
570.949666	0.053848
571.162210	0.054401
571.374736	0.054282
571.587244	0.054819
571.799733	0.054001
572.012205	0.053901
572.224658	0.054288
572.437092	0.055042
572.649509	0.055364
572.861907	0.054966
573.074287	0.054786
573.286649	0.054765
573.498993	0.054617
573.711318	0.054565
573.923625	0.054123
574.135914	0.053785
574.348185	0.053379
574.560438	0.053963
574.772672	0.053958
574.984888	0.053619
575.197086	0.052965
575.409266	0.052722
575.621427	0.052920
575.833570	0.053016
576.045695	0.053057
576.257802	0.053129
576.469890	0.051819
576.681961	0.051809
576.894013	0.051616
577.106046	0.052630
577.318062	0.052555
577.530059	0.053207
577.742039	0.053007
577.954000	0.053110
578.165942	0.053470
578.377867	0.053809
578.589773	0.054016
578.801661	0.054540
579.013531	0.054085
579.225382	0.053960
579.437216	0.053566
579.649031	0.054075
579.860828	0.054177
580.072606	0.054068
580.284367	0.053962
580.496109	0.053681
580.707833	0.053544
580.919539	0.053834
581.131227	0.054313
581.342896	0.054724
581.554547	0.054802
581.766180	0.054403
581.977795	0.054066
582.189391	0.054150
582.400969	0.054062
582.612529	0.054599
582.824071	0.054153
583.035595	0.053912
583.247100	0.053504
583.458587	0.053235
583.670056	0.053857
583.881506	0.053413
584.092939	0.053690
584.304353	0.053615
584.515749	0.052830
584.727127	0.053971
584.938486	0.054067
585.149828	0.054519
585.361151	0.054881
585.572456	0.054964
585.783742	0.055571
585.995011	0.055628
586.206261	0.056218
586.417493	0.056453
586.628706	0.056143
586.839902	0.056214
587.051079	0.056047
587.262238	0.055774
587.473379	0.055752
587.684502	0.055846
587.895606	0.056406
588.106692	0.056443
588.317760	0.056957
588.528810	0.056529
588.739841	0.056814
588.950855	0.056529
589.161850	0.056524
589.372827	0.056490
589.583785	0.056424
589.794726	0.055801
590.005648	0.055610
590.216552	0.055623
590.427437	0.056171
590.638305	0.056044
590.849154	0.056660
591.059985	0.056674
591.270798	0.056625
591.481592	0.057252
591.692369	0.057691
591.903127	0.057757
592.113867	0.057405
592.324588	0.056907
592.535292	0.056603
592.745977	0.056296
592.956644	0.056531
593.167293	0.056477
593.377923	0.055831
593.588536	0.055511
593.799130	0.055253
594.009706	0.055774
594.220263	0.056104
594.430803	0.056348
594.641324	0.056339
594.851827	0.056063
595.062312	0.056029
595.272778	0.056108
595.483227	0.056422
595.693657	0.056575
595.904069	0.056525
596.114462	0.056177
596.324838	0.055807
596.535195	0.055806
596.745534	0.055939
596.955855	0.056016
597.166157	0.056317
597.376441	0.055802
597.586707	0.055770
597.796955	0.055145
598.007185	0.055485
598.217396	0.055918
598.427589	0.055766
598.637764	0.055585
598.847921	0.055719
599.058060	0.055589
599.268180	0.055664
599.478282	0.055757
599.688366	0.056165
599.898431	0.056278
600.108479	0.056345
600.318508	0.056164
600.528519	0.056604
600.738511	0.056853
600.948486	0.056892
601.158442	0.057360
601.368380	0.057438
601.578300	0.057283
601.788202	0.057799
601.998085	0.057824
602.207950	0.058504
602.417797	0.058137
602.627626	0.057718
602.837436	0.057661
603.047228	0.057266
603.257002	0.057358
603.466758	0.057335
603.676496	0.057054
603.886215	0.056995
604.095916	0.056685
604.305599	0.057231
604.515264	0.057442
604.724910	0.057785
604.934538	0.058150
605.144148	0.057998
605.353740	0.058231
605.563314	0.057814
605.772869	0.057754
605.982406	0.057909
606.191925	0.057345
606.401425	0.057450
606.610908	0.057528
606.820372	0.057471
607.029818	0.057941
607.239246	0.058343
607.448655	0.058107
607.658047	0.058358
607.867420	0.058145
608.076775	0.058541
608.286111	0.058633
608.495430	0.058304
608.704730	0.058546
608.914012	0.058005
609.123275	0.057782
609.332521	0.057757
609.541748	0.057700
609.750957	0.058489
609.960148	0.058508
610.169321	0.058456
610.378475	0.059078
610.587611	0.058934
610.796729	0.059312
611.005829	0.058979
611.214910	0.059993
611.423974	0.060030
611.633019	0.059399
611.842045	0.059173
612.051054	0.059032
612.260044	0.058757
612.469017	0.058597
612.677970	0.058428
612.886906	0.058822
613.095824	0.058160
613.304723	0.058160
613.513604	0.057947
613.722467	0.057734
613.931311	0.058348
614.140138	0.057885
614.348946	0.057840
614.557736	0.058147
614.766507	0.057808
614.975261	0.058136
615.183996	0.058129
615.392713	0.058320
615.601412	0.058644
615.810092	0.057952
616.018754	0.057899
616.227399	0.057837
616.436024	0.057659
616.644632	0.057895
616.853222	0.057544
617.061793	0.057842
617.270346	0.058207
617.478880	0.058305
617.687397	0.058485
617.895895	0.058859
618.104375	0.059490
618.312837	0.059468
618.521281	0.059475
618.729706	0.059597
618.938113	0.059255
619.146502	0.059110
619.354873	0.059207
619.563226	0.059277
619.771560	0.059129
619.979876	0.059029
620.188174	0.058967
620.396453	0.058951
620.604715	0.059077
620.812958	0.059021
621.021183	0.058908
621.229390	0.058442
621.437578	0.058762
621.645748	0.058756
621.853900	0.058254
622.062034	0.058408
622.270150	0.058292
622.478247	0.057931
622.686326	0.057890
622.894387	0.057889
623.102430	0.058061
623.310454	0.057513
623.518461	0.057203
623.726449	0.057447
623.934418	0.057054
624.142370	0.056935
624.350303	0.057460
624.558218	0.057626
624.766115	0.057541
624.973994	0.057380
625.181855	0.057798
625.389697	0.058105
625.597521	0.057698
625.805327	0.057813
626.013114	0.058080
626.220883	0.057670
626.428634	0.057729
626.636367	0.058135
626.844082	0.058521
627.051778	0.058416
627.259457	0.058423
627.467117	0.058814
627.674758	0.058933
627.882382	0.058602
628.089987	0.058869
628.297574	0.059011
628.505143	0.058823
628.712694	0.058836
628.920226	0.058829
629.127740	0.059141
629.335236	0.059405
629.542714	0.059333
629.750174	0.059360
629.957615	0.059391
630.165038	0.059760
630.372443	0.059732
630.579829	0.059683
630.787198	0.059624
630.994548	0.059128
631.201880	0.058953
631.409194	0.059257
631.616489	0.059809
631.823766	0.059983
632.031025	0.059586
632.238266	0.059376
632.445489	0.059475
632.652693	0.059618
632.859879	0.060203
633.067047	0.060419
633.274197	0.060128
633.481329	0.060001
633.688442	0.059728
633.895537	0.059938
634.102614	0.060354
634.309672	0.060603
634.516713	0.060629
634.723735	0.060768
634.930739	0.060799
635.137724	0.061130
635.344692	0.061160
635.551641	0.061435
635.758572	0.061378
635.965485	0.061136
636.172379	0.060969
636.379256	0.061497
636.586114	0.061197
636.792954	0.061053
636.999775	0.061119
637.206579	0.060916
637.413364	0.060639
637.620131	0.060648
637.826880	0.060954
638.033610	0.060783
638.240323	0.060599
638.447017	0.060437
638.653692	0.060419
638.860350	0.060055
639.066990	0.060768
639.273611	0.060769
639.480214	0.060652
639.686798	0.060544
639.893365	0.061064
640.099913	0.061085
640.306443	0.061213
640.512955	0.061252
640.719449	0.061821
640.925924	0.061404
641.132381	0.061634
641.338820	0.061807
641.545241	0.062092
641.751644	0.062023
641.958028	0.061486
642.164394	0.061730
642.370742	0.061760
642.577071	0.061807
642.783383	0.061955
642.989676	0.061884
643.195951	0.061729
643.402207	0.061389
643.608446	0.061196
643.814666	0.061526
644.020868	0.061606
644.227052	0.061526
644.433218	0.061330
644.639365	0.061273
644.845494	0.061751
645.051605	0.061943
645.257698	0.061994
645.463772	0.062176
645.669828	0.062020
645.875866	0.062022
646.081886	0.062117
646.287888	0.062033
646.493871	0.061716
646.699836	0.061407
646.905783	0.061119
647.111712	0.061308
647.317622	0.061123
647.523514	0.061244
647.729388	0.060898
647.935244	0.060936
648.141082	0.060603
648.346901	0.060954
648.552702	0.060716
648.758485	0.060963
648.964250	0.061167
649.169996	0.061142
649.375724	0.061381
649.581434	0.061517
649.787126	0.061864
649.992800	0.062403
650.198455	0.062360
650.404092	0.062441
650.609711	0.062640
650.815311	0.062480
651.020894	0.062506
651.226458	0.062605
651.432004	0.062607
651.637532	0.062383
651.843041	0.062320
652.048532	0.062200
652.254006	0.062416
652.459460	0.062227
652.664897	0.062282
652.870315	0.062227
653.075716	0.061992
653.281097	0.062253
653.486461	0.062404
653.691807	0.062439
653.897134	0.062749
654.102443	0.062783
654.307734	0.062895
654.513006	0.062774
654.718261	0.063147
654.923497	0.063092
655.128715	0.063088
655.333915	0.063046
655.539096	0.063333
655.744259	0.063415
655.949404	0.063531
656.154531	0.063607
656.359640	0.063886
656.564730	0.063776
656.769802	0.063945
656.974856	0.063936
657.179892	0.064367
657.384909	0.064143
657.589908	0.064242
657.794889	0.064389
657.999852	0.064601
658.204797	0.064362
658.409723	0.064509
658.614631	0.064750
658.819521	0.064908
659.024393	0.064663
659.229246	0.064631
659.434081	0.064626
659.638898	0.064796
659.843697	0.064920
660.048478	0.065210
660.253240	0.065380
660.457984	0.065616
660.662710	0.065765
660.867417	0.065811
661.072107	0.065881
661.276778	0.065820
661.481431	0.065754
661.686066	0.065750
661.890682	0.065658
662.095281	0.065908
662.299861	0.065888
662.504422	0.065611
662.708966	0.065798
662.913491	0.066127
663.117999	0.066469
663.322488	0.066545
663.526958	0.066537
663.731411	0.066691
663.935845	0.066351
664.140261	0.066173
664.344659	0.066759
664.549038	0.066760
664.753400	0.066846
664.957743	0.066743
665.162068	0.066932
665.366375	0.067061
665.570663	0.067186
665.774933	0.067622
665.979185	0.068047
666.183419	0.068011
666.387635	0.068175
666.591832	0.068225
666.796011	0.068186
667.000172	0.067910
667.204315	0.067873
667.408439	0.067996
667.612545	0.067803
667.816634	0.067666
668.020703	0.067680
668.224755	0.067738
668.428788	0.067540
668.632803	0.067424
668.836800	0.067711
669.040779	0.067773
669.244739	0.067504
669.448681	0.067572
669.652605	0.067652
669.856511	0.067352
670.060399	0.067343
670.264268	0.067403
670.468119	0.067525
670.671952	0.067414
670.875767	0.067542
671.079563	0.067490
671.283341	0.067446
671.487101	0.067044
671.690843	0.066741
671.894567	0.066927
672.098272	0.067006
672.301959	0.066979
672.505628	0.067152
672.709278	0.067069
672.912911	0.066975
673.116525	0.066907
673.320121	0.067159
673.523699	0.067456
673.727258	0.067126
673.930799	0.067231
674.134322	0.067577
674.337827	0.067229
674.541314	0.067126
674.744782	0.067599
674.948232	0.067777
675.151664	0.067919
675.355078	0.068355
675.558474	0.068544
675.761851	0.068444
675.965210	0.068349
676.168551	0.068523
676.371873	0.068567
676.575178	0.068658
676.778464	0.068504
676.981732	0.068400
677.184981	0.068399
677.388213	0.068145
677.591426	0.068367
677.794621	0.068612
677.997798	0.068702
678.200956	0.068699
678.404097	0.068442
678.607219	0.068874
678.810323	0.069086
679.013408	0.068945
679.216476	0.069230
679.419525	0.068801
679.622556	0.068497
679.825569	0.068544
680.028563	0.068631
680.231540	0.069068
680.434498	0.069121
680.637438	0.069143
680.840359	0.069052
681.043263	0.069045
681.246148	0.069460
681.449015	0.069788
681.651864	0.069703
681.854694	0.069959
682.057506	0.069781
682.260301	0.069608
682.463076	0.069804
682.665834	0.070200
682.868573	0.070263
683.071295	0.070355
683.273998	0.070431
683.476682	0.070343
683.679349	0.070169
683.881997	0.070102
684.084627	0.070239
684.287239	0.070233
684.489833	0.070214
684.692408	0.070402
684.894965	0.070544
685.097504	0.070317
685.300025	0.070633
685.502527	0.070838
685.705012	0.070907
685.907478	0.070778
686.109925	0.070391
686.312355	0.070460
686.514766	0.070132
686.717159	0.069912
686.919534	0.070086
687.121891	0.070021
687.324230	0.069876
687.526550	0.069972
687.728852	0.070106
687.931136	0.070169
688.133401	0.070227
688.335649	0.070566
688.537878	0.071064
688.740089	0.070883
688.942281	0.070891
689.144456	0.070996
689.346612	0.071265
689.548750	0.071331
689.750870	0.071463
689.952971	0.071305
690.155055	0.071228
690.357120	0.070936
690.559167	0.071156
690.761195	0.071323
690.963206	0.071507
691.165198	0.071347
691.367172	0.071260
691.569128	0.071509
691.771065	0.071463
691.972984	0.071605
692.174885	0.071818
692.376768	0.071781
692.578633	0.071694
692.780479	0.071602
692.982308	0.071789
693.184118	0.071643
693.385909	0.071403
693.587683	0.071791
693.789438	0.071612
693.991175	0.071463
694.192894	0.071692
694.394595	0.072045
694.596277	0.072310
694.797941	0.072072
694.999587	0.072478
695.201215	0.072592
695.402824	0.072504
695.604416	0.072715
695.805989	0.072863
696.007543	0.072795
696.209080	0.072573
696.410598	0.072456
696.612099	0.072481
696.813580	0.072279
697.015044	0.072639
697.216490	0.072515
697.417917	0.072558
697.619326	0.072359
697.820717	0.072354
698.022089	0.072173
698.223444	0.071955
698.424780	0.072141
698.626098	0.072382
698.827397	0.072006
699.028679	0.072123
699.229942	0.072000
699.431187	0.072183
699.632414	0.072063
699.833622	0.072379
700.034813	0.072495
700.235985	0.072504
700.437139	0.072519
700.638274	0.072987
700.839392	0.073023
701.040491	0.072968
701.241572	0.072856
701.442635	0.072961
701.643679	0.072877
701.844706	0.073146
702.045714	0.073132
702.246704	0.072854
702.447675	0.072658
702.648629	0.072610
702.849564	0.072687
703.050481	0.072775
703.251380	0.072891
703.452260	0.073244
703.653122	0.073190
703.853966	0.073269
704.054792	0.073493
704.255600	0.073241
704.456389	0.073479
704.657160	0.073624
704.857913	0.073759
705.058648	0.074085
705.259365	0.074075
705.460063	0.073970
705.660743	0.074255
705.861405	0.074271
706.062048	0.074780
706.262674	0.074353
706.463281	0.074513
706.663870	0.074386
706.864441	0.074304
707.064993	0.074124
707.265527	0.074179
707.466043	0.074187
707.666541	0.074149
707.867021	0.073960
708.067482	0.074070
708.267925	0.074246
708.468350	0.074166
708.668757	0.073855
708.869145	0.074070
709.069516	0.074138
709.269868	0.073718
709.470201	0.073878
709.670517	0.074031
709.870814	0.074477
710.071093	0.074083
710.271354	0.074534
710.471597	0.074746
710.671821	0.074621
710.872028	0.074557
711.072216	0.074565
711.272385	0.074308
711.472537	0.074105
711.672670	0.073941
711.872785	0.074043
712.072882	0.073667
712.272961	0.073409
712.473021	0.073263
712.673063	0.073170
712.873087	0.073084
713.073093	0.072836
713.273081	0.072854
713.473050	0.072459
713.673001	0.072183
713.872934	0.072231
714.072849	0.072168
714.272745	0.071909
714.472623	0.071899
714.672483	0.072133
714.872325	0.072476
715.072148	0.072474
715.271954	0.072673
715.471741	0.072671
715.671509	0.072714
715.871260	0.072460
716.070992	0.072708
716.270707	0.072734
716.470403	0.072789
716.670080	0.072488
716.869740	0.072427
717.069381	0.072256
717.269004	0.072333
717.468609	0.072101
717.668195	0.072686
717.867764	0.072683
718.067314	0.072457
718.266846	0.072215
718.466360	0.072365
718.665855	0.072322
718.865332	0.072524
719.064791	0.072423
719.264232	0.072498
719.463655	0.072389
719.663059	0.072065
719.862445	0.072374
720.061813	0.072321
720.261163	0.072261
720.460494	0.072121
720.659807	0.072033
720.859102	0.072141
721.058379	0.071991
721.257638	0.071694
721.456878	0.071896
721.656100	0.071913
721.855304	0.071906
722.054490	0.071716
722.253657	0.071714
722.452806	0.071694
722.651937	0.071634
722.851050	0.071709
723.050145	0.071771
723.249221	0.071678
723.448279	0.071233
723.647319	0.071050
723.846340	0.071054
724.045344	0.070750
724.244329	0.070347
724.443296	0.070031
724.642245	0.069806
724.841175	0.069711
725.040088	0.069348
725.238982	0.069235
725.437857	0.069011
725.636715	0.068835
725.835554	0.069211
726.034376	0.069228
726.233179	0.069273
726.431963	0.069199
726.630730	0.068667
726.829478	0.068765
727.028208	0.068809
727.226920	0.069146
727.425614	0.069006
727.624289	0.068601
727.822946	0.068515
728.021585	0.068504
728.220206	0.068646
728.418808	0.068590
728.617392	0.068546
728.815958	0.068635
729.014506	0.068416
729.213036	0.068378
729.411547	0.068197
729.610040	0.068110
729.808515	0.067651
730.006972	0.067381
730.205410	0.067448
730.403831	0.067281
730.602233	0.066853
730.800616	0.066657
730.998982	0.066401
731.197329	0.066431
731.395658	0.066159
731.593969	0.066392
731.792262	0.066535
731.990536	0.066597
732.188793	0.066491
732.387031	0.066415
732.585250	0.066213
732.783452	0.066352
732.981635	0.066077
733.179800	0.066017
733.377947	0.065891
733.576076	0.065371
733.774186	0.065336
733.972278	0.065097
734.170352	0.065014
734.368408	0.065000
734.566446	0.065315
734.764465	0.065638
734.962466	0.065959
735.160449	0.065871
735.358413	0.065867
735.556360	0.065788
735.754288	0.066148
735.952198	0.066130
736.150090	0.066137
736.347963	0.066266
736.545818	0.066143
736.743655	0.066000
736.941474	0.065910
737.139275	0.066109
737.337057	0.066190
737.534821	0.065899
737.732567	0.066006
737.930295	0.066070
738.128005	0.065933
738.325696	0.065857
738.523369	0.065859
738.721024	0.065958
738.918660	0.065843
739.116279	0.065556
739.313879	0.065837
739.511461	0.066021
739.709024	0.065954
739.906570	0.065898
740.104097	0.066248
740.301606	0.066397
740.499097	0.066267
740.696569	0.066281
740.894024	0.066453
741.091460	0.066540
741.288878	0.066563
741.486277	0.066809
741.683659	0.066403
741.881022	0.065836
742.078367	0.065104
742.275694	0.065315
742.473002	0.065276
742.670293	0.065223
742.867565	0.064729
743.064819	0.064431
743.262054	0.064227
743.459272	0.064322
743.656471	0.064432
743.853652	0.064961
744.050815	0.065010
744.247959	0.064810
744.445085	0.065104
744.642194	0.065340
744.839283	0.065148
745.036355	0.065058
745.233408	0.064915
745.430444	0.065005
745.627461	0.064818
745.824459	0.064672
746.021440	0.064952
746.218402	0.064609
746.415346	0.064551
746.612272	0.064460
746.809180	0.064369
747.006069	0.064489
747.202940	0.064264
747.399793	0.064263
747.596628	0.063912
747.793444	0.063598
747.990243	0.063611
748.187023	0.063641
748.383784	0.063850
748.580528	0.063811
748.777253	0.063789
748.973960	0.063923
749.170649	0.063825
749.367320	0.064039
749.563973	0.064075
749.760607	0.063594
749.957223	0.063218
750.153821	0.063190
750.350400	0.063163
750.546962	0.062857
750.743505	0.062723
750.940030	0.062604
751.136536	0.062361
751.333025	0.062023
751.529495	0.062409
751.725947	0.062364
751.922381	0.062206
752.118796	0.062097
752.315194	0.062095
752.511573	0.061771
752.707934	0.061821
752.904276	0.062101
753.100601	0.062267
753.296907	0.062199
753.493195	0.062268
753.689465	0.062159
753.885716	0.062178
754.081949	0.062179
754.278164	0.062341
754.474361	0.062352
754.670540	0.062464
754.866700	0.062577
755.062843	0.062340
755.258967	0.062248
755.455072	0.062322
755.651160	0.062300
755.847229	0.062439
756.043280	0.062290
756.239313	0.062304
756.435328	0.061948
756.631324	0.061787
756.827302	0.061799
757.023262	0.062103
757.219204	0.062035
757.415127	0.062021
757.611033	0.062054
757.806920	0.062368
758.002788	0.062423
758.198639	0.062306
758.394471	0.062551
758.590286	0.062795
758.786081	0.062719
758.981859	0.063078
759.177619	0.062889
759.373360	0.062814
759.569083	0.062808
759.764788	0.062404
759.960474	0.062629
760.156143	0.062287
760.351793	0.061740
760.547425	0.061124
760.743038	0.060783
760.938634	0.061070
761.134211	0.060710
761.329770	0.060507
761.525311	0.060613
761.720833	0.060429
761.916338	0.060525
762.111824	0.060678
762.307292	0.061369
762.502741	0.061444
762.698173	0.061252
762.893586	0.061759
763.088981	0.061448
763.284358	0.061661
763.479716	0.061887
763.675057	0.062033
763.870379	0.062362
764.065683	0.062146
764.260968	0.062344
764.456236	0.062592
764.651485	0.062272
764.846716	0.062579
765.041929	0.062385
765.237123	0.061992
765.432299	0.061930
765.627457	0.061508
765.822597	0.061717
766.017719	0.061188
766.212822	0.060817
766.407907	0.060674
766.602974	0.060538
766.798023	0.060596
766.993054	0.060697
767.188066	0.060924
767.383060	0.061115
767.578036	0.060838
767.772993	0.061081
767.967933	0.061398
768.162854	0.061765
768.357757	0.061668
768.552642	0.061729
768.747508	0.061849
768.942356	0.061380
769.137186	0.061508
769.331998	0.061496
769.526792	0.061468
769.721567	0.061440
769.916324	0.061164
770.111063	0.061192
770.305784	0.061145
770.500486	0.060929
770.695171	0.060814
770.889837	0.060590
771.084484	0.060761
771.279114	0.060636
771.473725	0.060353
771.668318	0.060399
771.862893	0.060322
772.057450	0.060033
772.251988	0.059837
772.446509	0.059778
772.641011	0.059718
772.835494	0.059283
773.029960	0.059245
773.224407	0.058999
773.418836	0.058863
773.613247	0.058975
773.807640	0.059046
774.002014	0.059212
774.196370	0.059624
774.390708	0.059566
774.585028	0.059813
774.779330	0.059585
774.973613	0.059753
775.167878	0.059714
775.362125	0.059714
775.556354	0.059545
775.750564	0.059485
775.944756	0.059056
776.138930	0.059158
776.333086	0.058696
776.527223	0.058733
776.721343	0.058597
776.915444	0.058553
777.109526	0.058465
777.303591	0.058735
777.497637	0.058889
777.691666	0.058855
777.885676	0.058804
778.079667	0.059304
778.273641	0.059348
778.467596	0.059348
778.661533	0.059355
778.855452	0.059311
779.049352	0.058857
779.243235	0.058721
779.437099	0.058948
779.630945	0.058735
779.824773	0.058693
780.018582	0.058757
780.212373	0.058964
780.406146	0.059200
780.599901	0.059284
780.793638	0.059561
780.987356	0.059787
781.181056	0.059714
781.374738	0.060066
781.568402	0.060052
781.762047	0.060321
781.955674	0.060026
782.149283	0.059721
782.342874	0.059630
782.536447	0.059633
782.730001	0.059294
782.923537	0.059209
783.117055	0.058800
783.310555	0.058423
783.504036	0.057749
783.697499	0.057730
783.890944	0.057851
784.084371	0.057563
784.277780	0.057613
784.471170	0.057717
784.664542	0.057828
784.857896	0.058264
785.051231	0.058312
785.244549	0.058758
785.437848	0.058639
785.631129	0.058822
785.824392	0.058941
786.017636	0.059262
786.210863	0.059127
786.404071	0.059197
786.597260	0.059008
786.790432	0.059189
786.983585	0.059064
787.176721	0.059051
787.369838	0.058487
787.562936	0.058720
787.756017	0.058470
787.949079	0.058367
788.142123	0.058330
788.335149	0.058331
788.528156	0.058254
788.721146	0.058329
788.914117	0.058655
789.107070	0.058920
789.300005	0.058944
789.492921	0.058889
789.685819	0.059060
789.878699	0.059227
790.071561	0.059264
790.264405	0.059218
790.457230	0.059325
790.650037	0.059277
790.842826	0.059184
791.035597	0.059095
791.228349	0.059200
791.421084	0.059481
791.613800	0.059166
791.806497	0.059451
791.999177	0.059348
792.191838	0.059129
792.384481	0.059225
792.577106	0.059472
792.769713	0.059548
792.962301	0.059320
793.154871	0.058959
793.347423	0.058800
793.539957	0.058582
793.732473	0.058954
793.924970	0.058954
794.117449	0.058654
794.309910	0.058677
794.502353	0.058444
794.694777	0.058773
794.887183	0.059177
795.079571	0.059332
795.271941	0.059227
795.464293	0.058859
795.656626	0.058754
795.848941	0.058953
796.041238	0.058946
796.233516	0.059335
796.425777	0.059287
796.618019	0.058783
796.810243	0.058853
797.002449	0.058871
797.194636	0.059016
797.386805	0.059455
797.578956	0.059464
797.771089	0.059631
797.963204	0.059596
798.155300	0.059694
798.347378	0.060189
798.539438	0.060230
798.731480	0.060579
798.923503	0.060830
799.115509	0.061188
799.307496	0.061569
799.499465	0.061745
799.691415	0.061629
799.883348	0.061642
800.075262	0.061684
800.267158	0.062248
800.459035	0.062129
800.650895	0.062224
800.842736	0.061997
801.034559	0.062182
801.226364	0.062255
801.418150	0.062759
801.609919	0.063279
801.801669	0.063466
801.993401	0.062984
802.185114	0.063263
802.376810	0.063333
802.568487	0.063533
802.760146	0.063377
802.951787	0.063486
803.143409	0.063233
803.335014	0.063066
803.526600	0.063284
803.718168	0.063852
803.909717	0.064010
804.101249	0.064105
804.292762	0.064564
804.484257	0.064610
804.675734	0.064585
804.867192	0.065042
805.058632	0.064664
805.250054	0.064620
805.441458	0.064577
805.632844	0.064205
805.824211	0.064287
806.015561	0.063887
806.206891	0.064203
806.398204	0.064300
806.589499	0.064192
806.780775	0.064478
806.972033	0.064440
807.163273	0.064238
807.354495	0.064687
807.545698	0.065087
807.736883	0.065065
807.928050	0.065199
808.119199	0.065253
808.310329	0.065470
808.501441	0.065529
808.692535	0.065491
808.883611	0.065625
809.074669	0.065456
809.265708	0.065046
809.456729	0.064898
809.647732	0.064731
809.838717	0.064410
810.029683	0.064088
810.220632	0.064172
810.411562	0.064258
810.602474	0.064413
810.793367	0.064197
810.984242	0.064359
811.175100	0.064540
811.365938	0.064359
811.556759	0.064629
811.747562	0.064579
811.938346	0.064606
812.129112	0.064554
812.319860	0.064603
812.510589	0.064706
812.701300	0.064847
812.891994	0.064848
813.082668	0.065387
813.273325	0.065248
813.463964	0.065456
813.654584	0.065496
813.845186	0.065847
814.035769	0.065402
814.226335	0.065637
814.416882	0.065486
814.607411	0.065684
814.797922	0.065491
814.988415	0.065487
815.178889	0.065736
815.369345	0.066025
815.559783	0.065975
815.750203	0.066221
815.940605	0.066075
816.130988	0.066393
816.321353	0.066533
816.511700	0.066257
816.702028	0.066758
816.892339	0.066927
817.082631	0.066806
817.272905	0.067027
817.463161	0.067297
817.653398	0.067426
817.843617	0.067269
818.033819	0.067184
818.224001	0.067609
818.414166	0.067384
818.604312	0.066949
818.794440	0.067141
818.984550	0.066928
819.174642	0.067103
819.364716	0.066854
819.554771	0.066953
819.744808	0.067154
819.934827	0.067061
820.124827	0.067392
820.314810	0.067520
820.504774	0.067399
820.694720	0.067494
820.884647	0.067238
821.074557	0.067598
821.264448	0.067582
821.454321	0.067366
821.644176	0.067521
821.834012	0.067236
822.023831	0.067518
822.213631	0.067397
822.403413	0.067627
822.593176	0.068125
822.782922	0.068494
822.972649	0.068804
823.162358	0.068762
823.352049	0.068909
823.541721	0.069149
823.731376	0.068948
823.921012	0.068680
824.110629	0.068641
824.300229	0.068420
824.489811	0.068638
824.679374	0.068235
824.868919	0.068364
825.058445	0.067902
825.247954	0.067841
825.437444	0.067927
825.626916	0.068947
825.816370	0.068927
826.005806	0.068951
826.195223	0.068601
826.384622	0.068492
826.574003	0.068534
826.763366	0.069085
826.952711	0.069182
827.142037	0.069305
827.331345	0.068905
827.520635	0.068904
827.709906	0.069557
827.899160	0.069643
828.088395	0.070195
828.277612	0.070266
828.466810	0.069768
828.655991	0.069919
828.845153	0.070264
829.034297	0.070324
829.223423	0.070300
829.412531	0.069653
829.601620	0.069637
829.790691	0.069745
829.979744	0.069757
830.168779	0.070201
830.357795	0.070326
830.546793	0.069976
830.735773	0.069998
830.924735	0.070145
831.113679	0.070196
831.302604	0.070408
831.491511	0.070276
831.680400	0.069753
831.869271	0.069935
832.058123	0.069388
832.246957	0.069123
832.435773	0.069163
832.624571	0.069276
832.813351	0.069425
833.002112	0.069042
833.190855	0.069312
833.379580	0.070110
833.568287	0.070209
833.756975	0.070423
833.945645	0.070774
834.134297	0.070927
834.322931	0.070847
834.511547	0.071057
834.700144	0.071821
834.888723	0.071708
835.077284	0.071926
835.265826	0.071544
835.454351	0.072320
835.642857	0.072687
835.831345	0.072602
836.019815	0.073044
836.208266	0.073192
836.396699	0.073239
836.585114	0.073308
836.773511	0.073113
836.961890	0.073591
837.150250	0.073506
837.338592	0.073204
837.526916	0.073318
837.715222	0.073285
837.903510	0.073454
838.091779	0.073337
838.280030	0.073277
838.468263	0.073439
838.656477	0.073248
838.844674	0.073349
839.032852	0.074035
839.221012	0.074130
839.409153	0.073623
839.597277	0.073534
839.785382	0.073732
839.973469	0.073938
840.161538	0.074374
840.349589	0.075010
840.537621	0.075161
840.725635	0.074666
840.913631	0.075064
841.101609	0.075708
841.289568	0.075831
841.477509	0.075820
841.665432	0.075842
841.853337	0.075899
842.041224	0.075404
842.229092	0.075535
842.416942	0.076114
842.604774	0.076256
842.792588	0.076801
842.980383	0.076845
843.168160	0.076894
843.355919	0.077107
843.543660	0.077220
843.731382	0.077656
843.919087	0.077803
844.106773	0.077789
844.294441	0.077624
844.482090	0.077093
844.669722	0.077223
844.857335	0.077449
845.044930	0.077329
845.232507	0.077421
845.420065	0.077770
845.607605	0.077615
845.795127	0.077507
845.982631	0.077436
846.170117	0.077841
846.357584	0.077853
846.545033	0.078078
846.732464	0.078533
846.919877	0.078525
847.107272	0.078012
847.294648	0.078244
847.482006	0.078378
847.669346	0.079103
847.856667	0.079070
848.043971	0.079521
848.231256	0.080013
848.418523	0.080363
848.605771	0.080832
848.793002	0.081267
848.980214	0.081367
849.167408	0.082098
849.354584	0.081949
849.541742	0.081819
849.728881	0.081928
849.916002	0.081275
850.103105	0.081116
850.290190	0.080979
850.477256	0.081340
850.664304	0.081695
850.851334	0.081589
851.038346	0.082005
851.225340	0.082456
851.412315	0.082449
851.599272	0.082706
851.786211	0.083054
851.973132	0.083404
852.160034	0.083502
852.346918	0.083338
852.533784	0.083714
852.720632	0.083333
852.907462	0.082985
853.094273	0.083261
853.281066	0.083565
853.467841	0.083254
853.654598	0.083099
853.841336	0.082982
854.028056	0.082909
854.214758	0.082327
854.401442	0.082968
854.588107	0.083535
854.774755	0.083638
854.961384	0.083444
855.147995	0.083597
855.334587	0.083583
855.521162	0.083831
855.707718	0.084454
855.894256	0.084523
856.080775	0.084396
856.267277	0.084360
856.453760	0.083991
856.640225	0.084148
856.826672	0.084907
857.013101	0.085076
857.199511	0.084998
857.385903	0.084822
857.572277	0.085024
857.758633	0.085044
857.944970	0.085234
858.131290	0.086031
858.317591	0.086197
858.503873	0.085714
858.690138	0.085739
858.876384	0.085232
859.062612	0.084707
859.248822	0.085185
859.435014	0.085135
859.621188	0.084816
859.807343	0.084709
859.993480	0.084903
860.179599	0.084898
860.365699	0.085437
860.551781	0.086018
860.737846	0.086577
860.923891	0.086522
861.109919	0.086554
861.295929	0.086964
861.481920	0.086974
861.667893	0.086587
861.853848	0.086321
862.039784	0.086090
862.225702	0.086090
862.411603	0.086086
862.597484	0.085903
862.783348	0.085812
862.969193	0.085738
863.155021	0.085630
863.340830	0.085894
863.526620	0.086220
863.712393	0.086255
863.898147	0.086798
864.083883	0.086928
864.269601	0.086788
864.455301	0.087158
864.640982	0.087325
864.826645	0.087369
865.012290	0.087754
865.197917	0.088542
865.383526	0.088403
865.569116	0.088778
865.754688	0.088558
865.940242	0.089283
866.125777	0.089757
866.311295	0.089721
866.496794	0.089476
866.682275	0.089808
866.867737	0.089631
867.053182	0.090424
867.238608	0.090154
867.424016	0.090741
867.609406	0.090922
867.794778	0.090761
867.980131	0.091470
868.165466	0.092233
868.350783	0.092165
868.536082	0.092173
868.721362	0.091589
868.906625	0.091486
869.091869	0.091055
869.277094	0.090851
869.462302	0.089993
869.647491	0.090113
869.832662	0.090292
870.017815	0.089977
870.202950	0.089587
870.388066	0.089756
870.573165	0.089482
870.758245	0.089470
870.943306	0.089373
871.128350	0.090439
871.313375	0.090020
871.498382	0.089283
871.683371	0.088916
871.868342	0.089093
872.053294	0.088998
872.238229	0.089218
872.423144	0.089688
872.608042	0.090136
872.792922	0.090532
872.977783	0.090750
873.162626	0.091347
873.347451	0.092329
873.532258	0.092658
873.717046	0.092987
873.901816	0.093436
874.086568	0.093852
874.271302	0.094243
874.456017	0.093857
874.640715	0.093974
874.825394	0.093795
875.010055	0.093670
875.194697	0.094294
875.379322	0.094324
875.563928	0.094596
875.748516	0.094431
875.933085	0.093577
876.117637	0.093125
876.302170	0.092880
876.486685	0.092838
876.671182	0.092621
876.855661	0.092136
877.040121	0.092015
877.224563	0.091390
877.408987	0.091358
877.593393	0.091447
877.777780	0.091511
877.962150	0.091630
878.146501	0.091863
878.330833	0.092163
878.515148	0.092102
878.699444	0.092626
878.883722	0.093006
879.067982	0.093073
879.252224	0.093660
879.436447	0.093878
879.620653	0.093917
879.804840	0.093440
879.989008	0.093329
880.173159	0.093150
880.357291	0.092682
880.541405	0.092495
880.725501	0.092455
880.909579	0.091996
881.093638	0.092485
881.277680	0.092575
881.461703	0.093224
881.645707	0.093588
881.829694	0.094263
882.013662	0.094744
882.197612	0.094845
882.381544	0.094755
882.565458	0.095093
882.749353	0.094671
882.933230	0.095073
883.117089	0.094878
883.300930	0.094974
883.484753	0.095131
883.668557	0.094970
883.852343	0.095733
884.036111	0.096264
884.219861	0.095880
884.403592	0.096299
884.587305	0.095729
884.771000	0.095447
884.954677	0.094777
885.138335	0.094235
885.321976	0.094297
885.505598	0.093576
885.689201	0.093191
885.872787	0.093678
886.056354	0.093284
886.239904	0.093835
886.423434	0.094582
886.606947	0.094896
886.790442	0.095044
886.973918	0.095140
887.157376	0.095164
887.340816	0.095270
887.524237	0.095242
887.707641	0.095279
887.891026	0.095029
888.074393	0.094548
888.257741	0.094901
888.441072	0.094939
888.624384	0.094865
888.807678	0.094807
888.990954	0.094965
889.174211	0.094737
889.357451	0.094635
889.540672	0.094476
889.723875	0.094436
889.907059	0.094271
890.090226	0.094287
890.273374	0.094364
890.456504	0.094163
890.639616	0.093664
890.822709	0.093771
891.005785	0.094088
891.188842	0.094095
891.371881	0.094359
891.554901	0.094035
891.737904	0.094040
891.920888	0.094118
892.103854	0.094069
892.286802	0.093939
892.469731	0.093807
892.652643	0.093649
892.835536	0.093313
893.018410	0.093377
893.201267	0.093695
893.384106	0.093555
893.566926	0.093123
893.749728	0.093720
893.932511	0.093858
894.115277	0.093908
894.298024	0.093798
894.480753	0.093582
894.663464	0.094012
894.846157	0.093472
895.028831	0.093365
895.211487	0.093043
895.394125	0.092652
895.576745	0.092296
895.759346	0.092133
895.941930	0.092114
896.124495	0.092486
896.307041	0.092105
896.489570	0.092551
896.672080	0.092353
896.854573	0.092683
897.037046	0.092722
897.219502	0.093504
897.401940	0.093106
897.584359	0.092653
897.766760	0.092272
897.949143	0.091886
898.131507	0.091865
898.313854	0.091577
898.496182	0.090846
898.678492	0.090845
898.860783	0.090769
899.043057	0.090756
899.225312	0.091399
899.407549	0.091654
899.589768	0.091017
899.771968	0.090532
899.954151	0.090390
900.136315	0.090549
900.318461	0.090113
900.500588	0.089389
900.682698	0.089539
900.864789	0.089608
901.046862	0.090112
901.228917	0.091286
901.410953	0.091771
901.592971	0.091667
901.774972	0.091680
901.956953	0.091847
902.138917	0.091526
902.320862	0.091472
902.502790	0.090984
902.684699	0.090262
902.866589	0.089350
903.048462	0.088361
903.230316	0.088995
903.412152	0.089414
903.593970	0.089562
903.775770	0.090544
903.957551	0.090239
904.139314	0.090153
904.321059	0.090724
904.502786	0.090698
904.684494	0.090859
904.866185	0.091302
905.047857	0.090713
905.229510	0.089759
905.411146	0.089025
905.592763	0.089372
905.774363	0.089210
905.955943	0.088728
906.137506	0.089507
906.319051	0.089974
906.500577	0.088480
906.682085	0.088997
906.863575	0.090030
907.045046	0.089493
907.226500	0.089668
907.407935	0.089428
907.589352	0.089408
907.770750	0.088518
907.952131	0.087454
908.133493	0.088236
908.314837	0.087430
908.496163	0.087008
908.677470	0.086871
908.858760	0.086773
909.040031	0.086333
909.221284	0.086076
909.402518	0.086354
909.583735	0.087189
909.764933	0.087109
909.946113	0.086635
910.127275	0.086129
910.308418	0.086273
910.489544	0.085551
910.670651	0.085295
910.851740	0.084793
911.032810	0.084296
911.213863	0.084007
911.394897	0.083693
911.575913	0.084075
911.756911	0.084337
911.937890	0.084789
912.118851	0.084961
912.299794	0.085513
912.480719	0.085384
912.661626	0.084959
912.842514	0.084418
913.023384	0.083494
913.204236	0.083937
913.385070	0.084174
913.565886	0.084097
913.746683	0.083854
913.927462	0.083310
914.108223	0.083922
914.288965	0.084177
914.469690	0.084400
914.650396	0.084728
914.831084	0.084723
915.011754	0.084135
915.192405	0.083795
915.373038	0.083068
915.553653	0.083157
915.734250	0.082765
915.914829	0.081992
916.095389	0.081273
916.275931	0.081825
916.456455	0.081453
916.636961	0.080446
916.817448	0.079613
916.997917	0.079758
917.178368	0.079822
917.358801	0.079655
917.539216	0.079909
917.719612	0.080304
917.899990	0.079054
918.080350	0.078631
918.260692	0.078666
918.441015	0.079250
918.621320	0.078852
918.801607	0.078531
918.981876	0.077533
919.162127	0.077421
919.342359	0.078072
919.522573	0.078385
919.702769	0.078131
919.882947	0.077984
920.063106	0.076976
920.243247	0.077701
920.423370	0.076449
920.603475	0.076608
920.783562	0.076573
920.963630	0.075502
921.143680	0.075296
921.323712	0.074625
921.503725	0.075016
921.683721	0.075111
921.863698	0.074485
922.043657	0.074617
922.223598	0.074883
922.403520	0.074363
922.583424	0.073379
922.763311	0.072754
922.943178	0.072809
923.123028	0.073085
923.302859	0.072701
923.482673	0.072625
923.662467	0.074061
923.842244	0.073334
924.022003	0.073021
924.201743	0.072783
924.381465	0.073056
924.561169	0.073346
924.740854	0.072524
924.920522	0.072346
925.100171	0.072266
925.279802	0.071518
925.459414	0.072035
925.639009	0.071290
925.818585	0.072417
925.998143	0.072109
926.177683	0.071952
926.357205	0.071468
926.536708	0.072144
926.716193	0.071024
926.895660	0.069297
927.075109	0.068717
927.254539	0.068990
927.433951	0.067951
927.613345	0.067378
927.792721	0.066045
927.972079	0.066160
928.151418	0.065174
928.330739	0.064931
928.510042	0.065455
928.689327	0.064164
928.868593	0.063591
929.047841	0.062977
929.227071	0.062212
929.406283	0.062651
929.585476	0.060896
929.764652	0.060540
929.943809	0.060744
930.122948	0.060092
930.302068	0.060547
930.481171	0.060671
930.660255	0.059379
930.839321	0.059655
931.018369	0.058934
931.197398	0.060535
931.376409	0.060657
931.555402	0.060475
931.734377	0.061164
931.913334	0.060375
932.092272	0.059623
932.271192	0.061176
932.450094	0.061387
932.628978	0.061419
932.807844	0.059827
932.986691	0.060048
933.165520	0.059241
933.344331	0.058841
933.523123	0.057850
933.701898	0.057510
933.880654	0.056828
934.059392	0.056256
934.238111	0.056185
934.416813	0.056345
934.595496	0.054668
934.774161	0.054253
934.952808	0.052795
935.131437	0.053529
935.310047	0.055009
935.488639	0.055019
935.667213	0.054608
935.845769	0.053441
936.024306	0.054689
936.202825	0.054951
936.381326	0.053933
936.559809	0.056190
936.738274	0.055295
936.916720	0.053944
937.095148	0.054209
937.273558	0.054842
937.451950	0.055665
937.630323	0.053283
937.808678	0.053040
937.987015	0.054562
938.165334	0.051105
938.343635	0.052055
938.521917	0.050885
938.700181	0.048719
938.878427	0.047706
939.056655	0.046627
939.234864	0.047048
939.413055	0.045222
939.591228	0.045338
939.769383	0.046804
939.947519	0.045899
940.125638	0.043803
940.303738	0.043605
940.481820	0.043102
940.659883	0.042394
940.837929	0.042324
941.015956	0.044677
941.193965	0.043134
941.371955	0.042165
941.549928	0.042003
941.727882	0.044895
941.905818	0.046537
942.083736	0.044292
942.261636	0.045804
942.439517	0.044829
942.617380	0.044087
942.795225	0.043669
942.973052	0.043346
943.150860	0.043044
943.328651	0.040604
943.506423	0.037847
943.684176	0.039750
943.861912	0.038063
944.039629	0.038948
944.217328	0.037993
944.395009	0.037082
944.572672	0.037488
944.750317	0.037305
944.927943	0.038723
945.105551	0.038703
945.283141	0.039282
945.460712	0.038060
945.638265	0.037764
945.815801	0.038080
945.993317	0.038463
946.170816	0.038286
946.348297	0.037896
946.525759	0.036352
946.703203	0.036882
946.880629	0.034828
947.058036	0.035558
947.235425	0.034379
947.412797	0.034479
947.590149	0.033006
947.767484	0.033491
947.944800	0.032812
948.122099	0.031928
948.299379	0.031559
948.476640	0.033552
948.653884	0.033986
948.831109	0.034236
949.008316	0.033650
949.185505	0.033837
949.362676	0.033237
949.539828	0.032069
949.716962	0.035283
949.894078	0.035692
950.071176	0.033868
950.248256	0.031757
950.425317	0.030168
950.602360	0.028622
950.779385	0.029806
950.956391	0.030317
951.133380	0.031918
951.310350	0.027812
951.487302	0.027892
951.664235	0.025684
951.841151	0.026321
952.018048	0.027819
952.194927	0.028592
952.371788	0.027799
952.548631	0.025710
952.725455	0.028185
952.902261	0.029971
953.079049	0.027882
953.255819	0.028629
953.432570	0.029662
953.609303	0.024161
953.786018	0.025515
953.962715	0.026154
954.139394	0.025873
954.316054	0.024912
954.492696	0.025490
954.669320	0.025266
954.845926	0.027980
955.022513	0.027506
955.199083	0.031859
955.375634	0.029988
955.552166	0.028264
955.728681	0.029306
955.905177	0.027761
956.081655	0.024306
956.258115	0.026572
956.434557	0.023032
956.610980	0.021862
956.787385	0.022913
956.963772	0.022433
957.140141	0.021420
957.316492	0.015517
957.492824	0.016244
957.669138	0.016398
957.845434	0.011818
958.021712	0.017247
958.197971	0.019172
958.374212	0.017650
958.550435	0.019257
958.726640	0.023103
958.902826	0.030476
959.078995	0.030601
959.255145	0.033752
959.431277	0.038790
959.607390	0.037886
959.783486	0.038326
959.959563	0.039364
960.135622	0.039219
960.311662	0.038500
960.487685	0.036258
960.663689	0.031339
960.839675	0.032166
961.015643	0.029479
961.191593	0.027261
961.367524	0.030541
961.543437	0.026707
961.719332	0.025681
961.895209	0.024342
962.071067	0.025568
962.246907	0.030805
962.422730	0.029978
962.598533	0.035012
962.774319	0.039068
962.950086	0.029235
963.125835	0.036402
963.301566	0.033784
963.477279	0.035378
963.652973	0.034631
963.828650	0.028151
964.004308	0.029311
964.179947	0.026233
964.355569	0.024073
964.531172	0.028090
964.706757	0.020382
964.882324	0.023819
965.057873	0.025558
965.233403	0.025983
965.408916	0.029241
965.584410	0.029896
965.759885	0.029702
965.935343	0.029808
966.110782	0.033188
966.286203	0.035267
966.461606	0.037412
966.636991	0.035369
966.812357	0.036240
966.987705	0.039308
967.163035	0.037877
967.338347	0.043950
967.513641	0.039554
967.688916	0.034064
967.864173	0.038816
968.039412	0.035049
968.214632	0.030214
968.389835	0.025395
968.565019	0.024703
968.740185	0.022640
968.915333	0.018402
969.090462	0.021169
969.265573	0.027316
969.440667	0.028320
969.615741	0.032063
969.790798	0.037045
969.965836	0.044250
970.140856	0.046074
970.315858	0.051449
970.490842	0.049604
970.665808	0.048035
970.840755	0.047244
971.015684	0.045428
971.190595	0.044752
971.365487	0.044319
971.540362	0.040752
971.715218	0.039148
971.890056	0.036112
972.064875	0.040353
972.239677	0.039507
972.414460	0.039628
972.589225	0.041077
972.763972	0.035653
972.938700	0.037280
973.113411	0.034735
973.288103	0.035331
973.462777	0.036421
973.637432	0.034283
973.812070	0.035357
973.986689	0.036897
974.161290	0.034671
974.335873	0.037463
974.510437	0.035083
974.684984	0.036271
974.859512	0.032927
975.034022	0.031132
975.208513	0.026752
975.382987	0.028492
975.557442	0.027644
975.731879	0.022676
975.906298	0.021183
976.080698	0.022595
976.255080	0.027936
976.429445	0.029772
976.603790	0.028859
976.778118	0.031016
976.952427	0.029836
977.126719	0.025065
977.300992	0.028852
977.475246	0.034908
977.649483	0.030428
977.823701	0.025932
977.997901	0.021801
978.172083	0.022090
978.346247	0.024096
978.520392	0.020216
978.694519	0.023388
978.868628	0.021197
979.042719	0.018760
979.216791	0.021366
979.390845	0.022140
979.564882	0.026888
979.738899	0.029512
979.912899	0.036061
980.086880	0.040589
980.260843	0.040033
980.434788	0.046020
980.608715	0.044369
980.782623	0.044240
980.956514	0.043376
981.130386	0.039427
981.304240	0.039068
981.478075	0.030957
981.651892	0.032320
981.825692	0.029859
981.999472	0.028025
982.173235	0.027304
982.346980	0.025636
982.520706	0.029021
982.694414	0.034135
982.868104	0.028783
983.041775	0.030899
983.215428	0.029972
983.389064	0.030568
983.562680	0.031688
983.736279	0.029508
983.909860	0.029131
984.083422	0.028113
984.256966	0.026315
984.430491	0.030292
984.603999	0.030865
984.777488	0.034203
984.950959	0.033727
985.124412	0.034298
985.297847	0.034651
985.471263	0.037412
985.644661	0.036904
985.818041	0.037199
985.991403	0.034403
986.164747	0.030933
986.338072	0.030317
986.511379	0.037534
986.684668	0.039269
986.857938	0.034493
987.031191	0.033173
987.204425	0.032402
987.377641	0.033536
987.550839	0.035859
987.724018	0.040390
987.897179	0.035388
988.070322	0.029951
988.243447	0.023592
988.416554	0.029741
988.589642	0.030977
988.762712	0.027906
988.935764	0.025195
989.108798	0.024610
989.281813	0.018870
989.454811	0.024158
989.627790	0.020415
989.800751	0.024803
989.973693	0.024955
990.146617	0.024793
990.319524	0.026285
990.492412	0.030315
990.665281	0.033389
990.838133	0.036233
991.010966	0.032385
991.183781	0.035363
991.356578	0.034164
991.529356	0.032506
991.702117	0.031575
991.874859	0.030459
992.047583	0.029112
992.220288	0.026852
992.392976	0.025566
992.565645	0.027179
992.738296	0.027652
992.910929	0.026425
993.083543	0.026394
993.256139	0.026686
993.428718	0.028085
993.601277	0.027239
993.773819	0.027931
993.946342	0.030421
994.118848	0.025062
994.291335	0.025029
994.463803	0.026884
994.636254	0.025905
994.808686	0.024813
994.981100	0.023727
995.153496	0.022309
995.325874	0.018981
995.498233	0.017987
995.670574	0.020949
995.842897	0.023224
996.015202	0.018430
996.187488	0.018997
996.359757	0.019798
996.532007	0.018874
996.704239	0.020956
996.876452	0.022268
997.048648	0.022054
997.220825	0.024319
997.392984	0.021229
997.565124	0.026167
997.737247	0.030184
997.909351	0.030661
998.081437	0.030472
998.253505	0.032659
998.425554	0.031754
998.597586	0.030158
998.769599	0.026861
998.941594	0.027894
999.113571	0.024732
999.285529	0.020563
999.457469	0.020916
999.629391	0.023137
999.801295	0.023574
999.973181	0.025217
1000.145048	0.027725
1000.316897	0.027768
1000.488728	0.027923
1000.660541	0.029031
1000.832335	0.029642
1001.004111	0.029391
1001.175869	0.029344
1001.347609	0.026627
1001.519331	0.027130
1001.691034	0.028103
1001.862719	0.026623
1002.034386	0.027236
1002.206035	0.028576
1002.377665	0.030761
1002.549277	0.034950
1002.720871	0.035121
1002.892447	0.034286
1003.064004	0.032765
1003.235544	0.032847
1003.407065	0.037061
1003.578568	0.037406
1003.750052	0.030100
1003.921519	0.029994
1004.092967	0.026277
1004.264397	0.028450
1004.435809	0.027800
1004.607202	0.030930
1004.778577	0.026570
1004.949934	0.023735
1005.121273	0.025783
1005.292594	0.033428
1005.463896	0.033056
1005.635180	0.033882
1005.806446	0.030293
1005.977694	0.028656
1006.148923	0.029098
1006.320135	0.031145
1006.491328	0.031938
1006.662503	0.031413
1006.833659	0.027024
1007.004798	0.023377
1007.175918	0.023506
1007.347020	0.026622
1007.518103	0.027234
1007.689169	0.024388
1007.860216	0.022179
1008.031245	0.023296
1008.202256	0.022606
1008.373248	0.026477
1008.544223	0.025230
1008.715179	0.021321
1008.886117	0.018140
1009.057036	0.019289
1009.227938	0.019163
1009.398821	0.025843
1009.569686	0.025222
1009.740533	0.024234
1009.911361	0.020982
1010.082172	0.022273
1010.252964	0.024159
1010.423738	0.025827
1010.594493	0.024719
1010.765231	0.027252
1010.935950	0.020335
1011.106651	0.018373
1011.277334	0.016088
1011.447998	0.018287
1011.618645	0.021387
1011.789273	0.023947
1011.959882	0.021814
1012.130474	0.021668
1012.301048	0.021172
1012.471603	0.023794
1012.642140	0.024859
1012.812658	0.026432
1012.983159	0.025043
1013.153641	0.023295
1013.324105	0.022995
1013.494551	0.022712
1013.664979	0.021156
1013.835388	0.020705
1014.005779	0.021234
1014.176152	0.021354
1014.346507	0.021587
1014.516843	0.023423
1014.687162	0.026408
1014.857462	0.027711
1015.027744	0.026149
1015.198007	0.032263
1015.368252	0.032689
1015.538480	0.032981
1015.708689	0.034393
1015.878879	0.032159
1016.049052	0.030492
1016.219206	0.027396
1016.389342	0.026163
1016.559460	0.029522
1016.729559	0.028305
1016.899641	0.025036
1017.069704	0.024143
1017.239749	0.021959
1017.409775	0.024885
1017.579784	0.025841
1017.749774	0.025715
1017.919746	0.023149
1018.089700	0.023200
1018.259635	0.022922
1018.429553	0.025741
1018.599452	0.026945
1018.769333	0.028881
1018.939195	0.029279
1019.109040	0.028477
1019.278866	0.028195
1019.448674	0.032606
1019.618464	0.034745
1019.788235	0.028730
1019.957989	0.031126
1020.127724	0.031825
1020.297441	0.031602
1020.467139	0.030242
1020.636820	0.026597
1020.806482	0.029508
1020.976126	0.026038
1021.145752	0.023160
1021.315359	0.030469
1021.484948	0.030484
1021.654519	0.028301
1021.824072	0.028740
1021.993607	0.028164
1022.163123	0.034477
1022.332621	0.030715
1022.502101	0.031527
1022.671563	0.032630
1022.841007	0.029759
1023.010432	0.025979
1023.179839	0.029606
1023.349228	0.030826
1023.518598	0.031621
1023.687951	0.028106
1023.857285	0.031048
1024.026601	0.032029
1024.195899	0.030693
1024.365178	0.030780
1024.534439	0.031342
1024.703682	0.029277
1024.872907	0.029413
1025.042114	0.030747
1025.211302	0.031243
1025.380472	0.029808
1025.549624	0.031082
1025.718758	0.033197
1025.887873	0.035186
1026.056970	0.036116
1026.226049	0.036290
1026.395110	0.039710
1026.564153	0.037582
1026.733177	0.041035
1026.902183	0.043259
1027.071171	0.040908
1027.240141	0.039087
1027.409092	0.035972
1027.578026	0.035203
1027.746940	0.031665
1027.915837	0.023723
1028.084716	0.018730
1028.253576	0.013093
1028.422418	0.011946
1028.591242	0.010414
1028.760048	0.010341
1028.928835	0.012464
1029.097604	0.011925
1029.266355	0.017249
1029.435088	0.019793
1029.603803	0.026616
1029.772499	0.032486
1029.941177	0.032821
1030.109837	0.033116
1030.278478	0.029635
1030.447102	0.027676
1030.615707	0.028892
1030.784294	0.026050
1030.952863	0.027340
1031.121413	0.025529
1031.289945	0.020773
1031.458460	0.020677
1031.626955	0.024720
1031.795433	0.034105
1031.963892	0.037457
1032.132334	0.038186
1032.300756	0.036174
1032.469161	0.035325
1032.637548	0.035845
1032.805916	0.039298
1032.974266	0.037416
1033.142598	0.036862
1033.310911	0.031210
1033.479207	0.030440
1033.647484	0.027854
1033.815743	0.029860
1033.983983	0.030661
1034.152206	0.029679
1034.320410	0.030759
1034.488596	0.034468
1034.656764	0.031800
1034.824914	0.031399
1034.993045	0.027000
1035.161158	0.028589
1035.329253	0.028522
1035.497330	0.027802
1035.665388	0.028815
1035.833428	0.025846
1036.001450	0.026810
1036.169454	0.026600
1036.337440	0.028402
1036.505407	0.029573
1036.673356	0.026951
1036.841287	0.024054
1037.009200	0.023593
1037.177094	0.023549
1037.344970	0.023695
1037.512828	0.019360
1037.680668	0.020561
1037.848489	0.017631
1038.016293	0.020446
1038.184078	0.022302
1038.351845	0.024083
1038.519593	0.024055
1038.687324	0.023697
1038.855036	0.027743
1039.022730	0.034230
1039.190406	0.035642
1039.358063	0.036038
1039.525702	0.034784
1039.693323	0.036965
1039.860926	0.039141
1040.028511	0.037175
1040.196077	0.040668
1040.363625	0.035631
1040.531155	0.028533
1040.698667	0.025743
1040.866161	0.026440
1041.033636	0.027698
1041.201093	0.027216
1041.368532	0.025664
1041.535952	0.026835
1041.703355	0.026450
1041.870739	0.030277
1042.038105	0.035684
1042.205452	0.035889
1042.372782	0.036015
1042.540093	0.035559
1042.707386	0.034021
1042.874661	0.035732
1043.041918	0.037119
1043.209156	0.032467
1043.376376	0.032515
1043.543578	0.027801
1043.710762	0.028393
1043.877927	0.030519
1044.045074	0.029310
1044.212203	0.031390
1044.379314	0.028822
1044.546407	0.026350
1044.713481	0.028468
1044.880537	0.026782
1045.047575	0.030867
1045.214595	0.030607
1045.381596	0.030942
1045.548579	0.033885
1045.715544	0.029875
1045.882491	0.032802
1046.049420	0.038393
1046.216330	0.041114
1046.383222	0.042049
1046.550096	0.039180
1046.716951	0.039977
1046.883789	0.037907
1047.050608	0.037265
1047.217409	0.037985
1047.384192	0.036431
1047.550956	0.033431
1047.717703	0.031033
1047.884431	0.025858
1048.051140	0.026921
1048.217832	0.024438
1048.384505	0.028449
1048.551161	0.027221
1048.717798	0.029641
1048.884416	0.026944
1049.051017	0.025820
1049.217599	0.025249
1049.384163	0.028593
1049.550709	0.026820
1049.717237	0.029067
1049.883746	0.028187
1050.050237	0.028621
1050.216710	0.031306
1050.383165	0.033944
1050.549601	0.038803
1050.716019	0.037955
1050.882420	0.036035
1051.048801	0.033528
1051.215165	0.034705
1051.381510	0.033082
1051.547837	0.029196
1051.714146	0.027663
1051.880437	0.028596
1052.046709	0.026806
1052.212964	0.030705
1052.379200	0.029840
1052.545417	0.034641
1052.711617	0.031646
1052.877798	0.033286
1053.043961	0.036749
1053.210106	0.030718
1053.376233	0.029426
1053.542341	0.029875
1053.708432	0.026945
1053.874504	0.026500
1054.040557	0.027730
1054.206593	0.030484
1054.372610	0.023961
1054.538609	0.024030
1054.704590	0.028951
1054.870553	0.028584
1055.036497	0.025200
1055.202424	0.025161
1055.368331	0.028568
1055.534221	0.027928
1055.700093	0.025519
1055.865946	0.030374
1056.031781	0.029585
1056.197598	0.030313
1056.363397	0.032713
1056.529177	0.032666
1056.694939	0.033195
1056.860683	0.029235
1057.026409	0.024908
1057.192116	0.022264
1057.357806	0.021390
1057.523477	0.016466
1057.689130	0.014038
1057.854764	0.010087
1058.020381	0.010077
1058.185979	0.010037
1058.351559	0.012333
1058.517120	0.011128
1058.682664	0.013933
1058.848189	0.015989
1059.013696	0.016910
1059.179185	0.018367
1059.344656	0.023458
1059.510108	0.023357
1059.675542	0.021601
1059.840958	0.027095
1060.006356	0.029313
1060.171735	0.032755
1060.337096	0.030665
1060.502439	0.036634
1060.667764	0.034009
1060.833071	0.035560
1060.998359	0.037033
1061.163629	0.037895
1061.328881	0.035064
1061.494115	0.038128
1061.659330	0.036917
1061.824527	0.035170
1061.989706	0.029742
1062.154867	0.030373
1062.320010	0.026719
1062.485134	0.023328
1062.650240	0.024156
1062.815328	0.021669
1062.980398	0.019113
1063.145449	0.019515
1063.310482	0.021137
1063.475497	0.025697
1063.640494	0.028764
1063.805473	0.025953
1063.970433	0.029986
1064.135375	0.032331
1064.300299	0.032274
1064.465204	0.033004
1064.630092	0.031110
1064.794961	0.030656
1064.959812	0.026957
1065.124645	0.020664
1065.289459	0.022568
1065.454256	0.021249
1065.619034	0.017676
1065.783793	0.018376
1065.948535	0.019280
1066.113258	0.021465
1066.277964	0.019999
1066.442651	0.027854
1066.607319	0.033525
1066.771970	0.032312
1066.936602	0.032711
1067.101216	0.030104
1067.265812	0.029511
1067.430389	0.030828
1067.594949	0.030629
1067.759490	0.033959
1067.924013	0.025505
1068.088518	0.023680
1068.253004	0.022473
1068.417472	0.024632
1068.581922	0.026691
1068.746354	0.025638
1068.910768	0.024550
1069.075163	0.025251
1069.239540	0.025698
1069.403899	0.028037
1069.568240	0.030420
1069.732562	0.028920
1069.896866	0.030279
1070.061152	0.031488
1070.225420	0.035551
1070.389670	0.034662
1070.553901	0.031466
1070.718114	0.026513
1070.882309	0.028286
1071.046486	0.028705
1071.210644	0.030433
1071.374784	0.025108
1071.538906	0.025147
1071.703010	0.020204
1071.867096	0.024001
1072.031163	0.027478
1072.195212	0.031556
1072.359243	0.028909
1072.523256	0.026227
1072.687250	0.027684
1072.851226	0.027275
1073.015184	0.029533
1073.179124	0.034180
1073.343045	0.038718
1073.506949	0.032818
1073.670834	0.030980
1073.834701	0.035558
1073.998549	0.036735
1074.162380	0.044934
1074.326192	0.043584
1074.489986	0.046433
1074.653761	0.046586
1074.817519	0.036470
1074.981258	0.042924
1075.144979	0.043881
1075.308682	0.041930
1075.472367	0.043204
1075.636033	0.033121
1075.799681	0.031816
1075.963311	0.030045
1076.126923	0.034114
1076.290516	0.035397
1076.454092	0.031240
1076.617649	0.028020
1076.781187	0.023721
1076.944708	0.023804
1077.108210	0.027869
1077.271695	0.036573
1077.435160	0.034662
1077.598608	0.030386
1077.762038	0.031927
1077.925449	0.036516
1078.088842	0.039279
1078.252217	0.046151
1078.415573	0.044667
1078.578912	0.042885
1078.742232	0.036215
1078.905534	0.030508
1079.068817	0.027127
1079.232083	0.026538
1079.395330	0.023035
1079.558559	0.022408
1079.721770	0.015919
1079.884962	0.014760
1080.048136	0.018882
1080.211293	0.015049
1080.374430	0.014653
1080.537550	0.011336
1080.700651	0.008059
1080.863735	0.013101
1081.026800	0.014847
1081.189846	0.015197
1081.352875	0.018117
1081.515885	0.007086
1081.678877	0.008244
1081.841851	0.014274
1082.004807	0.015247
1082.167744	0.018003
1082.330663	0.010181
1082.493564	0.009757
1082.656447	0.009515
1082.819312	0.004133
1082.982158	0.008428
1083.144986	0.011611
1083.307796	0.009078
1083.470587	0.016321
1083.633361	0.018922
1083.796116	0.016661
1083.958853	0.014688
1084.121571	0.020402
1084.284272	0.026915
1084.446954	0.032737
1084.609618	0.033752
1084.772264	0.033932
1084.934892	0.032520
1085.097501	0.031544
1085.260092	0.035909
1085.422665	0.035196
1085.585220	0.032074
1085.747756	0.022144
1085.910274	0.027594
1086.072774	0.030631
1086.235256	0.032878
1086.397720	0.027550
1086.560165	0.027027
1086.722592	0.027590
1086.885001	0.029736
1087.047392	0.030864
1087.209764	0.040049
1087.372119	0.031095
1087.534455	0.029819
1087.696772	0.030837
1087.859072	0.029623
1088.021353	0.027964
1088.183616	0.026558
1088.345861	0.033009
1088.508088	0.029292
1088.670296	0.035240
1088.832486	0.032227
1088.994658	0.029213
1089.156812	0.029773
1089.318948	0.036982
1089.481065	0.036100
1089.643164	0.035787
1089.805245	0.026175
1089.967308	0.029867
1090.129352	0.021955
1090.291378	0.025694
1090.453386	0.022880
1090.615376	0.020132
1090.777347	0.023301
1090.939301	0.013274
1091.101236	0.014699
1091.263153	0.013072
1091.425051	0.007345
1091.586932	0.009644
1091.748794	0.010947
1091.910638	0.014879
1092.072463	0.011136
1092.234271	0.009660
1092.396060	0.025702
1092.557831	0.019207
1092.719584	0.030361
1092.881319	0.034895
1093.043035	0.026398
1093.204733	0.029738
1093.366413	0.034534
1093.528075	0.043233
1093.689718	0.047111
1093.851343	0.043015
1094.012950	0.048208
1094.174539	0.038472
1094.336110	0.040566
1094.497662	0.045692
1094.659196	0.037042
1094.820712	0.039312
1094.982210	0.044098
1095.143689	0.039991
1095.305151	0.045486
1095.466594	0.043816
1095.628018	0.051509
1095.789425	0.052489
1095.950813	0.049180
1096.112183	0.057642
1096.273535	0.052330
1096.434869	0.038738
1096.596184	0.031327
1096.757482	0.021898
1096.918761	0.026295
1097.080021	0.012586
1097.241264	0.012526
1097.402488	0.021734
1097.563694	0.020210
1097.724882	0.018430
1097.886052	0.018849
1098.047203	0.024858
1098.208336	0.027413
1098.369451	0.024138
1098.530548	0.034845
1098.691627	0.037555
1098.852687	0.030196
1099.013729	0.034621
1099.174753	0.036737
1099.335758	0.028853
1099.496746	0.033372
1099.657715	0.033641
1099.818666	0.038757
1099.979599	0.039592
1100.140513	0.029439
1100.301409	0.031346
1100.462287	0.023347
1100.623147	0.019677
1100.783989	0.029167
1100.944812	0.017219
1101.105617	0.016495
1101.266404	0.010131
1101.427173	0.007161
1101.587923	0.010527
1101.748656	0.002707
1101.909370	0.003916
1102.070066	0.010868
1102.230743	0.012944
1102.391403	0.016024
1102.552044	0.018394
1102.712667	0.019016
1102.873271	0.022662
1103.033858	0.027007
1103.194426	0.032114
1103.354976	0.037121
1103.515508	0.025444
1103.676021	0.015603
1103.836517	0.013944
1103.996994	0.007592
1104.157453	0.006426
1104.317893	0.003491
1104.478316	0.007549
1104.638720	0.008179
1104.799106	0.003908
1104.959474	0.011566
1105.119823	0.014786
1105.280155	0.006743
1105.440468	0.012245
1105.600763	0.021999
1105.761039	0.025290
1105.921298	0.005970
1106.081538	0.011020
1106.241760	0.011155
1106.401964	0.007944
1106.562149	0.011655
1106.722316	0.023532
1106.882465	0.030461
1107.042596	0.022788
1107.202709	0.022255
1107.362803	0.030500
1107.522879	0.027807
1107.682937	0.018625
1107.842977	0.016444
1108.002999	0.015873
1108.163002	0.007709
1108.322987	0.010919
1108.482954	0.011314
1108.642902	0.015126
1108.802833	0.018062
1108.962745	0.024876
1109.122639	0.037668
1109.282515	0.034497
1109.442372	0.033402
1109.602211	0.036594
1109.762032	0.021985
1109.921835	0.015415
1110.081620	0.012141
1110.241386	0.012911
1110.401134	0.002955
1110.560864	0.005026
1110.720576	0.006711
1110.880269	0.010231
1111.039945	0.009822
1111.199602	0.003496
1111.359240	0.010756
1111.518861	0.004232
1111.678463	0.000297
1111.838047	0.003387
1111.997613	-0.011840
1112.157161	-0.012143
1112.316690	-0.016715
1112.476202	-0.002435
1112.635695	0.007391
1112.795169	0.005978
1112.954626	0.005932
1113.114064	0.019115
1113.273484	0.018070
1113.432886	0.036664
1113.592270	0.050206
1113.751635	0.052174
1113.910983	0.046721
1114.070312	0.043313
1114.229622	0.042794
1114.388915	0.045714
1114.548189	0.031126
1114.707445	0.025113
1114.866683	0.005709
1115.025903	-0.006842
1115.185104	-0.005091
1115.344287	-0.002044
1115.503452	0.001519
1115.662599	0.009734
1115.821727	0.002490
1115.980838	0.005127
1116.139930	0.017025
1116.299004	0.027497
1116.458059	0.031111
1116.617097	0.027135
1116.776116	0.017577
1116.935117	0.016237
1117.094099	-0.009427
1117.253064	0.006072
1117.412010	0.011500
1117.570938	0.011015
1117.729848	0.000921
1117.888740	0.006448
1118.047613	0.012851
1118.206468	0.009383
1118.365305	0.012280
1118.524124	0.044722
1118.682924	0.025308
1118.841707	0.030132
1119.000471	0.039848
1119.159216	0.052318
1119.317944	0.049290
1119.476653	0.045785
1119.635344	0.063276
1119.794017	0.065168
1119.952672	0.059697
1120.111308	0.072527
1120.269927	0.070895
1120.428527	0.058225
1120.587108	0.041675
1120.745672	0.047317
1120.904217	0.049432
1121.062744	0.022091
1121.221253	0.030510
1121.379744	0.042807
1121.538216	0.036963
1121.696671	0.032032
1121.855107	0.036543
1122.013524	0.058392
1122.171924	0.049173
1122.330305	0.049733
1122.488668	0.064236
1122.647013	0.062220
1122.805340	0.039401
1122.963648	0.042487
1123.121938	0.039272
1123.280210	0.024249
1123.438464	0.013348
1123.596700	0.012577
1123.754917	0.020383
1123.913116	0.025263
1124.071297	0.007574
1124.229459	0.015588
1124.387604	0.024260
1124.545730	0.021121
1124.703838	0.016054
1124.861928	0.016368
1125.019999	0.015833
1125.178052	0.023046
1125.336088	0.018667
1125.494104	0.031328
1125.652103	0.018346
1125.810083	0.024428
1125.968045	0.025444
1126.125989	0.042994
1126.283915	0.040907
1126.441823	0.049073
1126.599712	0.030286
1126.757583	0.024564
1126.915436	0.021162
1127.073270	0.021165
1127.231087	0.003511
1127.388885	0.010498
1127.546665	0.009065
1127.704426	0.017581
1127.862170	0.009568
1128.019895	0.026320
1128.177602	0.035217
1128.335291	0.038103
1128.492961	0.043348
1128.650614	0.040901
1128.808248	0.048278
1128.965864	0.053070
1129.123461	0.044721
1129.281041	0.047304
1129.438602	0.024573
1129.596145	0.017252
1129.753670	0.014605
1129.911176	0.011184
1130.068665	0.024138
1130.226135	0.021674
1130.383587	0.014601
1130.541020	0.031451
1130.698436	0.046062
1130.855833	0.055154
1131.013212	0.074708
1131.170573	0.073126
1131.327915	0.092425
1131.485239	0.090118
1131.642545	0.075789
1131.799833	0.088428
1131.957103	0.069151
1132.114354	0.057018
1132.271588	0.060422
1132.428803	0.028730
1132.585999	0.018195
1132.743178	-0.002972
1132.900338	-0.007394
1133.057480	-0.016034
1133.214604	-0.024948
1133.371710	-0.022439
1133.528797	-0.013291
1133.685866	-0.012960
1133.842917	0.001202
1133.999950	0.003981
1134.156964	0.022113
1134.313960	0.026304
1134.470938	0.036741
1134.627898	0.044440
1134.784840	0.039323
1134.941763	0.029971
1135.098668	0.028826
1135.255555	0.026066
1135.412424	0.038342
1135.569274	0.038327
1135.726107	0.028941
1135.882921	0.039195
1136.039716	0.031734
1136.196494	0.036018
1136.353253	0.021759
1136.509995	0.013160
1136.666717	0.018712
1136.823422	0.010017
1136.980109	-0.000726
1137.136777	0.007374
1137.293427	0.013067
1137.450059	0.006152
1137.606672	0.006336
1137.763267	0.020279
1137.919844	0.017804
1138.076403	0.022481
1138.232944	0.025986
1138.389466	0.037322
1138.545971	0.022469
1138.702457	-0.008612
1138.858924	-0.016129
1139.015374	-0.020366
1139.171805	-0.018389
1139.328218	-0.012931
1139.484613	-0.019010
1139.640990	-0.018396
1139.797348	-0.022874
1139.953688	-0.005786
1140.110010	-0.002524
1140.266314	0.015493
1140.422600	0.013708
1140.578867	0.013946
1140.735116	-0.004036
1140.891347	0.002206
1141.047559	-0.013642
1141.203754	-0.014831
1141.359930	-0.011788
1141.516088	-0.025939
1141.672228	-0.032772
1141.828349	-0.049605
1141.984452	-0.043609
1142.140537	-0.020873
1142.296604	-0.040437
1142.452653	-0.026376
1142.608683	-0.033272
1142.764695	-0.029577
1142.920689	-0.003243
1143.076665	0.010972
1143.232622	0.040330
1143.388562	0.048234
1143.544483	0.039243
1143.700385	0.046321
1143.856270	0.036698
1144.012136	0.039529
1144.167985	0.033837
1144.323814	0.039347
1144.479626	0.020425
1144.635420	-0.014049
1144.791195	-0.041003
1144.946952	-0.037175
1145.102691	-0.037481
1145.258411	-0.032936
1145.414113	-0.032014
1145.569798	-0.037428
1145.725463	-0.032280
1145.881111	-0.041003
1146.036741	-0.020563
1146.192352	-0.022757
1146.347945	-0.021171
1146.503519	-0.014522
1146.659076	-0.022012
1146.814614	-0.017757
1146.970134	-0.010181
1147.125636	-0.028368
1147.281120	-0.001317
1147.436585	-0.004789
1147.592032	0.004819
1147.747461	-0.012704
1147.902872	-0.017063
1148.058265	-0.002044
1148.213639	-0.021993
1148.368995	-0.037607
1148.524333	-0.031295
1148.679653	-0.053373
1148.834954	-0.051719
1148.990237	-0.032146
1149.145502	-0.018868
1149.300749	-0.014705
1149.455977	-0.029056
1149.611188	-0.016979
1149.766380	-0.009316
1149.921553	0.000866
1150.076709	0.001911
1150.231846	0.017308
1150.386966	0.010909
1150.542066	0.015014
1150.697149	-0.008868
1150.852214	-0.002739
1151.007260	0.001273
1151.162288	0.014116
1151.317298	0.005243
1151.472289	0.003723
1151.627263	0.013496
1151.782218	0.006803
1151.937155	0.006822
1152.092073	0.017186
1152.246974	0.022234
1152.401856	0.020759
1152.556720	-0.008745
1152.711566	0.000281
1152.866393	0.015581
1153.021203	-0.005097
1153.175994	-0.018018
1153.330767	-0.020402
1153.485521	-0.006251
1153.640258	-0.001250
1153.794976	-0.009021
1153.949676	0.009917
1154.104358	-0.001190
1154.259021	-0.002644
1154.413667	0.000057
1154.568294	0.000523
1154.722903	0.001304
1154.877493	-0.018237
1155.032066	-0.018354
1155.186620	0.006412
1155.341156	0.004001
1155.495674	0.011502
1155.650173	0.008382
1155.804654	0.021694
1155.959118	0.053006
1156.113562	0.065069
1156.267989	0.090782
1156.422397	0.115096
1156.576788	0.103558
1156.731160	0.112570
1156.885513	0.122016
1157.039849	0.132544
1157.194166	0.133587
1157.348465	0.084735
1157.502746	0.067092
1157.657009	0.060281
1157.811253	0.032511
1157.965479	0.030139
1158.119687	0.024194
1158.273877	-0.007725
1158.428048	0.012218
1158.582201	0.014776
1158.736337	0.061818
1158.890453	0.066727
1159.044552	0.097517
1159.198632	0.106660
1159.352694	0.113112
1159.506738	0.097005
1159.660764	0.115624
1159.814771	0.073513
1159.968761	0.060863
1160.122732	0.025376
1160.276685	0.035298
1160.430619	0.033460
1160.584535	0.056359
1160.738434	0.044204
1160.892313	0.064620
1161.046175	0.077184
1161.200019	0.075480
1161.353844	0.063632
1161.507651	0.072717
1161.661440	0.056335
1161.815210	0.045543
1161.968962	0.059587
1162.122697	0.058712
1162.276412	0.054164
1162.430110	0.036670
1162.583789	0.050039
1162.737451	0.064748
1162.891094	0.094939
1163.044718	0.100930
1163.198325	0.076804
1163.351913	0.030564
1163.505483	0.024148
1163.659035	0.029898
1163.812569	0.028551
1163.966084	0.038226
1164.119581	0.028596
1164.273060	0.006656
1164.426521	0.014844
1164.579964	0.017828
1164.733388	0.021065
1164.886794	0.048546
1165.040182	0.009201
1165.193551	0.033841
1165.346903	0.047597
1165.500236	0.021529
1165.653551	0.008140
1165.806848	0.021887
1165.960126	0.037810
1166.113386	0.045211
1166.266628	0.041055
1166.419852	0.074128
1166.573058	0.037760
1166.726245	0.003501
1166.879414	0.036727
1167.032565	0.044143
1167.185698	0.026080
1167.338812	0.019360
1167.491909	-0.002988
1167.644987	-0.029433
1167.798046	-0.023672
1167.951088	-0.022293
1168.104111	-0.012590
1168.257117	-0.036655
1168.410103	-0.027316
1168.563072	-0.037235
1168.716023	-0.018277
1168.868955	0.017845
1169.021869	0.049795
1169.174765	0.031880
1169.327642	0.063059
1169.480501	0.039962
1169.633343	0.076719
1169.786165	0.056280
1169.938970	0.055961
1170.091757	0.026078
1170.244525	-0.012762
1170.397275	-0.053288
1170.550007	-0.036626
1170.702720	-0.045037
1170.855415	-0.019405
1171.008092	-0.002429
1171.160751	0.033139
1171.313392	0.073552
1171.466014	0.122201
1171.618619	0.535571
1171.771205	0.535571
1171.923772	0.535571
