sample name	sample
index	1222
start time	 04-29-2021  10:46:20 AM


Wavelength (nm)	Absorbance
494.344910	NaN
494.563924	NaN
494.782919	NaN
495.001897	0.194364
495.220856	1.657722
495.439797	0.254482
495.658719	0.185010
495.877624	0.021997
496.096510	-0.086067
496.315378	-0.252258
496.534227	-0.215947
496.753059	-0.047288
496.971872	0.015106
497.190667	0.025171
497.409444	0.019830
497.628203	0.013498
497.846943	0.012594
498.065665	0.012447
498.284369	0.011980
498.503055	0.011624
498.721723	0.012731
498.940372	0.013273
499.159003	0.013670
499.377616	0.013838
499.596210	0.013898
499.814787	0.013957
500.033345	0.013545
500.251885	0.013886
500.470406	0.014955
500.688910	0.013600
500.907395	0.014150
501.125862	0.012565
501.344311	0.012255
501.562742	0.012400
501.781154	0.012801
501.999548	0.013945
502.217924	0.013418
502.436282	0.012582
502.654621	0.012996
502.872942	0.011540
503.091245	0.011509
503.309530	0.011109
503.527797	0.011246
503.746045	0.010897
503.964275	0.009768
504.182487	0.011072
504.400681	0.011761
504.618856	0.011787
504.837013	0.012186
505.055152	0.013613
505.273273	0.013448
505.491376	0.012709
505.709460	0.012024
505.927526	0.012090
506.145574	0.011658
506.363604	0.011635
506.581615	0.010808
506.799608	0.011457
507.017583	0.010692
507.235540	0.010784
507.453478	0.012330
507.671399	0.012017
507.889301	0.012062
508.107185	0.011715
508.325050	0.011581
508.542898	0.011707
508.760727	0.011671
508.978538	0.011206
509.196330	0.011214
509.414105	0.009709
509.631861	0.010324
509.849599	0.009934
510.067319	0.010070
510.285021	0.009118
510.502704	0.009489
510.720369	0.009559
510.938016	0.009218
511.155645	0.008201
511.373255	0.009090
511.590848	0.009561
511.808422	0.009950
512.025977	0.009673
512.243515	0.009566
512.461034	0.009616
512.678536	0.008550
512.896018	0.009216
513.113483	0.009844
513.330930	0.009807
513.548358	0.009049
513.765768	0.009255
513.983160	0.009378
514.200533	0.009550
514.417889	0.008788
514.635226	0.009622
514.852545	0.009871
515.069845	0.010165
515.287128	0.009931
515.504392	0.010322
515.721638	0.010382
515.938866	0.010219
516.156075	0.009943
516.373267	0.010315
516.590440	0.010126
516.807594	0.009726
517.024731	0.009743
517.241850	0.009318
517.458950	0.009409
517.676032	0.009578
517.893095	0.009739
518.110141	0.010606
518.327168	0.010671
518.544177	0.010475
518.761168	0.010489
518.978141	0.009848
519.195095	0.009913
519.412031	0.009699
519.628949	0.009015
519.845849	0.008401
520.062731	0.008301
520.279594	0.007965
520.496439	0.007837
520.713266	0.007685
520.930074	0.008170
521.146865	0.008107
521.363637	0.007534
521.580391	0.007403
521.797127	0.007478
522.013844	0.007052
522.230543	0.007610
522.447224	0.007619
522.663887	0.007763
522.880532	0.007195
523.097158	0.007176
523.313766	0.007890
523.530356	0.008562
523.746928	0.008655
523.963481	0.008698
524.180017	0.008205
524.396534	0.008211
524.613032	0.007610
524.829513	0.008315
525.045975	0.008077
525.262420	0.008034
525.478845	0.007986
525.695253	0.007917
525.911643	0.007626
526.128014	0.007438
526.344367	0.007084
526.560702	0.007155
526.777018	0.006893
526.993316	0.007049
527.209597	0.006566
527.425858	0.006143
527.642102	0.006174
527.858328	0.005706
528.074535	0.005477
528.290724	0.005045
528.506894	0.005103
528.723047	0.004819
528.939181	0.004812
529.155297	0.004725
529.371395	0.004268
529.587475	0.003748
529.803536	0.004317
530.019579	0.004722
530.235604	0.005218
530.451611	0.005048
530.667600	0.005186
530.883570	0.005043
531.099522	0.005231
531.315456	0.005733
531.531372	0.006192
531.747269	0.006003
531.963148	0.005894
532.179009	0.005780
532.394852	0.005631
532.610676	0.005656
532.826482	0.005352
533.042271	0.005180
533.258040	0.005182
533.473792	0.005127
533.689525	0.005046
533.905240	0.004451
534.120937	0.004513
534.336616	0.004297
534.552277	0.003939
534.767919	0.003767
534.983543	0.003320
535.199149	0.003074
535.414736	0.002627
535.630306	0.002229
535.845857	0.002518
536.061390	0.002118
536.276904	0.002205
536.492401	0.002168
536.707879	0.002769
536.923339	0.002770
537.138781	0.002815
537.354204	0.002379
537.569610	0.002589
537.784997	0.002267
538.000366	0.002200
538.215716	0.002113
538.431049	0.001991
538.646363	0.001250
538.861659	0.001670
539.076937	0.001329
539.292196	0.001067
539.507438	0.001544
539.722661	0.001643
539.937866	0.001873
540.153052	0.002062
540.368221	0.001871
540.583371	0.002092
540.798503	0.001843
541.013617	0.001829
541.228712	0.002476
541.443789	0.001734
541.658848	0.001464
541.873889	0.001760
542.088912	0.001339
542.303916	0.001474
542.518902	0.001110
542.733870	0.001082
542.948820	0.001376
543.163752	0.001710
543.378665	0.002009
543.593560	0.002018
543.808437	0.001553
544.023295	0.001747
544.238136	0.001879
544.452958	0.002332
544.667762	0.002037
544.882548	0.002064
545.097315	0.001540
545.312064	0.001490
545.526795	0.001465
545.741508	0.001483
545.956203	0.001585
546.170879	0.001455
546.385537	0.001394
546.600177	0.001262
546.814799	0.000754
547.029402	0.000875
547.243988	0.000761
547.458555	0.000881
547.673103	0.000510
547.887634	0.000668
548.102146	0.000592
548.316640	0.000519
548.531116	0.000612
548.745574	0.000857
548.960013	0.000956
549.174435	0.001135
549.388838	0.001590
549.603222	0.001955
549.817589	0.001656
550.031937	0.001541
550.246267	0.001661
550.460579	0.001807
550.674873	0.001740
550.889148	0.001474
551.103405	0.001385
551.317644	0.000974
551.531865	0.000876
551.746068	0.000661
551.960252	0.000823
552.174418	0.001136
552.388566	0.001268
552.602696	0.001238
552.816807	0.001440
553.030900	0.001792
553.244975	0.001677
553.459032	0.001608
553.673070	0.001962
553.887091	0.001753
554.101093	0.001366
554.315077	0.001391
554.529042	0.001349
554.742990	0.001016
554.956919	0.000630
555.170830	0.000798
555.384722	0.000621
555.598597	0.000309
555.812453	0.000395
556.026291	0.000209
556.240111	-0.000228
556.453913	-0.000066
556.667696	0.000001
556.881461	-0.000159
557.095208	-0.000492
557.308937	-0.000355
557.522647	-0.000414
557.736339	-0.000190
557.950013	-0.000391
558.163669	-0.000287
558.377307	-0.000470
558.590926	-0.000528
558.804527	-0.000630
559.018110	-0.000376
559.231675	-0.000187
559.445221	-0.000183
559.658749	-0.000269
559.872259	-0.000152
560.085751	0.000218
560.299225	0.000328
560.512680	0.000576
560.726117	0.000642
560.939536	0.000665
561.152937	0.000685
561.366319	0.000712
561.579683	0.000808
561.793029	0.001237
562.006357	0.001386
562.219667	0.001401
562.432958	0.001354
562.646231	0.001602
562.859486	0.001494
563.072723	0.001284
563.285941	0.001767
563.499141	0.002093
563.712323	0.001760
563.925487	0.001443
564.138632	0.001490
564.351760	0.001537
564.564869	0.001443
564.777960	0.001663
564.991032	0.001938
565.204087	0.001748
565.417123	0.001489
565.630141	0.001539
565.843140	0.001584
566.056122	0.001362
566.269085	0.001411
566.482030	0.001268
566.694957	0.000943
566.907866	0.000997
567.120756	0.001180
567.333628	0.001058
567.546482	0.001125
567.759318	0.001033
567.972135	0.001003
568.184935	0.001115
568.397716	0.001378
568.610478	0.001567
568.823223	0.001672
569.035949	0.001406
569.248657	0.001554
569.461347	0.001751
569.674019	0.001612
569.886672	0.001622
570.099308	0.001546
570.311925	0.001301
570.524523	0.001452
570.737104	0.001284
570.949666	0.001115
571.162210	0.001089
571.374736	0.000879
571.587244	0.000928
571.799733	0.000915
572.012205	0.000984
572.224658	0.001276
572.437092	0.001016
572.649509	0.000797
572.861907	0.001018
573.074287	0.000733
573.286649	0.001054
573.498993	0.000922
573.711318	0.001039
573.923625	0.000636
574.135914	0.000626
574.348185	0.000409
574.560438	0.000441
574.772672	0.000604
574.984888	0.000368
575.197086	0.000036
575.409266	0.000320
575.621427	0.000327
575.833570	0.000516
576.045695	0.000131
576.257802	0.000497
576.469890	0.000694
576.681961	0.000405
576.894013	0.000963
577.106046	0.001216
577.318062	0.001190
577.530059	0.001198
577.742039	0.001207
577.954000	0.001389
578.165942	0.001461
578.377867	0.001220
578.589773	0.001425
578.801661	0.001230
579.013531	0.001155
579.225382	0.001366
579.437216	0.001252
579.649031	0.001092
579.860828	0.001044
580.072606	0.000914
580.284367	0.001380
580.496109	0.001311
580.707833	0.001315
580.919539	0.001052
581.131227	0.000875
581.342896	0.000713
581.554547	0.000874
581.766180	0.000767
581.977795	0.000565
582.189391	0.000178
582.400969	-0.000063
582.612529	0.000049
582.824071	0.000116
583.035595	0.000155
583.247100	0.000602
583.458587	0.000740
583.670056	0.001056
583.881506	0.001319
584.092939	0.001430
584.304353	0.001580
584.515749	0.001554
584.727127	0.001631
584.938486	0.001401
585.149828	0.001488
585.361151	0.001374
585.572456	0.001428
585.783742	0.001286
585.995011	0.001161
586.206261	0.000988
586.417493	0.000602
586.628706	0.000342
586.839902	0.000605
587.051079	0.000561
587.262238	0.000418
587.473379	0.000099
587.684502	0.000383
587.895606	0.000331
588.106692	0.000528
588.317760	0.000736
588.528810	0.000880
588.739841	0.000698
588.950855	0.000219
589.161850	0.000331
589.372827	0.000366
589.583785	0.000118
589.794726	0.000116
590.005648	0.000013
590.216552	0.000198
590.427437	0.000163
590.638305	0.000112
590.849154	0.000233
591.059985	0.000056
591.270798	0.000223
591.481592	0.000044
591.692369	-0.000015
591.903127	0.000171
592.113867	-0.000072
592.324588	-0.000086
592.535292	-0.000050
592.745977	0.000010
592.956644	-0.000043
593.167293	-0.000055
593.377923	-0.000049
593.588536	0.000094
593.799130	-0.000218
594.009706	-0.000410
594.220263	-0.000616
594.430803	-0.000775
594.641324	-0.000796
594.851827	-0.000779
595.062312	-0.000882
595.272778	-0.000844
595.483227	-0.001136
595.693657	-0.001107
595.904069	-0.000938
596.114462	-0.000643
596.324838	-0.000651
596.535195	-0.000720
596.745534	-0.000501
596.955855	-0.000513
597.166157	-0.000309
597.376441	-0.000185
597.586707	0.000073
597.796955	0.000127
598.007185	0.000054
598.217396	0.000295
598.427589	0.000320
598.637764	0.000235
598.847921	0.000223
599.058060	0.000146
599.268180	0.000095
599.478282	-0.000067
599.688366	-0.000169
599.898431	-0.000133
600.108479	-0.000380
600.318508	-0.000507
600.528519	-0.000519
600.738511	-0.000501
600.948486	-0.000542
601.158442	-0.000266
601.368380	-0.000131
601.578300	0.000140
601.788202	-0.000036
601.998085	0.000246
602.207950	0.000368
602.417797	0.000138
602.627626	0.000190
602.837436	0.000401
603.047228	0.000143
603.257002	-0.000106
603.466758	-0.000094
603.676496	0.000236
603.886215	-0.000090
604.095916	-0.000054
604.305599	0.000160
604.515264	0.000084
604.724910	0.000006
604.934538	-0.000116
605.144148	-0.000056
605.353740	-0.000146
605.563314	-0.000452
605.772869	-0.000388
605.982406	-0.000554
606.191925	-0.000598
606.401425	-0.000519
606.610908	-0.000478
606.820372	-0.000204
607.029818	-0.000190
607.239246	-0.000290
607.448655	-0.000107
607.658047	-0.000248
607.867420	-0.000181
608.076775	-0.000006
608.286111	0.000061
608.495430	-0.000295
608.704730	-0.000194
608.914012	-0.000116
609.123275	-0.000189
609.332521	-0.000425
609.541748	-0.000260
609.750957	-0.000111
609.960148	-0.000226
610.169321	-0.000353
610.378475	-0.000326
610.587611	-0.000616
610.796729	-0.000686
611.005829	-0.000636
611.214910	-0.000437
611.423974	-0.000710
611.633019	-0.000746
611.842045	-0.000994
612.051054	-0.001241
612.260044	-0.001103
612.469017	-0.001097
612.677970	-0.001305
612.886906	-0.001398
613.095824	-0.001478
613.304723	-0.001256
613.513604	-0.001312
613.722467	-0.001084
613.931311	-0.000897
614.140138	-0.000952
614.348946	-0.001098
614.557736	-0.000961
614.766507	-0.000951
614.975261	-0.001013
615.183996	-0.001031
615.392713	-0.001041
615.601412	-0.001143
615.810092	-0.001174
616.018754	-0.001198
616.227399	-0.001157
616.436024	-0.001155
616.644632	-0.001409
616.853222	-0.001579
617.061793	-0.001595
617.270346	-0.001664
617.478880	-0.001598
617.687397	-0.001835
617.895895	-0.001998
618.104375	-0.002011
618.312837	-0.001965
618.521281	-0.001697
618.729706	-0.001677
618.938113	-0.001833
619.146502	-0.001598
619.354873	-0.001738
619.563226	-0.001815
619.771560	-0.001640
619.979876	-0.001859
620.188174	-0.002109
620.396453	-0.002289
620.604715	-0.002096
620.812958	-0.001885
621.021183	-0.002139
621.229390	-0.002007
621.437578	-0.001765
621.645748	-0.001912
621.853900	-0.001719
622.062034	-0.001655
622.270150	-0.001626
622.478247	-0.001794
622.686326	-0.001615
622.894387	-0.001655
623.102430	-0.001841
623.310454	-0.001863
623.518461	-0.001811
623.726449	-0.001772
623.934418	-0.001727
624.142370	-0.001442
624.350303	-0.001437
624.558218	-0.001679
624.766115	-0.001628
624.973994	-0.001722
625.181855	-0.001771
625.389697	-0.001738
625.597521	-0.001709
625.805327	-0.001640
626.013114	-0.001929
626.220883	-0.001826
626.428634	-0.001845
626.636367	-0.001806
626.844082	-0.001658
627.051778	-0.001584
627.259457	-0.001472
627.467117	-0.001301
627.674758	-0.001277
627.882382	-0.001086
628.089987	-0.001159
628.297574	-0.001086
628.505143	-0.001011
628.712694	-0.000927
628.920226	-0.001070
629.127740	-0.001163
629.335236	-0.001338
629.542714	-0.001449
629.750174	-0.001607
629.957615	-0.001596
630.165038	-0.001830
630.372443	-0.002164
630.579829	-0.002408
630.787198	-0.002394
630.994548	-0.002594
631.201880	-0.002732
631.409194	-0.002882
631.616489	-0.003012
631.823766	-0.003106
632.031025	-0.003138
632.238266	-0.003047
632.445489	-0.003032
632.652693	-0.003005
632.859879	-0.003059
633.067047	-0.003104
633.274197	-0.003097
633.481329	-0.003047
633.688442	-0.003087
633.895537	-0.003048
634.102614	-0.003034
634.309672	-0.002930
634.516713	-0.002917
634.723735	-0.002850
634.930739	-0.002844
635.137724	-0.002820
635.344692	-0.002828
635.551641	-0.002691
635.758572	-0.002628
635.965485	-0.002833
636.172379	-0.002785
636.379256	-0.002815
636.586114	-0.002657
636.792954	-0.002382
636.999775	-0.002305
637.206579	-0.002048
637.413364	-0.002011
637.620131	-0.001989
637.826880	-0.001786
638.033610	-0.001659
638.240323	-0.001657
638.447017	-0.001626
638.653692	-0.001656
638.860350	-0.001530
639.066990	-0.001691
639.273611	-0.001792
639.480214	-0.001802
639.686798	-0.001645
639.893365	-0.001920
640.099913	-0.001841
640.306443	-0.001867
640.512955	-0.001930
640.719449	-0.002010
640.925924	-0.002077
641.132381	-0.001897
641.338820	-0.001837
641.545241	-0.001856
641.751644	-0.001797
641.958028	-0.001687
642.164394	-0.001735
642.370742	-0.001781
642.577071	-0.001713
642.783383	-0.001642
642.989676	-0.001799
643.195951	-0.001723
643.402207	-0.001883
643.608446	-0.001719
643.814666	-0.001856
644.020868	-0.001749
644.227052	-0.001660
644.433218	-0.001606
644.639365	-0.001625
644.845494	-0.001594
645.051605	-0.001670
645.257698	-0.001746
645.463772	-0.002019
645.669828	-0.002026
645.875866	-0.002101
646.081886	-0.002280
646.287888	-0.002489
646.493871	-0.002584
646.699836	-0.002603
646.905783	-0.002577
647.111712	-0.002544
647.317622	-0.002429
647.523514	-0.002472
647.729388	-0.002487
647.935244	-0.002542
648.141082	-0.002445
648.346901	-0.002512
648.552702	-0.002691
648.758485	-0.002851
648.964250	-0.002958
649.169996	-0.003045
649.375724	-0.003184
649.581434	-0.003455
649.787126	-0.003393
649.992800	-0.003526
650.198455	-0.003292
650.404092	-0.003269
650.609711	-0.003108
650.815311	-0.003020
651.020894	-0.003034
651.226458	-0.002902
651.432004	-0.002629
651.637532	-0.002606
651.843041	-0.002478
652.048532	-0.002576
652.254006	-0.002547
652.459460	-0.002644
652.664897	-0.002576
652.870315	-0.002509
653.075716	-0.002602
653.281097	-0.002669
653.486461	-0.002653
653.691807	-0.002750
653.897134	-0.002727
654.102443	-0.002953
654.307734	-0.002885
654.513006	-0.002913
654.718261	-0.002904
654.923497	-0.002817
655.128715	-0.002703
655.333915	-0.002669
655.539096	-0.002498
655.744259	-0.002378
655.949404	-0.002039
656.154531	-0.002100
656.359640	-0.001913
656.564730	-0.001859
656.769802	-0.001882
656.974856	-0.002075
657.179892	-0.002120
657.384909	-0.002189
657.589908	-0.002414
657.794889	-0.002520
657.999852	-0.002450
658.204797	-0.002410
658.409723	-0.002360
658.614631	-0.002245
658.819521	-0.002193
659.024393	-0.002165
659.229246	-0.002287
659.434081	-0.002129
659.638898	-0.002189
659.843697	-0.002166
660.048478	-0.002398
660.253240	-0.002421
660.457984	-0.002386
660.662710	-0.002468
660.867417	-0.002483
661.072107	-0.002319
661.276778	-0.002143
661.481431	-0.002000
661.686066	-0.002173
661.890682	-0.002251
662.095281	-0.002327
662.299861	-0.002540
662.504422	-0.002388
662.708966	-0.002435
662.913491	-0.002377
663.117999	-0.002640
663.322488	-0.002694
663.526958	-0.002623
663.731411	-0.002543
663.935845	-0.002589
664.140261	-0.002478
664.344659	-0.002475
664.549038	-0.002549
664.753400	-0.002783
664.957743	-0.002779
665.162068	-0.002702
665.366375	-0.002465
665.570663	-0.002347
665.774933	-0.002140
665.979185	-0.002287
666.183419	-0.002342
666.387635	-0.002296
666.591832	-0.002225
666.796011	-0.002028
667.000172	-0.002071
667.204315	-0.002338
667.408439	-0.002452
667.612545	-0.002576
667.816634	-0.002369
668.020703	-0.002193
668.224755	-0.002129
668.428788	-0.002196
668.632803	-0.002274
668.836800	-0.002171
669.040779	-0.002012
669.244739	-0.002082
669.448681	-0.002083
669.652605	-0.002104
669.856511	-0.002163
670.060399	-0.002168
670.264268	-0.002012
670.468119	-0.002126
670.671952	-0.002164
670.875767	-0.002263
671.079563	-0.002059
671.283341	-0.001847
671.487101	-0.001767
671.690843	-0.001665
671.894567	-0.001546
672.098272	-0.001608
672.301959	-0.001450
672.505628	-0.001540
672.709278	-0.001416
672.912911	-0.001451
673.116525	-0.001712
673.320121	-0.001772
673.523699	-0.001848
673.727258	-0.001944
673.930799	-0.002050
674.134322	-0.002333
674.337827	-0.002388
674.541314	-0.002537
674.744782	-0.002701
674.948232	-0.002634
675.151664	-0.002698
675.355078	-0.002825
675.558474	-0.002811
675.761851	-0.002669
675.965210	-0.002605
676.168551	-0.002290
676.371873	-0.002231
676.575178	-0.002071
676.778464	-0.002030
676.981732	-0.002162
677.184981	-0.002150
677.388213	-0.002242
677.591426	-0.002280
677.794621	-0.002016
677.997798	-0.002212
678.200956	-0.002261
678.404097	-0.002152
678.607219	-0.002116
678.810323	-0.002021
679.013408	-0.001931
679.216476	-0.001752
679.419525	-0.001671
679.622556	-0.001807
679.825569	-0.001818
680.028563	-0.001503
680.231540	-0.001759
680.434498	-0.001775
680.637438	-0.001772
680.840359	-0.001834
681.043263	-0.001775
681.246148	-0.001870
681.449015	-0.001948
681.651864	-0.001987
681.854694	-0.002325
682.057506	-0.002367
682.260301	-0.002496
682.463076	-0.002487
682.665834	-0.002458
682.868573	-0.002757
683.071295	-0.002791
683.273998	-0.002893
683.476682	-0.002904
683.679349	-0.002851
683.881997	-0.002864
684.084627	-0.002901
684.287239	-0.002954
684.489833	-0.002904
684.692408	-0.002879
684.894965	-0.002845
685.097504	-0.002891
685.300025	-0.002926
685.502527	-0.003002
685.705012	-0.002980
685.907478	-0.002787
686.109925	-0.002800
686.312355	-0.003010
686.514766	-0.002989
686.717159	-0.003114
686.919534	-0.003070
687.121891	-0.003185
687.324230	-0.003249
687.526550	-0.003153
687.728852	-0.003235
687.931136	-0.003335
688.133401	-0.003396
688.335649	-0.003430
688.537878	-0.003286
688.740089	-0.003135
688.942281	-0.003084
689.144456	-0.003110
689.346612	-0.003164
689.548750	-0.003321
689.750870	-0.003237
689.952971	-0.003142
690.155055	-0.003158
690.357120	-0.003264
690.559167	-0.003372
690.761195	-0.003309
690.963206	-0.003169
691.165198	-0.003142
691.367172	-0.003043
691.569128	-0.002917
691.771065	-0.002793
691.972984	-0.002657
692.174885	-0.002544
692.376768	-0.002490
692.578633	-0.002335
692.780479	-0.002489
692.982308	-0.002424
693.184118	-0.002314
693.385909	-0.002370
693.587683	-0.002460
693.789438	-0.002372
693.991175	-0.002434
694.192894	-0.002502
694.394595	-0.002668
694.596277	-0.002396
694.797941	-0.002527
694.999587	-0.002605
695.201215	-0.002586
695.402824	-0.002594
695.604416	-0.002868
695.805989	-0.002949
696.007543	-0.002933
696.209080	-0.003026
696.410598	-0.003299
696.612099	-0.003308
696.813580	-0.003308
697.015044	-0.003222
697.216490	-0.003280
697.417917	-0.003132
697.619326	-0.003129
697.820717	-0.003214
698.022089	-0.003050
698.223444	-0.003128
698.424780	-0.003089
698.626098	-0.003154
698.827397	-0.003254
699.028679	-0.003194
699.229942	-0.003361
699.431187	-0.003450
699.632414	-0.003356
699.833622	-0.003434
700.034813	-0.003177
700.235985	-0.003179
700.437139	-0.003254
700.638274	-0.003389
700.839392	-0.003513
701.040491	-0.003454
701.241572	-0.003479
701.442635	-0.003479
701.643679	-0.003621
701.844706	-0.003769
702.045714	-0.003779
702.246704	-0.003758
702.447675	-0.003803
702.648629	-0.003856
702.849564	-0.003807
703.050481	-0.003632
703.251380	-0.003705
703.452260	-0.003527
703.653122	-0.003381
703.853966	-0.003380
704.054792	-0.003357
704.255600	-0.003271
704.456389	-0.003041
704.657160	-0.003143
704.857913	-0.003198
705.058648	-0.003072
705.259365	-0.003219
705.460063	-0.003288
705.660743	-0.003240
705.861405	-0.003219
706.062048	-0.003209
706.262674	-0.003271
706.463281	-0.003236
706.663870	-0.003264
706.864441	-0.003349
707.064993	-0.003279
707.265527	-0.003222
707.466043	-0.003381
707.666541	-0.003521
707.867021	-0.003586
708.067482	-0.003712
708.267925	-0.003655
708.468350	-0.003604
708.668757	-0.003492
708.869145	-0.003472
709.069516	-0.003536
709.269868	-0.003338
709.470201	-0.003182
709.670517	-0.003210
709.870814	-0.003072
710.071093	-0.003081
710.271354	-0.003012
710.471597	-0.002976
710.671821	-0.002954
710.872028	-0.003010
711.072216	-0.003148
711.272385	-0.003159
711.472537	-0.003115
711.672670	-0.003177
711.872785	-0.003022
712.072882	-0.003063
712.272961	-0.003124
712.473021	-0.003219
712.673063	-0.003293
712.873087	-0.003290
713.073093	-0.003365
713.273081	-0.003374
713.473050	-0.003524
713.673001	-0.003821
713.872934	-0.003921
714.072849	-0.004121
714.272745	-0.004215
714.472623	-0.004304
714.672483	-0.004436
714.872325	-0.004485
715.072148	-0.004580
715.271954	-0.004415
715.471741	-0.004261
715.671509	-0.004108
715.871260	-0.003982
716.070992	-0.003913
716.270707	-0.003804
716.470403	-0.003683
716.670080	-0.003577
716.869740	-0.003335
717.069381	-0.003597
717.269004	-0.003684
717.468609	-0.003877
717.668195	-0.004024
717.867764	-0.004103
718.067314	-0.004155
718.266846	-0.004302
718.466360	-0.004454
718.665855	-0.004743
718.865332	-0.004579
719.064791	-0.004590
719.264232	-0.004655
719.463655	-0.004713
719.663059	-0.004663
719.862445	-0.004637
720.061813	-0.004592
720.261163	-0.004482
720.460494	-0.004403
720.659807	-0.004505
720.859102	-0.004585
721.058379	-0.004535
721.257638	-0.004551
721.456878	-0.004482
721.656100	-0.004641
721.855304	-0.004630
722.054490	-0.004803
722.253657	-0.004863
722.452806	-0.004843
722.651937	-0.004775
722.851050	-0.004782
723.050145	-0.004736
723.249221	-0.004553
723.448279	-0.004390
723.647319	-0.004461
723.846340	-0.004424
724.045344	-0.004361
724.244329	-0.004416
724.443296	-0.004384
724.642245	-0.004427
724.841175	-0.004325
725.040088	-0.004659
725.238982	-0.004675
725.437857	-0.004560
725.636715	-0.004607
725.835554	-0.004756
726.034376	-0.004777
726.233179	-0.004979
726.431963	-0.004949
726.630730	-0.005174
726.829478	-0.005301
727.028208	-0.005551
727.226920	-0.005727
727.425614	-0.005714
727.624289	-0.005603
727.822946	-0.005737
728.021585	-0.005801
728.220206	-0.005879
728.418808	-0.005821
728.617392	-0.005884
728.815958	-0.005745
729.014506	-0.005767
729.213036	-0.005839
729.411547	-0.005916
729.610040	-0.005848
729.808515	-0.005854
730.006972	-0.005868
730.205410	-0.005872
730.403831	-0.005658
730.602233	-0.005782
730.800616	-0.005725
730.998982	-0.005704
731.197329	-0.005942
731.395658	-0.006047
731.593969	-0.006023
731.792262	-0.006167
731.990536	-0.006178
732.188793	-0.006307
732.387031	-0.006274
732.585250	-0.006373
732.783452	-0.006499
732.981635	-0.006346
733.179800	-0.006316
733.377947	-0.006238
733.576076	-0.006196
733.774186	-0.006305
733.972278	-0.006362
734.170352	-0.006341
734.368408	-0.006284
734.566446	-0.006236
734.764465	-0.006101
734.962466	-0.005893
735.160449	-0.006066
735.358413	-0.006053
735.556360	-0.005942
735.754288	-0.005814
735.952198	-0.005699
736.150090	-0.005789
736.347963	-0.005754
736.545818	-0.005661
736.743655	-0.005662
736.941474	-0.005504
737.139275	-0.005510
737.337057	-0.005593
737.534821	-0.005707
737.732567	-0.006010
737.930295	-0.005883
738.128005	-0.005756
738.325696	-0.005843
738.523369	-0.005945
738.721024	-0.006139
738.918660	-0.005917
739.116279	-0.005733
739.313879	-0.005676
739.511461	-0.005430
739.709024	-0.005532
739.906570	-0.005565
740.104097	-0.005531
740.301606	-0.005483
740.499097	-0.005238
740.696569	-0.005450
740.894024	-0.005659
741.091460	-0.005830
741.288878	-0.005949
741.486277	-0.005832
741.683659	-0.005918
741.881022	-0.006163
742.078367	-0.006284
742.275694	-0.006343
742.473002	-0.006403
742.670293	-0.006383
742.867565	-0.006302
743.064819	-0.006413
743.262054	-0.006514
743.459272	-0.006679
743.656471	-0.006666
743.853652	-0.006847
744.050815	-0.007038
744.247959	-0.007071
744.445085	-0.007043
744.642194	-0.007057
744.839283	-0.006947
745.036355	-0.006932
745.233408	-0.006628
745.430444	-0.006564
745.627461	-0.006341
745.824459	-0.006066
746.021440	-0.005957
746.218402	-0.006113
746.415346	-0.006002
746.612272	-0.006029
746.809180	-0.005992
747.006069	-0.006278
747.202940	-0.006094
747.399793	-0.006150
747.596628	-0.006384
747.793444	-0.006231
747.990243	-0.006084
748.187023	-0.006202
748.383784	-0.006295
748.580528	-0.006577
748.777253	-0.006391
748.973960	-0.006705
749.170649	-0.006816
749.367320	-0.006612
749.563973	-0.006788
749.760607	-0.006718
749.957223	-0.006503
750.153821	-0.006223
750.350400	-0.005963
750.546962	-0.006090
750.743505	-0.006073
750.940030	-0.005934
751.136536	-0.006050
751.333025	-0.006062
751.529495	-0.006300
751.725947	-0.006435
751.922381	-0.006594
752.118796	-0.006533
752.315194	-0.006498
752.511573	-0.006346
752.707934	-0.006246
752.904276	-0.006243
753.100601	-0.006163
753.296907	-0.005913
753.493195	-0.006003
753.689465	-0.005933
753.885716	-0.005888
754.081949	-0.005807
754.278164	-0.005886
754.474361	-0.005976
754.670540	-0.005899
754.866700	-0.005806
755.062843	-0.005768
755.258967	-0.005613
755.455072	-0.005594
755.651160	-0.005588
755.847229	-0.005535
756.043280	-0.005366
756.239313	-0.005260
756.435328	-0.005259
756.631324	-0.005486
756.827302	-0.005574
757.023262	-0.005631
757.219204	-0.005612
757.415127	-0.005561
757.611033	-0.005482
757.806920	-0.005422
758.002788	-0.005409
758.198639	-0.005342
758.394471	-0.005220
758.590286	-0.005265
758.786081	-0.005118
758.981859	-0.005161
759.177619	-0.005267
759.373360	-0.005452
759.569083	-0.005529
759.764788	-0.005563
759.960474	-0.005625
760.156143	-0.005733
760.351793	-0.005731
760.547425	-0.005822
760.743038	-0.005585
760.938634	-0.005392
761.134211	-0.005299
761.329770	-0.005238
761.525311	-0.005175
761.720833	-0.005009
761.916338	-0.004842
762.111824	-0.004674
762.307292	-0.004566
762.502741	-0.004832
762.698173	-0.005059
762.893586	-0.004935
763.088981	-0.004952
763.284358	-0.004841
763.479716	-0.004983
763.675057	-0.005041
763.870379	-0.005066
764.065683	-0.005015
764.260968	-0.004698
764.456236	-0.004727
764.651485	-0.004775
764.846716	-0.004830
765.041929	-0.004893
765.237123	-0.004823
765.432299	-0.004649
765.627457	-0.004598
765.822597	-0.004618
766.017719	-0.004749
766.212822	-0.004705
766.407907	-0.004625
766.602974	-0.004519
766.798023	-0.004689
766.993054	-0.004667
767.188066	-0.004670
767.383060	-0.004507
767.578036	-0.004444
767.772993	-0.004410
767.967933	-0.004144
768.162854	-0.004173
768.357757	-0.003945
768.552642	-0.003663
768.747508	-0.003457
768.942356	-0.003373
769.137186	-0.003385
769.331998	-0.003523
769.526792	-0.003396
769.721567	-0.003358
769.916324	-0.003211
770.111063	-0.003329
770.305784	-0.003422
770.500486	-0.003555
770.695171	-0.003543
770.889837	-0.003542
771.084484	-0.003430
771.279114	-0.003549
771.473725	-0.003506
771.668318	-0.003457
771.862893	-0.003376
772.057450	-0.003221
772.251988	-0.003119
772.446509	-0.003093
772.641011	-0.002987
772.835494	-0.002799
773.029960	-0.002696
773.224407	-0.002803
773.418836	-0.002811
773.613247	-0.002858
773.807640	-0.002896
774.002014	-0.002740
774.196370	-0.002650
774.390708	-0.002814
774.585028	-0.002889
774.779330	-0.002998
774.973613	-0.002873
775.167878	-0.002933
775.362125	-0.002870
775.556354	-0.002839
775.750564	-0.003076
775.944756	-0.003295
776.138930	-0.003325
776.333086	-0.003532
776.527223	-0.003593
776.721343	-0.003740
776.915444	-0.003745
777.109526	-0.003971
777.303591	-0.004077
777.497637	-0.003921
777.691666	-0.003851
777.885676	-0.003903
778.079667	-0.003865
778.273641	-0.003674
778.467596	-0.003781
778.661533	-0.003839
778.855452	-0.003690
779.049352	-0.003556
779.243235	-0.003614
779.437099	-0.003614
779.630945	-0.003552
779.824773	-0.003402
780.018582	-0.003382
780.212373	-0.003111
780.406146	-0.003157
780.599901	-0.003226
780.793638	-0.003147
780.987356	-0.003154
781.181056	-0.003038
781.374738	-0.002916
781.568402	-0.002929
781.762047	-0.002915
781.955674	-0.002978
782.149283	-0.002817
782.342874	-0.002716
782.536447	-0.002754
782.730001	-0.002865
782.923537	-0.003011
783.117055	-0.003025
783.310555	-0.002943
783.504036	-0.003005
783.697499	-0.002882
783.890944	-0.002943
784.084371	-0.002999
784.277780	-0.003055
784.471170	-0.002836
784.664542	-0.002713
784.857896	-0.002714
785.051231	-0.002588
785.244549	-0.002466
785.437848	-0.002527
785.631129	-0.002486
785.824392	-0.002551
786.017636	-0.002536
786.210863	-0.002586
786.404071	-0.002523
786.597260	-0.002496
786.790432	-0.002541
786.983585	-0.002786
787.176721	-0.002716
787.369838	-0.002635
787.562936	-0.002363
787.756017	-0.002287
787.949079	-0.002398
788.142123	-0.002521
788.335149	-0.002397
788.528156	-0.002395
788.721146	-0.002303
788.914117	-0.002348
789.107070	-0.002402
789.300005	-0.002644
789.492921	-0.002636
789.685819	-0.002414
789.878699	-0.002320
790.071561	-0.002522
790.264405	-0.002584
790.457230	-0.002442
790.650037	-0.002555
790.842826	-0.002359
791.035597	-0.002131
791.228349	-0.002161
791.421084	-0.002338
791.613800	-0.002444
791.806497	-0.002420
791.999177	-0.002431
792.191838	-0.002451
792.384481	-0.002288
792.577106	-0.002334
792.769713	-0.002461
792.962301	-0.002257
793.154871	-0.002134
793.347423	-0.002095
793.539957	-0.002047
793.732473	-0.002046
793.924970	-0.002071
794.117449	-0.002145
794.309910	-0.002079
794.502353	-0.002209
794.694777	-0.002567
794.887183	-0.002673
795.079571	-0.002656
795.271941	-0.002711
795.464293	-0.002890
795.656626	-0.002855
795.848941	-0.003026
796.041238	-0.003375
796.233516	-0.003337
796.425777	-0.003247
796.618019	-0.003188
796.810243	-0.003090
797.002449	-0.003000
797.194636	-0.002724
797.386805	-0.002708
797.578956	-0.002684
797.771089	-0.002768
797.963204	-0.002666
798.155300	-0.002754
798.347378	-0.002936
798.539438	-0.003097
798.731480	-0.003167
798.923503	-0.003354
799.115509	-0.003495
799.307496	-0.003561
799.499465	-0.003483
799.691415	-0.003637
799.883348	-0.003707
800.075262	-0.003505
800.267158	-0.003526
800.459035	-0.003673
800.650895	-0.003895
800.842736	-0.003937
801.034559	-0.003941
801.226364	-0.003853
801.418150	-0.003925
801.609919	-0.003734
801.801669	-0.003745
801.993401	-0.003572
802.185114	-0.003511
802.376810	-0.003274
802.568487	-0.003181
802.760146	-0.003035
802.951787	-0.002981
803.143409	-0.002804
803.335014	-0.002977
803.526600	-0.003153
803.718168	-0.003403
803.909717	-0.003469
804.101249	-0.003528
804.292762	-0.003482
804.484257	-0.003389
804.675734	-0.003440
804.867192	-0.003478
805.058632	-0.003432
805.250054	-0.003441
805.441458	-0.003391
805.632844	-0.003243
805.824211	-0.003136
806.015561	-0.003335
806.206891	-0.003518
806.398204	-0.003501
806.589499	-0.003405
806.780775	-0.003436
806.972033	-0.003465
807.163273	-0.003362
807.354495	-0.003466
807.545698	-0.003470
807.736883	-0.003212
807.928050	-0.002951
808.119199	-0.002909
808.310329	-0.002887
808.501441	-0.002809
808.692535	-0.002740
808.883611	-0.002524
809.074669	-0.002314
809.265708	-0.002140
809.456729	-0.002296
809.647732	-0.002390
809.838717	-0.002377
810.029683	-0.002368
810.220632	-0.002335
810.411562	-0.002245
810.602474	-0.002476
810.793367	-0.002682
810.984242	-0.003105
811.175100	-0.002931
811.365938	-0.002968
811.556759	-0.003148
811.747562	-0.003034
811.938346	-0.003203
812.129112	-0.003211
812.319860	-0.003301
812.510589	-0.003322
812.701300	-0.003188
812.891994	-0.003279
813.082668	-0.003455
813.273325	-0.003501
813.463964	-0.003741
813.654584	-0.003609
813.845186	-0.003656
814.035769	-0.003517
814.226335	-0.003425
814.416882	-0.003442
814.607411	-0.003571
814.797922	-0.003662
814.988415	-0.003479
815.178889	-0.003500
815.369345	-0.003662
815.559783	-0.003879
815.750203	-0.004006
815.940605	-0.004063
816.130988	-0.004018
816.321353	-0.004054
816.511700	-0.003854
816.702028	-0.003902
816.892339	-0.003914
817.082631	-0.003672
817.272905	-0.003490
817.463161	-0.003540
817.653398	-0.003422
817.843617	-0.003454
818.033819	-0.003481
818.224001	-0.003606
818.414166	-0.003765
818.604312	-0.003629
818.794440	-0.003937
818.984550	-0.003943
819.174642	-0.003728
819.364716	-0.003865
819.554771	-0.003760
819.744808	-0.003507
819.934827	-0.003296
820.124827	-0.003134
820.314810	-0.003173
820.504774	-0.002876
820.694720	-0.002693
820.884647	-0.002861
821.074557	-0.002628
821.264448	-0.002512
821.454321	-0.002529
821.644176	-0.002625
821.834012	-0.002556
822.023831	-0.002717
822.213631	-0.002687
822.403413	-0.002853
822.593176	-0.002655
822.782922	-0.002727
822.972649	-0.002843
823.162358	-0.002838
823.352049	-0.002784
823.541721	-0.003085
823.731376	-0.003036
823.921012	-0.003319
824.110629	-0.003351
824.300229	-0.003342
824.489811	-0.003671
824.679374	-0.003863
824.868919	-0.004037
825.058445	-0.004201
825.247954	-0.004160
825.437444	-0.004268
825.626916	-0.004226
825.816370	-0.004316
826.005806	-0.004723
826.195223	-0.004669
826.384622	-0.004711
826.574003	-0.004867
826.763366	-0.004970
826.952711	-0.004881
827.142037	-0.004896
827.331345	-0.004980
827.520635	-0.005196
827.709906	-0.005388
827.899160	-0.005489
828.088395	-0.005614
828.277612	-0.005490
828.466810	-0.005462
828.655991	-0.005495
828.845153	-0.005527
829.034297	-0.005539
829.223423	-0.005402
829.412531	-0.005212
829.601620	-0.005107
829.790691	-0.004960
829.979744	-0.005197
830.168779	-0.005146
830.357795	-0.005212
830.546793	-0.005155
830.735773	-0.005116
830.924735	-0.005130
831.113679	-0.005152
831.302604	-0.005259
831.491511	-0.005338
831.680400	-0.005239
831.869271	-0.005407
832.058123	-0.005579
832.246957	-0.005599
832.435773	-0.005721
832.624571	-0.005838
832.813351	-0.005852
833.002112	-0.005702
833.190855	-0.005641
833.379580	-0.005851
833.568287	-0.005676
833.756975	-0.005404
833.945645	-0.005393
834.134297	-0.005229
834.322931	-0.004940
834.511547	-0.004698
834.700144	-0.004808
834.888723	-0.004852
835.077284	-0.004542
835.265826	-0.004732
835.454351	-0.004765
835.642857	-0.004730
835.831345	-0.004755
836.019815	-0.004836
836.208266	-0.004990
836.396699	-0.004915
836.585114	-0.004951
836.773511	-0.004877
836.961890	-0.005005
837.150250	-0.005165
837.338592	-0.005324
837.526916	-0.005421
837.715222	-0.005655
837.903510	-0.005621
838.091779	-0.005760
838.280030	-0.005528
838.468263	-0.005715
838.656477	-0.005435
838.844674	-0.005288
839.032852	-0.005249
839.221012	-0.005174
839.409153	-0.005195
839.597277	-0.005447
839.785382	-0.005370
839.973469	-0.005634
840.161538	-0.005805
840.349589	-0.005992
840.537621	-0.006090
840.725635	-0.006143
840.913631	-0.006226
841.101609	-0.006095
841.289568	-0.006267
841.477509	-0.006541
841.665432	-0.006601
841.853337	-0.006538
842.041224	-0.006603
842.229092	-0.006813
842.416942	-0.006843
842.604774	-0.006738
842.792588	-0.006759
842.980383	-0.006612
843.168160	-0.006353
843.355919	-0.006265
843.543660	-0.006363
843.731382	-0.006261
843.919087	-0.006274
844.106773	-0.006128
844.294441	-0.006197
844.482090	-0.006245
844.669722	-0.006118
844.857335	-0.006328
845.044930	-0.006530
845.232507	-0.006580
845.420065	-0.006464
845.607605	-0.006420
845.795127	-0.006707
845.982631	-0.006707
846.170117	-0.006756
846.357584	-0.006590
846.545033	-0.006677
846.732464	-0.006181
846.919877	-0.006063
847.107272	-0.006021
847.294648	-0.005739
847.482006	-0.005275
847.669346	-0.005402
847.856667	-0.005385
848.043971	-0.005373
848.231256	-0.005107
848.418523	-0.005349
848.605771	-0.005306
848.793002	-0.005513
848.980214	-0.005745
849.167408	-0.005974
849.354584	-0.005888
849.541742	-0.005825
849.728881	-0.005920
849.916002	-0.005750
850.103105	-0.005686
850.290190	-0.005700
850.477256	-0.005675
850.664304	-0.005466
850.851334	-0.005502
851.038346	-0.005370
851.225340	-0.005234
851.412315	-0.005226
851.599272	-0.005469
851.786211	-0.005587
851.973132	-0.005308
852.160034	-0.005070
852.346918	-0.005247
852.533784	-0.005192
852.720632	-0.005102
852.907462	-0.005178
853.094273	-0.005178
853.281066	-0.005132
853.467841	-0.004971
853.654598	-0.005156
853.841336	-0.005216
854.028056	-0.005089
854.214758	-0.005152
854.401442	-0.005362
854.588107	-0.005262
854.774755	-0.005161
854.961384	-0.005064
855.147995	-0.005345
855.334587	-0.005253
855.521162	-0.005161
855.707718	-0.005106
855.894256	-0.005012
856.080775	-0.004882
856.267277	-0.004739
856.453760	-0.004581
856.640225	-0.004618
856.826672	-0.004490
857.013101	-0.004425
857.199511	-0.004546
857.385903	-0.004571
857.572277	-0.004550
857.758633	-0.004589
857.944970	-0.004824
858.131290	-0.005082
858.317591	-0.004932
858.503873	-0.004695
858.690138	-0.004610
858.876384	-0.004473
859.062612	-0.004357
859.248822	-0.004324
859.435014	-0.004250
859.621188	-0.004125
859.807343	-0.004125
859.993480	-0.003923
860.179599	-0.004179
860.365699	-0.004143
860.551781	-0.004086
860.737846	-0.004073
860.923891	-0.003983
861.109919	-0.003881
861.295929	-0.003886
861.481920	-0.003608
861.667893	-0.003791
861.853848	-0.003541
862.039784	-0.003421
862.225702	-0.003527
862.411603	-0.003393
862.597484	-0.003553
862.783348	-0.003602
862.969193	-0.003661
863.155021	-0.003752
863.340830	-0.003626
863.526620	-0.003601
863.712393	-0.003936
863.898147	-0.004082
864.083883	-0.004349
864.269601	-0.004456
864.455301	-0.004682
864.640982	-0.004578
864.826645	-0.004689
865.012290	-0.004938
865.197917	-0.004740
865.383526	-0.004743
865.569116	-0.004700
865.754688	-0.004462
865.940242	-0.004289
866.125777	-0.004108
866.311295	-0.004415
866.496794	-0.004543
866.682275	-0.004470
866.867737	-0.004849
867.053182	-0.004793
867.238608	-0.004808
867.424016	-0.005052
867.609406	-0.004931
867.794778	-0.004976
867.980131	-0.004641
868.165466	-0.004525
868.350783	-0.004372
868.536082	-0.004290
868.721362	-0.004218
868.906625	-0.004024
869.091869	-0.003961
869.277094	-0.004071
869.462302	-0.003955
869.647491	-0.003879
869.832662	-0.003725
870.017815	-0.004038
870.202950	-0.003903
870.388066	-0.003848
870.573165	-0.003947
870.758245	-0.004072
870.943306	-0.003978
871.128350	-0.004178
871.313375	-0.004079
871.498382	-0.004202
871.683371	-0.003802
871.868342	-0.003694
872.053294	-0.003476
872.238229	-0.003319
872.423144	-0.003169
872.608042	-0.002911
872.792922	-0.002761
872.977783	-0.003181
873.162626	-0.003056
873.347451	-0.003107
873.532258	-0.003385
873.717046	-0.003365
873.901816	-0.003462
874.086568	-0.003665
874.271302	-0.003908
874.456017	-0.003614
874.640715	-0.003185
874.825394	-0.003177
875.010055	-0.003240
875.194697	-0.003225
875.379322	-0.003321
875.563928	-0.003095
875.748516	-0.002979
875.933085	-0.002853
876.117637	-0.003036
876.302170	-0.003115
876.486685	-0.002946
876.671182	-0.003113
876.855661	-0.003203
877.040121	-0.003298
877.224563	-0.003348
877.408987	-0.003375
877.593393	-0.003441
877.777780	-0.003478
877.962150	-0.003504
878.146501	-0.003678
878.330833	-0.003367
878.515148	-0.003264
878.699444	-0.003412
878.883722	-0.003439
879.067982	-0.003189
879.252224	-0.003240
879.436447	-0.003351
879.620653	-0.003282
879.804840	-0.003263
879.989008	-0.003464
880.173159	-0.003107
880.357291	-0.003149
880.541405	-0.003397
880.725501	-0.003234
880.909579	-0.003597
881.093638	-0.003453
881.277680	-0.003557
881.461703	-0.003732
881.645707	-0.003818
881.829694	-0.003967
882.013662	-0.003963
882.197612	-0.003528
882.381544	-0.003899
882.565458	-0.003635
882.749353	-0.003837
882.933230	-0.004116
883.117089	-0.004202
883.300930	-0.004005
883.484753	-0.003991
883.668557	-0.003790
883.852343	-0.004029
884.036111	-0.003858
884.219861	-0.003607
884.403592	-0.003270
884.587305	-0.003189
884.771000	-0.002883
884.954677	-0.002923
885.138335	-0.003247
885.321976	-0.003199
885.505598	-0.003445
885.689201	-0.003498
885.872787	-0.003784
886.056354	-0.003801
886.239904	-0.003511
886.423434	-0.003418
886.606947	-0.003339
886.790442	-0.002989
886.973918	-0.002986
887.157376	-0.002951
887.340816	-0.002872
887.524237	-0.002692
887.707641	-0.002862
887.891026	-0.003002
888.074393	-0.003201
888.257741	-0.003083
888.441072	-0.003377
888.624384	-0.003545
888.807678	-0.003282
888.990954	-0.003358
889.174211	-0.003490
889.357451	-0.003612
889.540672	-0.003588
889.723875	-0.003740
889.907059	-0.003859
890.090226	-0.003579
890.273374	-0.003480
890.456504	-0.003683
890.639616	-0.003774
890.822709	-0.003505
891.005785	-0.003352
891.188842	-0.003087
891.371881	-0.002860
891.554901	-0.002874
891.737904	-0.003033
891.920888	-0.003211
892.103854	-0.003094
892.286802	-0.003031
892.469731	-0.003162
892.652643	-0.003207
892.835536	-0.003381
893.018410	-0.003354
893.201267	-0.003814
893.384106	-0.003717
893.566926	-0.003788
893.749728	-0.003626
893.932511	-0.003560
894.115277	-0.003472
894.298024	-0.003507
894.480753	-0.003740
894.663464	-0.003721
894.846157	-0.003183
895.028831	-0.003335
895.211487	-0.003253
895.394125	-0.003285
895.576745	-0.003194
895.759346	-0.003391
895.941930	-0.003177
896.124495	-0.003024
896.307041	-0.002780
896.489570	-0.003002
896.672080	-0.003049
896.854573	-0.003039
897.037046	-0.003074
897.219502	-0.003037
897.401940	-0.003000
897.584359	-0.003351
897.766760	-0.003320
897.949143	-0.003749
898.131507	-0.003731
898.313854	-0.003666
898.496182	-0.003472
898.678492	-0.003523
898.860783	-0.003606
899.043057	-0.003337
899.225312	-0.002890
899.407549	-0.002760
899.589768	-0.002382
899.771968	-0.002410
899.954151	-0.002412
900.136315	-0.002422
900.318461	-0.002361
900.500588	-0.002387
900.682698	-0.002683
900.864789	-0.002724
901.046862	-0.002991
901.228917	-0.003310
901.410953	-0.003507
901.592971	-0.003296
901.774972	-0.003181
901.956953	-0.003268
902.138917	-0.003113
902.320862	-0.003019
902.502790	-0.003158
902.684699	-0.002850
902.866589	-0.002628
903.048462	-0.002135
903.230316	-0.002194
903.412152	-0.002191
903.593970	-0.002154
903.775770	-0.002113
903.957551	-0.001953
904.139314	-0.002033
904.321059	-0.001972
904.502786	-0.002282
904.684494	-0.002354
904.866185	-0.002375
905.047857	-0.002436
905.229510	-0.002560
905.411146	-0.002744
905.592763	-0.002886
905.774363	-0.002572
905.955943	-0.002613
906.137506	-0.002347
906.319051	-0.002327
906.500577	-0.002200
906.682085	-0.002248
906.863575	-0.001924
907.045046	-0.002339
907.226500	-0.002664
907.407935	-0.003036
907.589352	-0.003239
907.770750	-0.003476
907.952131	-0.003692
908.133493	-0.004209
908.314837	-0.004175
908.496163	-0.004616
908.677470	-0.004220
908.858760	-0.003909
909.040031	-0.003875
909.221284	-0.003960
909.402518	-0.003762
909.583735	-0.003730
909.764933	-0.003509
909.946113	-0.003568
910.127275	-0.003800
910.308418	-0.003802
910.489544	-0.003871
910.670651	-0.004036
910.851740	-0.004219
911.032810	-0.004556
911.213863	-0.004769
911.394897	-0.004412
911.575913	-0.004519
911.756911	-0.004261
911.937890	-0.004475
912.118851	-0.004563
912.299794	-0.004752
912.480719	-0.004798
912.661626	-0.004677
912.842514	-0.004607
913.023384	-0.004796
913.204236	-0.004958
913.385070	-0.004880
913.565886	-0.005079
913.746683	-0.004939
913.927462	-0.004668
914.108223	-0.004607
914.288965	-0.005158
914.469690	-0.005231
914.650396	-0.005346
914.831084	-0.005578
915.011754	-0.005427
915.192405	-0.004950
915.373038	-0.005018
915.553653	-0.004891
915.734250	-0.004699
915.914829	-0.004708
916.095389	-0.004491
916.275931	-0.004875
916.456455	-0.004583
916.636961	-0.004817
916.817448	-0.004892
916.997917	-0.004857
917.178368	-0.004621
917.358801	-0.004620
917.539216	-0.003877
917.719612	-0.004306
917.899990	-0.003925
918.080350	-0.003728
918.260692	-0.003688
918.441015	-0.004076
918.621320	-0.004280
918.801607	-0.005066
918.981876	-0.005306
919.162127	-0.005413
919.342359	-0.005393
919.522573	-0.005552
919.702769	-0.005626
919.882947	-0.005985
920.063106	-0.005838
920.243247	-0.006254
920.423370	-0.005847
920.603475	-0.006115
920.783562	-0.006377
920.963630	-0.006164
921.143680	-0.006484
921.323712	-0.007296
921.503725	-0.007223
921.683721	-0.007535
921.863698	-0.007367
922.043657	-0.007941
922.223598	-0.008160
922.403520	-0.008097
922.583424	-0.008266
922.763311	-0.008236
922.943178	-0.007331
923.123028	-0.007066
923.302859	-0.007117
923.482673	-0.007318
923.662467	-0.006918
923.842244	-0.006666
924.022003	-0.007024
924.201743	-0.007156
924.381465	-0.006779
924.561169	-0.007276
924.740854	-0.007482
924.920522	-0.007128
925.100171	-0.007056
925.279802	-0.007055
925.459414	-0.006850
925.639009	-0.006879
925.818585	-0.006624
925.998143	-0.007210
926.177683	-0.007371
926.357205	-0.007442
926.536708	-0.007328
926.716193	-0.007335
926.895660	-0.007289
927.075109	-0.007475
927.254539	-0.007198
927.433951	-0.007603
927.613345	-0.007609
927.792721	-0.007434
927.972079	-0.007616
928.151418	-0.007994
928.330739	-0.007935
928.510042	-0.008349
928.689327	-0.008649
928.868593	-0.009055
929.047841	-0.008513
929.227071	-0.008373
929.406283	-0.008690
929.585476	-0.008735
929.764652	-0.008977
929.943809	-0.009424
930.122948	-0.009254
930.302068	-0.009360
930.481171	-0.009329
930.660255	-0.010278
930.839321	-0.010701
931.018369	-0.010803
931.197398	-0.011141
931.376409	-0.011500
931.555402	-0.011060
931.734377	-0.011717
931.913334	-0.011621
932.092272	-0.011626
932.271192	-0.011654
932.450094	-0.011458
932.628978	-0.011391
932.807844	-0.011036
932.986691	-0.010741
933.165520	-0.011084
933.344331	-0.010919
933.523123	-0.010536
933.701898	-0.010483
933.880654	-0.009952
934.059392	-0.009662
934.238111	-0.009910
934.416813	-0.010593
934.595496	-0.010895
934.774161	-0.011313
934.952808	-0.011650
935.131437	-0.012502
935.310047	-0.012882
935.488639	-0.013061
935.667213	-0.013494
935.845769	-0.013115
936.024306	-0.013006
936.202825	-0.013092
936.381326	-0.012773
936.559809	-0.012263
936.738274	-0.011877
936.916720	-0.011817
937.095148	-0.012496
937.273558	-0.012152
937.451950	-0.012635
937.630323	-0.012226
937.808678	-0.012090
937.987015	-0.011964
938.165334	-0.011466
938.343635	-0.012425
938.521917	-0.012277
938.700181	-0.012124
938.878427	-0.012644
939.056655	-0.012580
939.234864	-0.012815
939.413055	-0.013120
939.591228	-0.013394
939.769383	-0.014377
939.947519	-0.013777
940.125638	-0.013691
940.303738	-0.014068
940.481820	-0.014345
940.659883	-0.015340
940.837929	-0.015786
941.015956	-0.015800
941.193965	-0.016238
941.371955	-0.015977
941.549928	-0.015722
941.727882	-0.015997
941.905818	-0.015983
942.083736	-0.016269
942.261636	-0.015627
942.439517	-0.014733
942.617380	-0.014124
942.795225	-0.014453
942.973052	-0.014384
943.150860	-0.014491
943.328651	-0.014789
943.506423	-0.014666
943.684176	-0.014754
943.861912	-0.014686
944.039629	-0.014943
944.217328	-0.015776
944.395009	-0.015473
944.572672	-0.016053
944.750317	-0.015927
944.927943	-0.016122
945.105551	-0.015480
945.283141	-0.015151
945.460712	-0.014807
945.638265	-0.016276
945.815801	-0.015689
945.993317	-0.015152
946.170816	-0.014967
946.348297	-0.016332
946.525759	-0.016557
946.703203	-0.017401
946.880629	-0.017433
947.058036	-0.017719
947.235425	-0.017807
947.412797	-0.017665
947.590149	-0.018299
947.767484	-0.018792
947.944800	-0.017736
948.122099	-0.017194
948.299379	-0.016669
948.476640	-0.016604
948.653884	-0.016828
948.831109	-0.015537
949.008316	-0.016219
949.185505	-0.015052
949.362676	-0.013780
949.539828	-0.012768
949.716962	-0.012530
949.894078	-0.011988
950.071176	-0.011470
950.248256	-0.010942
950.425317	-0.011410
950.602360	-0.011151
950.779385	-0.011293
950.956391	-0.011189
951.133380	-0.012251
951.310350	-0.013819
951.487302	-0.014959
951.664235	-0.014631
951.841151	-0.014668
952.018048	-0.014320
952.194927	-0.013865
952.371788	-0.014366
952.548631	-0.015115
952.725455	-0.013633
952.902261	-0.011691
953.079049	-0.011211
953.255819	-0.011958
953.432570	-0.012232
953.609303	-0.012088
953.786018	-0.011399
953.962715	-0.011214
954.139394	-0.012151
954.316054	-0.012191
954.492696	-0.012460
954.669320	-0.011984
954.845926	-0.010775
955.022513	-0.009202
955.199083	-0.008586
955.375634	-0.009175
955.552166	-0.009803
955.728681	-0.007977
955.905177	-0.009167
956.081655	-0.007822
956.258115	-0.008002
956.434557	-0.010013
956.610980	-0.010450
956.787385	-0.008866
956.963772	-0.008469
957.140141	-0.007257
957.316492	-0.008090
957.492824	-0.006600
957.669138	-0.007564
957.845434	-0.007580
958.021712	-0.004872
958.197971	-0.006092
958.374212	-0.006894
958.550435	-0.007251
958.726640	-0.007008
958.902826	-0.004921
959.078995	-0.005401
959.255145	-0.005147
959.431277	-0.003518
959.607390	-0.003745
959.783486	-0.003118
959.959563	-0.003487
960.135622	-0.002214
960.311662	-0.001886
960.487685	-0.001390
960.663689	0.000168
960.839675	0.001093
961.015643	0.002059
961.191593	0.003366
961.367524	0.002394
961.543437	0.002711
961.719332	0.002845
961.895209	0.003208
962.071067	0.002566
962.246907	0.002009
962.422730	0.002481
962.598533	0.002541
962.774319	0.001515
962.950086	0.003316
963.125835	0.003974
963.301566	0.004175
963.477279	0.006319
963.652973	0.006688
963.828650	0.006002
964.004308	0.004338
964.179947	0.002741
964.355569	0.005607
964.531172	0.004851
964.706757	0.003675
964.882324	0.002560
965.057873	0.003633
965.233403	0.004571
965.408916	0.005118
965.584410	0.006132
965.759885	0.007327
965.935343	0.003063
966.110782	0.005388
966.286203	0.007426
966.461606	0.005580
966.636991	0.003185
966.812357	0.001619
966.987705	0.002833
967.163035	0.003319
967.338347	0.004818
967.513641	0.006682
967.688916	0.005805
967.864173	0.003849
968.039412	0.007702
968.214632	0.006594
968.389835	0.007951
968.565019	0.006152
968.740185	0.005246
968.915333	0.005529
969.090462	0.006470
969.265573	0.006042
969.440667	0.006260
969.615741	0.006240
969.790798	0.007250
969.965836	0.006411
970.140856	0.006364
970.315858	0.008671
970.490842	0.007108
970.665808	0.006494
970.840755	0.006834
971.015684	0.009692
971.190595	0.009781
971.365487	0.010088
971.540362	0.009820
971.715218	0.012307
971.890056	0.011057
972.064875	0.013414
972.239677	0.015569
972.414460	0.016262
972.589225	0.014589
972.763972	0.013381
972.938700	0.015293
973.113411	0.015185
973.288103	0.014607
973.462777	0.015585
973.637432	0.012589
973.812070	0.014250
973.986689	0.015213
974.161290	0.014439
974.335873	0.014485
974.510437	0.013083
974.684984	0.012493
974.859512	0.011061
975.034022	0.009886
975.208513	0.012055
975.382987	0.010016
975.557442	0.008836
975.731879	0.011178
975.906298	0.010662
976.080698	0.010729
976.255080	0.012631
976.429445	0.015669
976.603790	0.017092
976.778118	0.014492
976.952427	0.014495
977.126719	0.013048
977.300992	0.011563
977.475246	0.012261
977.649483	0.012524
977.823701	0.011449
977.997901	0.009643
978.172083	0.010168
978.346247	0.012412
978.520392	0.009771
978.694519	0.012948
978.868628	0.011777
979.042719	0.010672
979.216791	0.009872
979.390845	0.010498
979.564882	0.009060
979.738899	0.007207
979.912899	0.005684
980.086880	0.007847
980.260843	0.005976
980.434788	0.007599
980.608715	0.009064
980.782623	0.009988
980.956514	0.010190
981.130386	0.011824
981.304240	0.012713
981.478075	0.013473
981.651892	0.013204
981.825692	0.014491
981.999472	0.014721
982.173235	0.014185
982.346980	0.014706
982.520706	0.014020
982.694414	0.013809
982.868104	0.013556
983.041775	0.013363
983.215428	0.014478
983.389064	0.013691
983.562680	0.012785
983.736279	0.011900
983.909860	0.009928
984.083422	0.009042
984.256966	0.008518
984.430491	0.010219
984.603999	0.010439
984.777488	0.008649
984.950959	0.008077
985.124412	0.009512
985.297847	0.009237
985.471263	0.010205
985.644661	0.010833
985.818041	0.009674
985.991403	0.008290
986.164747	0.007497
986.338072	0.007848
986.511379	0.007709
986.684668	0.006450
986.857938	0.008780
987.031191	0.008308
987.204425	0.008798
987.377641	0.010213
987.550839	0.011071
987.724018	0.010978
987.897179	0.010707
988.070322	0.011636
988.243447	0.011803
988.416554	0.011043
988.589642	0.010859
988.762712	0.011792
988.935764	0.013466
989.108798	0.013036
989.281813	0.012204
989.454811	0.012409
989.627790	0.012704
989.800751	0.011963
989.973693	0.011073
990.146617	0.009874
990.319524	0.010033
990.492412	0.009508
990.665281	0.006970
990.838133	0.008082
991.010966	0.008848
991.183781	0.009281
991.356578	0.010724
991.529356	0.011600
991.702117	0.014002
991.874859	0.012038
992.047583	0.012461
992.220288	0.013966
992.392976	0.014637
992.565645	0.013652
992.738296	0.011496
992.910929	0.009762
993.083543	0.008843
993.256139	0.009536
993.428718	0.010680
993.601277	0.008918
993.773819	0.009315
993.946342	0.008555
994.118848	0.009121
994.291335	0.009863
994.463803	0.012498
994.636254	0.012470
994.808686	0.011143
994.981100	0.011211
995.153496	0.010406
995.325874	0.011303
995.498233	0.012373
995.670574	0.012566
995.842897	0.012707
996.015202	0.011217
996.187488	0.012181
996.359757	0.013968
996.532007	0.014282
996.704239	0.015399
996.876452	0.013833
997.048648	0.013338
997.220825	0.012639
997.392984	0.012795
997.565124	0.012505
997.737247	0.012215
997.909351	0.009402
998.081437	0.007863
998.253505	0.008580
998.425554	0.008315
998.597586	0.007571
998.769599	0.007368
998.941594	0.007275
999.113571	0.007723
999.285529	0.007378
999.457469	0.008383
999.629391	0.008565
999.801295	0.008916
999.973181	0.009572
1000.145048	0.009458
1000.316897	0.009023
1000.488728	0.009034
1000.660541	0.008734
1000.832335	0.008795
1001.004111	0.007920
1001.175869	0.009737
1001.347609	0.007695
1001.519331	0.007517
1001.691034	0.008827
1001.862719	0.008069
1002.034386	0.007822
1002.206035	0.007748
1002.377665	0.009339
1002.549277	0.009877
1002.720871	0.008595
1002.892447	0.009723
1003.064004	0.010659
1003.235544	0.010925
1003.407065	0.012170
1003.578568	0.013157
1003.750052	0.012220
1003.921519	0.010437
1004.092967	0.009500
1004.264397	0.009300
1004.435809	0.009155
1004.607202	0.007660
1004.778577	0.006420
1004.949934	0.006665
1005.121273	0.007148
1005.292594	0.008475
1005.463896	0.007877
1005.635180	0.009473
1005.806446	0.011640
1005.977694	0.012425
1006.148923	0.013119
1006.320135	0.012709
1006.491328	0.011649
1006.662503	0.009127
1006.833659	0.007916
1007.004798	0.008780
1007.175918	0.008974
1007.347020	0.007432
1007.518103	0.006629
1007.689169	0.006624
1007.860216	0.007458
1008.031245	0.007978
1008.202256	0.010240
1008.373248	0.009357
1008.544223	0.009250
1008.715179	0.009004
1008.886117	0.007307
1009.057036	0.007341
1009.227938	0.006093
1009.398821	0.005614
1009.569686	0.005350
1009.740533	0.004948
1009.911361	0.006709
1010.082172	0.007858
1010.252964	0.007444
1010.423738	0.009460
1010.594493	0.008425
1010.765231	0.009357
1010.935950	0.009962
1011.106651	0.009481
1011.277334	0.009722
1011.447998	0.009981
1011.618645	0.008879
1011.789273	0.009526
1011.959882	0.008540
1012.130474	0.007900
1012.301048	0.007459
1012.471603	0.007314
1012.642140	0.008706
1012.812658	0.007824
1012.983159	0.008046
1013.153641	0.009004
1013.324105	0.008077
1013.494551	0.007284
1013.664979	0.009360
1013.835388	0.010479
1014.005779	0.009929
1014.176152	0.010187
1014.346507	0.011260
1014.516843	0.011319
1014.687162	0.011334
1014.857462	0.012112
1015.027744	0.013237
1015.198007	0.012308
1015.368252	0.013477
1015.538480	0.013964
1015.708689	0.012399
1015.878879	0.013801
1016.049052	0.012886
1016.219206	0.012519
1016.389342	0.012433
1016.559460	0.010184
1016.729559	0.011059
1016.899641	0.009559
1017.069704	0.009304
1017.239749	0.009402
1017.409775	0.006130
1017.579784	0.006562
1017.749774	0.006055
1017.919746	0.005900
1018.089700	0.008364
1018.259635	0.006368
1018.429553	0.005276
1018.599452	0.006850
1018.769333	0.009875
1018.939195	0.010194
1019.109040	0.010206
1019.278866	0.012785
1019.448674	0.012223
1019.618464	0.011364
1019.788235	0.013078
1019.957989	0.013890
1020.127724	0.013054
1020.297441	0.010362
1020.467139	0.010409
1020.636820	0.010325
1020.806482	0.007478
1020.976126	0.007935
1021.145752	0.008305
1021.315359	0.006865
1021.484948	0.005820
1021.654519	0.005186
1021.824072	0.005500
1021.993607	0.006997
1022.163123	0.005991
1022.332621	0.006486
1022.502101	0.007905
1022.671563	0.007812
1022.841007	0.008887
1023.010432	0.010786
1023.179839	0.010512
1023.349228	0.009925
1023.518598	0.009699
1023.687951	0.009437
1023.857285	0.006978
1024.026601	0.005021
1024.195899	0.005375
1024.365178	0.003354
1024.534439	0.002588
1024.703682	0.003147
1024.872907	0.003683
1025.042114	0.001833
1025.211302	0.002601
1025.380472	0.004985
1025.549624	0.003935
1025.718758	0.004671
1025.887873	0.005268
1026.056970	0.004950
1026.226049	0.004892
1026.395110	0.005440
1026.564153	0.006799
1026.733177	0.006513
1026.902183	0.006780
1027.071171	0.007874
1027.240141	0.007261
1027.409092	0.009160
1027.578026	0.009540
1027.746940	0.008388
1027.915837	0.007094
1028.084716	0.006051
1028.253576	0.006311
1028.422418	0.005724
1028.591242	0.005830
1028.760048	0.005920
1028.928835	0.003932
1029.097604	0.004128
1029.266355	0.005327
1029.435088	0.006101
1029.603803	0.007941
1029.772499	0.008555
1029.941177	0.007649
1030.109837	0.008017
1030.278478	0.006085
1030.447102	0.006355
1030.615707	0.006630
1030.784294	0.006154
1030.952863	0.006211
1031.121413	0.005934
1031.289945	0.007001
1031.458460	0.006963
1031.626955	0.006874
1031.795433	0.009099
1031.963892	0.009633
1032.132334	0.008159
1032.300756	0.009447
1032.469161	0.008592
1032.637548	0.008360
1032.805916	0.006999
1032.974266	0.008184
1033.142598	0.008329
1033.310911	0.008071
1033.479207	0.008170
1033.647484	0.008712
1033.815743	0.007550
1033.983983	0.007346
1034.152206	0.007085
1034.320410	0.007356
1034.488596	0.007027
1034.656764	0.007062
1034.824914	0.006694
1034.993045	0.007116
1035.161158	0.007623
1035.329253	0.008765
1035.497330	0.008536
1035.665388	0.009432
1035.833428	0.010763
1036.001450	0.010162
1036.169454	0.009114
1036.337440	0.009413
1036.505407	0.009180
1036.673356	0.008301
1036.841287	0.009967
1037.009200	0.011534
1037.177094	0.010135
1037.344970	0.008884
1037.512828	0.010557
1037.680668	0.010708
1037.848489	0.009683
1038.016293	0.010053
1038.184078	0.012313
1038.351845	0.010091
1038.519593	0.008864
1038.687324	0.009120
1038.855036	0.008542
1039.022730	0.008739
1039.190406	0.007115
1039.358063	0.006878
1039.525702	0.006377
1039.693323	0.004785
1039.860926	0.003675
1040.028511	0.005590
1040.196077	0.005162
1040.363625	0.005933
1040.531155	0.005407
1040.698667	0.007257
1040.866161	0.009797
1041.033636	0.010040
1041.201093	0.008751
1041.368532	0.010343
1041.535952	0.008766
1041.703355	0.008147
1041.870739	0.007153
1042.038105	0.005993
1042.205452	0.006145
1042.372782	0.003709
1042.540093	0.004379
1042.707386	0.007134
1042.874661	0.005430
1043.041918	0.005801
1043.209156	0.007101
1043.376376	0.006408
1043.543578	0.007196
1043.710762	0.006800
1043.877927	0.009109
1044.045074	0.007937
1044.212203	0.007627
1044.379314	0.008526
1044.546407	0.007846
1044.713481	0.008230
1044.880537	0.008775
1045.047575	0.007735
1045.214595	0.007429
1045.381596	0.007268
1045.548579	0.005704
1045.715544	0.002900
1045.882491	0.003008
1046.049420	0.004504
1046.216330	0.003014
1046.383222	0.002157
1046.550096	0.001981
1046.716951	0.003619
1046.883789	0.002403
1047.050608	0.005045
1047.217409	0.008076
1047.384192	0.008004
1047.550956	0.007537
1047.717703	0.008471
1047.884431	0.009076
1048.051140	0.007434
1048.217832	0.005568
1048.384505	0.004282
1048.551161	0.004722
1048.717798	0.004403
1048.884416	0.004874
1049.051017	0.002672
1049.217599	0.002150
1049.384163	0.001411
1049.550709	0.003317
1049.717237	0.002872
1049.883746	0.002714
1050.050237	0.002057
1050.216710	0.001361
1050.383165	0.000292
1050.549601	0.001638
1050.716019	0.001473
1050.882420	0.003490
1051.048801	0.004575
1051.215165	0.005439
1051.381510	0.007509
1051.547837	0.007356
1051.714146	0.007416
1051.880437	0.007878
1052.046709	0.006609
1052.212964	0.007420
1052.379200	0.006801
1052.545417	0.006954
1052.711617	0.006261
1052.877798	0.006169
1053.043961	0.006434
1053.210106	0.007245
1053.376233	0.005586
1053.542341	0.006430
1053.708432	0.005979
1053.874504	0.006928
1054.040557	0.005467
1054.206593	0.005750
1054.372610	0.004233
1054.538609	0.003333
1054.704590	0.002812
1054.870553	0.003953
1055.036497	0.004018
1055.202424	0.003733
1055.368331	0.001223
1055.534221	0.002797
1055.700093	0.003426
1055.865946	0.004116
1056.031781	0.005413
1056.197598	0.006075
1056.363397	0.007254
1056.529177	0.007832
1056.694939	0.007807
1056.860683	0.008007
1057.026409	0.007348
1057.192116	0.006102
1057.357806	0.005745
1057.523477	0.004522
1057.689130	0.003945
1057.854764	0.003042
1058.020381	0.003361
1058.185979	0.002440
1058.351559	0.003607
1058.517120	0.002920
1058.682664	0.005687
1058.848189	0.004678
1059.013696	0.004010
1059.179185	0.004707
1059.344656	0.005972
1059.510108	0.005950
1059.675542	0.007175
1059.840958	0.007821
1060.006356	0.009195
1060.171735	0.008069
1060.337096	0.009903
1060.502439	0.010549
1060.667764	0.008586
1060.833071	0.006956
1060.998359	0.008145
1061.163629	0.007764
1061.328881	0.008141
1061.494115	0.008428
1061.659330	0.007262
1061.824527	0.007336
1061.989706	0.006836
1062.154867	0.007232
1062.320010	0.007313
1062.485134	0.005840
1062.650240	0.006131
1062.815328	0.005292
1062.980398	0.003391
1063.145449	0.002334
1063.310482	0.003563
1063.475497	0.004935
1063.640494	0.004962
1063.805473	0.007079
1063.970433	0.006651
1064.135375	0.005873
1064.300299	0.005499
1064.465204	0.006620
1064.630092	0.008833
1064.794961	0.007201
1064.959812	0.006978
1065.124645	0.007115
1065.289459	0.005605
1065.454256	0.007740
1065.619034	0.008894
1065.783793	0.008174
1065.948535	0.005917
1066.113258	0.004963
1066.277964	0.006787
1066.442651	0.005993
1066.607319	0.006437
1066.771970	0.005607
1066.936602	0.004205
1067.101216	0.003035
1067.265812	0.004961
1067.430389	0.005455
1067.594949	0.005787
1067.759490	0.003662
1067.924013	0.003056
1068.088518	0.003993
1068.253004	0.004978
1068.417472	0.004027
1068.581922	0.004707
1068.746354	0.003423
1068.910768	0.003717
1069.075163	0.003700
1069.239540	0.004740
1069.403899	0.004540
1069.568240	0.004915
1069.732562	0.004830
1069.896866	0.004886
1070.061152	0.003554
1070.225420	0.003435
1070.389670	0.003598
1070.553901	0.003351
1070.718114	0.002209
1070.882309	0.003019
1071.046486	0.000625
1071.210644	0.000172
1071.374784	0.000013
1071.538906	0.002004
1071.703010	0.001085
1071.867096	0.001250
1072.031163	0.003298
1072.195212	0.004065
1072.359243	0.004565
1072.523256	0.003527
1072.687250	0.001170
1072.851226	0.002589
1073.015184	0.002473
1073.179124	0.003197
1073.343045	0.003345
1073.506949	0.003088
1073.670834	0.002027
1073.834701	0.001709
1073.998549	0.002497
1074.162380	0.006060
1074.326192	0.005281
1074.489986	0.004927
1074.653761	0.003574
1074.817519	0.002921
1074.981258	-0.000102
1075.144979	0.001580
1075.308682	0.002627
1075.472367	0.004325
1075.636033	0.001065
1075.799681	0.001667
1075.963311	0.002324
1076.126923	0.002246
1076.290516	0.004183
1076.454092	0.006323
1076.617649	0.004794
1076.781187	0.004002
1076.944708	0.003819
1077.108210	0.004202
1077.271695	0.002096
1077.435160	-0.000609
1077.598608	0.001173
1077.762038	0.000792
1077.925449	0.003125
1078.088842	0.004285
1078.252217	0.001459
1078.415573	-0.000541
1078.578912	0.001520
1078.742232	0.003843
1078.905534	0.006150
1079.068817	0.005910
1079.232083	0.005694
1079.395330	0.002918
1079.558559	0.002177
1079.721770	0.005002
1079.884962	0.006533
1080.048136	0.005717
1080.211293	0.003107
1080.374430	0.001855
1080.537550	0.001904
1080.700651	0.001886
1080.863735	0.003968
1081.026800	0.003206
1081.189846	0.001731
1081.352875	0.000439
1081.515885	-0.000501
1081.678877	0.001374
1081.841851	0.003180
1082.004807	0.001213
1082.167744	0.000711
1082.330663	-0.001102
1082.493564	-0.000047
1082.656447	0.002005
1082.819312	0.000886
1082.982158	0.001497
1083.144986	0.002971
1083.307796	0.000775
1083.470587	0.004008
1083.633361	0.004076
1083.796116	0.004408
1083.958853	0.001448
1084.121571	0.001192
1084.284272	0.002721
1084.446954	0.003238
1084.609618	0.001190
1084.772264	0.002589
1084.934892	0.003858
1085.097501	0.004744
1085.260092	0.005157
1085.422665	0.008420
1085.585220	0.007353
1085.747756	0.006167
1085.910274	0.006337
1086.072774	0.006381
1086.235256	0.005014
1086.397720	0.002712
1086.560165	0.003357
1086.722592	0.001039
1086.885001	-0.000525
1087.047392	-0.001966
1087.209764	-0.003053
1087.372119	-0.004482
1087.534455	-0.004471
1087.696772	-0.004012
1087.859072	-0.004728
1088.021353	-0.006393
1088.183616	-0.003537
1088.345861	-0.004212
1088.508088	-0.003507
1088.670296	-0.000489
1088.832486	0.001195
1088.994658	0.002266
1089.156812	0.003918
1089.318948	0.005874
1089.481065	0.004998
1089.643164	0.001913
1089.805245	0.003035
1089.967308	0.005742
1090.129352	0.006078
1090.291378	0.004643
1090.453386	0.004707
1090.615376	0.002408
1090.777347	-0.000091
1090.939301	0.002762
1091.101236	0.003203
1091.263153	0.003542
1091.425051	0.000132
1091.586932	0.001592
1091.748794	0.004919
1091.910638	0.003269
1092.072463	0.006418
1092.234271	0.006809
1092.396060	0.005269
1092.557831	0.006508
1092.719584	0.008243
1092.881319	0.008487
1093.043035	0.007194
1093.204733	0.005236
1093.366413	0.005977
1093.528075	0.005498
1093.689718	0.004838
1093.851343	0.005171
1094.012950	0.004823
1094.174539	0.004701
1094.336110	0.006582
1094.497662	0.005369
1094.659196	0.002968
1094.820712	0.003706
1094.982210	0.001809
1095.143689	0.003020
1095.305151	0.002628
1095.466594	0.000303
1095.628018	0.001287
1095.789425	0.001339
1095.950813	0.002063
1096.112183	0.001974
1096.273535	0.000848
1096.434869	0.001304
1096.596184	0.002012
1096.757482	0.001596
1096.918761	0.003930
1097.080021	0.000865
1097.241264	0.001344
1097.402488	0.000357
1097.563694	0.001451
1097.724882	0.003272
1097.886052	0.002500
1098.047203	0.003581
1098.208336	0.002327
1098.369451	0.003406
1098.530548	0.005689
1098.691627	0.003145
1098.852687	0.000493
1099.013729	0.004437
1099.174753	0.005228
1099.335758	0.005306
1099.496746	0.005478
1099.657715	0.007684
1099.818666	0.005721
1099.979599	0.005988
1100.140513	0.007212
1100.301409	0.008380
1100.462287	0.004624
1100.623147	0.003015
1100.783989	0.002874
1100.944812	-0.002507
1101.105617	-0.004740
1101.266404	-0.005114
1101.427173	-0.005840
1101.587923	-0.006998
1101.748656	-0.006009
1101.909370	-0.005112
1102.070066	-0.006309
1102.230743	-0.006316
1102.391403	-0.004621
1102.552044	-0.001240
1102.712667	-0.000088
1102.873271	-0.000407
1103.033858	0.002136
1103.194426	0.003854
1103.354976	0.005396
1103.515508	0.005542
1103.676021	0.004568
1103.836517	0.006452
1103.996994	0.003225
1104.157453	0.004228
1104.317893	0.006336
1104.478316	0.007800
1104.638720	0.006627
1104.799106	0.004806
1104.959474	0.004378
1105.119823	0.003759
1105.280155	0.002315
1105.440468	0.002306
1105.600763	0.000401
1105.761039	-0.004305
1105.921298	-0.004935
1106.081538	-0.004710
1106.241760	-0.004043
1106.401964	-0.002678
1106.562149	-0.000106
1106.722316	0.002325
1106.882465	0.002548
1107.042596	0.005671
1107.202709	0.005999
1107.362803	0.006505
1107.522879	0.004183
1107.682937	0.005984
1107.842977	0.005204
1108.002999	0.005570
1108.163002	0.004755
1108.322987	0.003697
1108.482954	0.004224
1108.642902	0.005057
1108.802833	0.002309
1108.962745	0.003139
1109.122639	0.002828
1109.282515	0.000857
1109.442372	-0.000086
1109.602211	-0.003093
1109.762032	0.000876
1109.921835	-0.003484
1110.081620	-0.004583
1110.241386	-0.003258
1110.401134	-0.000787
1110.560864	-0.003683
1110.720576	-0.005480
1110.880269	-0.007567
1111.039945	-0.001995
1111.199602	-0.007644
1111.359240	-0.005620
1111.518861	-0.007741
1111.678463	-0.008012
1111.838047	-0.009511
1111.997613	-0.007300
1112.157161	-0.003340
1112.316690	0.000122
1112.476202	-0.002604
1112.635695	-0.000773
1112.795169	0.001592
1112.954626	0.005869
1113.114064	0.002487
1113.273484	0.002846
1113.432886	0.003123
1113.592270	0.005162
1113.751635	0.001861
1113.910983	0.000839
1114.070312	0.005850
1114.229622	0.000401
1114.388915	-0.000639
1114.548189	0.008161
1114.707445	0.005480
1114.866683	0.003521
1115.025903	0.002377
1115.185104	0.009743
1115.344287	0.014592
1115.503452	0.007623
1115.662599	0.011594
1115.821727	0.013940
1115.980838	0.006845
1116.139930	0.006855
1116.299004	0.006658
1116.458059	0.006504
1116.617097	0.001746
1116.776116	0.002102
1116.935117	0.005005
1117.094099	0.004938
1117.253064	-0.002053
1117.412010	-0.000506
1117.570938	0.001435
1117.729848	-0.001659
1117.888740	-0.001979
1118.047613	-0.000707
1118.206468	-0.007179
1118.365305	-0.006139
1118.524124	-0.004772
1118.682924	-0.003063
1118.841707	-0.004678
1119.000471	0.000643
1119.159216	0.004306
1119.317944	-0.000272
1119.476653	-0.004371
1119.635344	-0.003777
1119.794017	-0.007565
1119.952672	-0.007992
1120.111308	-0.006692
1120.269927	-0.009636
1120.428527	-0.009759
1120.587108	-0.013505
1120.745672	-0.007153
1120.904217	-0.000273
1121.062744	0.002057
1121.221253	0.003363
1121.379744	0.001246
1121.538216	0.000567
1121.696671	0.005527
1121.855107	-0.005290
1122.013524	-0.003861
1122.171924	-0.009374
1122.330305	-0.014232
1122.488668	-0.016386
1122.647013	-0.010913
1122.805340	-0.016477
1122.963648	-0.015038
1123.121938	-0.015129
1123.280210	-0.008991
1123.438464	-0.007204
1123.596700	-0.004247
1123.754917	-0.003066
1123.913116	0.000206
1124.071297	0.000176
1124.229459	0.001516
1124.387604	-0.001454
1124.545730	0.005116
1124.703838	0.000200
1124.861928	0.000731
1125.019999	0.000538
1125.178052	-0.002079
1125.336088	-0.003544
1125.494104	-0.005517
1125.652103	-0.003837
1125.810083	0.001969
1125.968045	-0.003688
1126.125989	0.001503
1126.283915	-0.003241
1126.441823	-0.003686
1126.599712	0.002104
1126.757583	0.001671
1126.915436	0.000694
1127.073270	0.004017
1127.231087	0.006803
1127.388885	0.007381
1127.546665	0.008229
1127.704426	0.011167
1127.862170	0.014628
1128.019895	0.009215
1128.177602	0.010793
1128.335291	0.011749
1128.492961	0.007351
1128.650614	-0.002226
1128.808248	-0.004973
1128.965864	-0.000445
1129.123461	-0.000912
1129.281041	-0.004593
1129.438602	-0.001213
1129.596145	-0.003651
1129.753670	-0.005939
1129.911176	-0.002739
1130.068665	0.004539
1130.226135	0.006471
1130.383587	0.004815
1130.541020	0.006344
1130.698436	0.011526
1130.855833	0.013942
1131.013212	0.010137
1131.170573	0.012547
1131.327915	0.010480
1131.485239	0.003649
1131.642545	0.002371
1131.799833	-0.001955
1131.957103	-0.003657
1132.114354	-0.000260
1132.271588	-0.008473
1132.428803	-0.004446
1132.585999	-0.004474
1132.743178	0.000522
1132.900338	0.002747
1133.057480	0.000042
1133.214604	-0.000898
1133.371710	-0.000371
1133.528797	-0.005547
1133.685866	-0.003592
1133.842917	-0.002697
1133.999950	-0.004321
1134.156964	-0.008813
1134.313960	-0.003866
1134.470938	-0.002748
1134.627898	-0.006496
1134.784840	-0.004824
1134.941763	-0.007068
1135.098668	-0.006003
1135.255555	-0.001519
1135.412424	0.001846
1135.569274	0.001278
1135.726107	-0.002530
1135.882921	0.003528
1136.039716	0.009608
1136.196494	0.010126
1136.353253	0.006078
1136.509995	0.003861
1136.666717	-0.002380
1136.823422	-0.008612
1136.980109	-0.003299
1137.136777	-0.001954
1137.293427	-0.008994
1137.450059	-0.007065
1137.606672	-0.011231
1137.763267	-0.006437
1137.919844	-0.002158
1138.076403	0.003630
1138.232944	0.008332
1138.389466	0.000688
1138.545971	-0.000882
1138.702457	0.000539
1138.858924	0.000103
1139.015374	0.002825
1139.171805	0.004117
1139.328218	0.005289
1139.484613	0.001017
1139.640990	-0.000754
1139.797348	-0.000445
1139.953688	0.002247
1140.110010	-0.003682
1140.266314	-0.006044
1140.422600	-0.007803
1140.578867	-0.015747
1140.735116	-0.018441
1140.891347	-0.023429
1141.047559	-0.020631
1141.203754	-0.017462
1141.359930	-0.020649
1141.516088	-0.016579
1141.672228	-0.022241
1141.828349	-0.017395
1141.984452	-0.011441
1142.140537	-0.013457
1142.296604	-0.000437
1142.452653	0.000289
1142.608683	0.004934
1142.764695	0.005508
1142.920689	0.005854
1143.076665	0.009088
1143.232622	0.013634
1143.388562	0.022037
1143.544483	0.027866
1143.700385	0.017217
1143.856270	0.010901
1144.012136	0.003761
1144.167985	0.003045
1144.323814	0.010437
1144.479626	0.017413
1144.635420	0.010879
1144.791195	0.000714
1144.946952	-0.002256
1145.102691	0.000266
1145.258411	0.004283
1145.414113	0.006373
1145.569798	0.010945
1145.725463	0.011278
1145.881111	0.004833
1146.036741	0.003741
1146.192352	0.010554
1146.347945	0.000658
1146.503519	-0.001792
1146.659076	-0.001044
1146.814614	0.002228
1146.970134	0.001140
1147.125636	-0.010397
1147.281120	-0.010448
1147.436585	-0.007928
1147.592032	-0.011108
1147.747461	-0.002612
1147.902872	0.002270
1148.058265	-0.002888
1148.213639	-0.004432
1148.368995	0.003398
1148.524333	0.008709
1148.679653	0.012131
1148.834954	0.016342
1148.990237	0.014587
1149.145502	0.008029
1149.300749	0.009490
1149.455977	0.018219
1149.611188	0.023992
1149.766380	0.010037
1149.921553	0.009410
1150.076709	0.006882
1150.231846	-0.002563
1150.386966	-0.003309
1150.542066	0.004519
1150.697149	0.002856
1150.852214	-0.003261
1151.007260	-0.008117
1151.162288	-0.004817
1151.317298	0.002159
1151.472289	0.001036
1151.627263	-0.000976
1151.782218	0.007999
1151.937155	0.011563
1152.092073	0.005429
1152.246974	0.005399
1152.401856	0.002871
1152.556720	-0.011659
1152.711566	-0.020532
1152.866393	-0.012125
1153.021203	-0.007870
1153.175994	-0.024035
1153.330767	-0.027117
1153.485521	-0.028821
1153.640258	-0.026228
1153.794976	-0.025593
1153.949676	-0.005169
1154.104358	0.005267
1154.259021	-0.001458
1154.413667	-0.007517
1154.568294	-0.003305
1154.722903	-0.010179
1154.877493	-0.007976
1155.032066	-0.011166
1155.186620	-0.015515
1155.341156	-0.018311
1155.495674	-0.023150
1155.650173	-0.022507
1155.804654	-0.009368
1155.959118	0.000392
1156.113562	0.000549
1156.267989	0.005136
1156.422397	0.008352
1156.576788	0.012313
1156.731160	0.006453
1156.885513	-0.006099
1157.039849	-0.012816
1157.194166	-0.013496
1157.348465	-0.018088
1157.502746	-0.005348
1157.657009	-0.008798
1157.811253	-0.013624
1157.965479	-0.017881
1158.119687	-0.014910
1158.273877	0.003923
1158.428048	0.016838
1158.582201	0.010639
1158.736337	0.012747
1158.890453	0.005429
1159.044552	0.009663
1159.198632	0.017124
1159.352694	0.024023
1159.506738	0.028750
1159.660764	0.023596
1159.814771	0.017296
1159.968761	0.019455
1160.122732	0.019494
1160.276685	0.012450
1160.430619	0.015936
1160.584535	0.013584
1160.738434	0.017682
1160.892313	0.020265
1161.046175	0.021454
1161.200019	0.011978
1161.353844	0.009835
1161.507651	0.010544
1161.661440	0.021122
1161.815210	0.009673
1161.968962	0.005531
1162.122697	-0.015460
1162.276412	-0.016273
1162.430110	-0.019437
1162.583789	-0.010136
1162.737451	-0.010801
1162.891094	-0.015478
1163.044718	-0.025232
1163.198325	-0.027746
1163.351913	-0.035456
1163.505483	-0.020438
1163.659035	-0.022112
1163.812569	-0.014562
1163.966084	-0.010792
1164.119581	-0.001954
1164.273060	-0.002133
1164.426521	0.001075
1164.579964	0.002840
1164.733388	0.018274
1164.886794	0.022968
1165.040182	0.017692
1165.193551	0.000222
1165.346903	0.005156
1165.500236	0.000463
1165.653551	0.011353
1165.806848	0.006183
1165.960126	-0.000998
1166.113386	-0.013056
1166.266628	-0.016210
1166.419852	0.002316
1166.573058	0.013313
1166.726245	0.006250
1166.879414	-0.010344
1167.032565	-0.021692
1167.185698	-0.016236
1167.338812	0.000059
1167.491909	0.017191
1167.644987	0.007982
1167.798046	-0.009064
1167.951088	-0.017535
1168.104111	-0.022518
1168.257117	-0.004178
1168.410103	-0.005445
1168.563072	-0.008202
1168.716023	-0.016471
1168.868955	-0.028966
1169.021869	-0.021445
1169.174765	-0.030509
1169.327642	-0.024361
1169.480501	-0.041753
1169.633343	-0.041183
1169.786165	-0.028904
1169.938970	-0.024922
1170.091757	-0.013061
1170.244525	0.008058
1170.397275	0.001061
1170.550007	0.015294
1170.702720	-0.003357
1170.855415	0.018356
1171.008092	0.014957
1171.160751	0.006794
1171.313392	0.011697
1171.466014	-0.014974
1171.618619	0.034833
1171.771205	0.034833
1171.923772	0.034833
