sample name	sample
index	583
start time	 03-16-2021  03:58:32 PM


Wavelength (nm)	Absorbance
494.344910	0.925585
494.563924	0.925585
494.782919	0.925585
495.001897	NaN
495.220856	2.094541
495.439797	0.334688
495.658719	-0.081347
495.877624	-0.260036
496.096510	-0.381430
496.315378	-0.383777
496.534227	-0.469650
496.753059	-0.467170
496.971872	-0.437504
497.190667	-0.024165
497.409444	-0.002362
497.628203	0.006756
497.846943	0.005632
498.065665	0.008726
498.284369	0.008709
498.503055	0.009675
498.721723	0.009027
498.940372	0.009886
499.159003	0.010826
499.377616	0.011254
499.596210	0.011856
499.814787	0.012592
500.033345	0.011608
500.251885	0.011431
500.470406	0.011180
500.688910	0.010946
500.907395	0.010714
501.125862	0.010339
501.344311	0.009938
501.562742	0.009545
501.781154	0.010235
501.999548	0.011551
502.217924	0.010103
502.436282	0.010345
502.654621	0.010911
502.872942	0.009674
503.091245	0.008350
503.309530	0.008207
503.527797	0.007901
503.746045	0.006426
503.964275	0.004992
504.182487	0.006253
504.400681	0.005669
504.618856	0.006301
504.837013	0.008671
505.055152	0.008579
505.273273	0.009860
505.491376	0.009130
505.709460	0.010184
505.927526	0.009992
506.145574	0.009977
506.363604	0.009851
506.581615	0.008837
506.799608	0.007191
507.017583	0.006430
507.235540	0.005656
507.453478	0.005549
507.671399	0.005880
507.889301	0.006447
508.107185	0.006137
508.325050	0.006964
508.542898	0.007824
508.760727	0.008075
508.978538	0.008747
509.196330	0.009839
509.414105	0.009369
509.631861	0.009463
509.849599	0.009142
510.067319	0.009459
510.285021	0.009013
510.502704	0.008377
510.720369	0.008258
510.938016	0.007604
511.155645	0.006492
511.373255	0.007049
511.590848	0.006620
511.808422	0.006622
512.025977	0.006973
512.243515	0.007634
512.461034	0.007340
512.678536	0.007315
512.896018	0.008405
513.113483	0.007470
513.330930	0.007964
513.548358	0.007347
513.765768	0.007702
513.983160	0.006997
514.200533	0.005668
514.417889	0.005634
514.635226	0.004948
514.852545	0.004213
515.069845	0.004468
515.287128	0.004189
515.504392	0.003964
515.721638	0.004028
515.938866	0.004345
516.156075	0.004652
516.373267	0.004529
516.590440	0.004895
516.807594	0.005499
517.024731	0.005604
517.241850	0.005753
517.458950	0.005778
517.676032	0.005331
517.893095	0.005282
518.110141	0.006050
518.327168	0.005625
518.544177	0.006239
518.761168	0.006770
518.978141	0.006751
519.195095	0.006123
519.412031	0.006367
519.628949	0.007017
519.845849	0.006205
520.062731	0.006267
520.279594	0.006305
520.496439	0.006149
520.713266	0.004480
520.930074	0.005279
521.146865	0.005300
521.363637	0.005428
521.580391	0.005258
521.797127	0.006157
522.013844	0.005081
522.230543	0.005355
522.447224	0.005047
522.663887	0.005765
522.880532	0.004908
523.097158	0.004906
523.313766	0.005015
523.530356	0.004754
523.746928	0.004536
523.963481	0.004938
524.180017	0.004899
524.396534	0.005122
524.613032	0.005417
524.829513	0.005485
525.045975	0.005350
525.262420	0.005295
525.478845	0.004970
525.695253	0.004143
525.911643	0.004453
526.128014	0.004382
526.344367	0.003618
526.560702	0.003131
526.777018	0.003171
526.993316	0.003258
527.209597	0.003315
527.425858	0.002949
527.642102	0.003396
527.858328	0.003648
528.074535	0.003759
528.290724	0.003704
528.506894	0.003903
528.723047	0.003363
528.939181	0.003100
529.155297	0.002308
529.371395	0.002412
529.587475	0.001654
529.803536	0.001353
530.019579	0.001113
530.235604	0.001574
530.451611	0.001452
530.667600	0.001445
530.883570	0.001272
531.099522	0.001817
531.315456	0.001938
531.531372	0.002412
531.747269	0.002214
531.963148	0.002410
532.179009	0.002502
532.394852	0.002288
532.610676	0.002707
532.826482	0.003046
533.042271	0.003132
533.258040	0.003080
533.473792	0.003655
533.689525	0.004031
533.905240	0.004335
534.120937	0.004316
534.336616	0.004525
534.552277	0.005026
534.767919	0.004908
534.983543	0.005193
535.199149	0.005005
535.414736	0.004296
535.630306	0.003749
535.845857	0.003683
536.061390	0.003518
536.276904	0.003463
536.492401	0.002818
536.707879	0.002832
536.923339	0.002247
537.138781	0.002307
537.354204	0.002992
537.569610	0.003196
537.784997	0.003071
538.000366	0.003400
538.215716	0.003578
538.431049	0.003738
538.646363	0.004125
538.861659	0.004613
539.076937	0.005578
539.292196	0.005258
539.507438	0.005805
539.722661	0.005561
539.937866	0.005009
540.153052	0.004639
540.368221	0.004866
540.583371	0.004530
540.798503	0.004589
541.013617	0.004152
541.228712	0.004195
541.443789	0.003771
541.658848	0.003413
541.873889	0.003930
542.088912	0.004116
542.303916	0.003607
542.518902	0.003782
542.733870	0.003295
542.948820	0.002807
543.163752	0.002897
543.378665	0.002853
543.593560	0.003330
543.808437	0.002578
544.023295	0.002405
544.238136	0.002716
544.452958	0.002324
544.667762	0.002336
544.882548	0.002393
545.097315	0.002282
545.312064	0.001730
545.526795	0.001771
545.741508	0.002472
545.956203	0.002515
546.170879	0.002153
546.385537	0.002055
546.600177	0.001987
546.814799	0.001707
547.029402	0.001842
547.243988	0.002072
547.458555	0.001738
547.673103	0.001328
547.887634	0.001702
548.102146	0.001875
548.316640	0.001927
548.531116	0.001840
548.745574	0.002437
548.960013	0.002098
549.174435	0.002147
549.388838	0.002486
549.603222	0.002563
549.817589	0.002454
550.031937	0.002427
550.246267	0.002660
550.460579	0.003014
550.674873	0.002910
550.889148	0.002803
551.103405	0.002870
551.317644	0.002654
551.531865	0.002622
551.746068	0.002144
551.960252	0.001974
552.174418	0.002094
552.388566	0.001943
552.602696	0.001802
552.816807	0.001829
553.030900	0.001485
553.244975	0.001534
553.459032	0.002095
553.673070	0.002375
553.887091	0.002248
554.101093	0.001764
554.315077	0.001417
554.529042	0.001393
554.742990	0.001757
554.956919	0.001976
555.170830	0.002077
555.384722	0.001172
555.598597	0.000459
555.812453	0.000182
556.026291	0.000767
556.240111	0.001304
556.453913	0.000950
556.667696	0.000808
556.881461	0.001070
557.095208	0.000883
557.308937	0.001165
557.522647	0.001715
557.736339	0.002129
557.950013	0.001881
558.163669	0.001351
558.377307	0.001503
558.590926	0.001486
558.804527	0.001080
559.018110	0.000986
559.231675	0.000596
559.445221	0.000874
559.658749	0.000838
559.872259	0.000476
560.085751	0.000378
560.299225	-0.000096
560.512680	-0.000330
560.726117	-0.000178
560.939536	-0.000459
561.152937	-0.000069
561.366319	-0.000260
561.579683	-0.000168
561.793029	0.000500
562.006357	0.000627
562.219667	0.001108
562.432958	0.000958
562.646231	0.001239
562.859486	0.001534
563.072723	0.001210
563.285941	0.000817
563.499141	0.000964
563.712323	0.000380
563.925487	0.000056
564.138632	0.000054
564.351760	-0.000008
564.564869	-0.000145
564.777960	-0.000571
564.991032	-0.000185
565.204087	0.000003
565.417123	-0.000328
565.630141	0.000121
565.843140	0.000796
566.056122	0.000514
566.269085	0.000959
566.482030	0.000739
566.694957	0.001285
566.907866	0.000822
567.120756	0.000853
567.333628	0.000568
567.546482	0.000207
567.759318	-0.000251
567.972135	-0.000203
568.184935	-0.000744
568.397716	-0.000842
568.610478	-0.001079
568.823223	-0.000813
569.035949	-0.000831
569.248657	-0.000621
569.461347	-0.000468
569.674019	-0.000525
569.886672	-0.000345
570.099308	0.000135
570.311925	-0.000125
570.524523	-0.000208
570.737104	-0.000285
570.949666	-0.000686
571.162210	-0.000523
571.374736	-0.000905
571.587244	-0.001276
571.799733	-0.001311
572.012205	-0.001956
572.224658	-0.001760
572.437092	-0.001652
572.649509	-0.001670
572.861907	-0.001234
573.074287	-0.001214
573.286649	-0.001020
573.498993	-0.000581
573.711318	-0.000763
573.923625	-0.000450
574.135914	-0.000279
574.348185	-0.000207
574.560438	-0.000272
574.772672	-0.000428
574.984888	-0.000248
575.197086	-0.000182
575.409266	-0.000301
575.621427	0.000057
575.833570	0.000271
576.045695	0.000179
576.257802	-0.000114
576.469890	0.000126
576.681961	0.000212
576.894013	-0.000015
577.106046	-0.000040
577.318062	0.000172
577.530059	0.000120
577.742039	0.000108
577.954000	0.000210
578.165942	0.000325
578.377867	0.000168
578.589773	0.000280
578.801661	0.000049
579.013531	-0.000153
579.225382	-0.000512
579.437216	-0.000663
579.649031	-0.000942
579.860828	-0.001232
580.072606	-0.001208
580.284367	-0.000751
580.496109	-0.000824
580.707833	-0.000536
580.919539	-0.000358
581.131227	-0.000008
581.342896	0.000113
581.554547	0.000575
581.766180	0.000954
581.977795	0.001227
582.189391	0.000693
582.400969	0.000698
582.612529	0.000487
582.824071	0.000246
583.035595	0.000290
583.247100	0.000294
583.458587	-0.000135
583.670056	-0.000024
583.881506	-0.000485
584.092939	-0.000038
584.304353	-0.000048
584.515749	0.000093
584.727127	0.000146
584.938486	0.000164
585.149828	0.000298
585.361151	0.000330
585.572456	-0.000015
585.783742	0.000175
585.995011	-0.000005
586.206261	-0.000242
586.417493	-0.000314
586.628706	-0.000284
586.839902	-0.000104
587.051079	-0.000462
587.262238	-0.000478
587.473379	-0.000730
587.684502	-0.000559
587.895606	-0.000564
588.106692	-0.000283
588.317760	-0.000141
588.528810	-0.000255
588.739841	-0.000535
588.950855	-0.000289
589.161850	-0.000325
589.372827	-0.000078
589.583785	-0.000144
589.794726	-0.000325
590.005648	-0.000342
590.216552	-0.000530
590.427437	-0.000454
590.638305	-0.000432
590.849154	-0.000396
591.059985	-0.000352
591.270798	-0.000220
591.481592	-0.000258
591.692369	-0.000300
591.903127	-0.000598
592.113867	-0.000476
592.324588	-0.000544
592.535292	-0.000372
592.745977	-0.000808
592.956644	-0.000503
593.167293	-0.000459
593.377923	-0.000670
593.588536	-0.000714
593.799130	-0.000489
594.009706	-0.000445
594.220263	-0.000293
594.430803	-0.000569
594.641324	-0.000426
594.851827	-0.000582
595.062312	-0.000836
595.272778	-0.000434
595.483227	-0.000604
595.693657	-0.001126
595.904069	-0.001210
596.114462	-0.000980
596.324838	-0.001057
596.535195	-0.001261
596.745534	-0.001218
596.955855	-0.001291
597.166157	-0.001170
597.376441	-0.001104
597.586707	-0.001135
597.796955	-0.001376
598.007185	-0.001664
598.217396	-0.001535
598.427589	-0.001154
598.637764	-0.001225
598.847921	-0.001101
599.058060	-0.001487
599.268180	-0.001292
599.478282	-0.000829
599.688366	-0.000567
599.898431	-0.000516
600.108479	-0.000394
600.318508	-0.000466
600.528519	-0.000509
600.738511	-0.000539
600.948486	-0.000629
601.158442	-0.000749
601.368380	-0.000940
601.578300	-0.001126
601.788202	-0.001098
601.998085	-0.001440
602.207950	-0.001083
602.417797	-0.001208
602.627626	-0.001259
602.837436	-0.000918
603.047228	-0.000627
603.257002	-0.000323
603.466758	-0.000174
603.676496	-0.000159
603.886215	0.000092
604.095916	-0.000001
604.305599	0.000054
604.515264	-0.000032
604.724910	-0.000077
604.934538	-0.000189
605.144148	-0.000533
605.353740	-0.000622
605.563314	-0.000864
605.772869	-0.000889
605.982406	-0.001204
606.191925	-0.001236
606.401425	-0.001227
606.610908	-0.001468
606.820372	-0.001611
607.029818	-0.001635
607.239246	-0.001669
607.448655	-0.001725
607.658047	-0.001859
607.867420	-0.001886
608.076775	-0.001821
608.286111	-0.001590
608.495430	-0.001600
608.704730	-0.001564
608.914012	-0.001428
609.123275	-0.001421
609.332521	-0.001306
609.541748	-0.001267
609.750957	-0.001161
609.960148	-0.001084
610.169321	-0.001255
610.378475	-0.001242
610.587611	-0.001281
610.796729	-0.001200
611.005829	-0.001429
611.214910	-0.001185
611.423974	-0.001406
611.633019	-0.001465
611.842045	-0.001661
612.051054	-0.001481
612.260044	-0.001559
612.469017	-0.001438
612.677970	-0.001379
612.886906	-0.001122
613.095824	-0.001366
613.304723	-0.001076
613.513604	-0.000998
613.722467	-0.000958
613.931311	-0.001380
614.140138	-0.001355
614.348946	-0.001277
614.557736	-0.001287
614.766507	-0.001447
614.975261	-0.001491
615.183996	-0.001546
615.392713	-0.001445
615.601412	-0.001155
615.810092	-0.000743
616.018754	-0.000653
616.227399	-0.000956
616.436024	-0.000933
616.644632	-0.000778
616.853222	-0.000357
617.061793	-0.000293
617.270346	-0.000336
617.478880	-0.000596
617.687397	-0.000771
617.895895	-0.000747
618.104375	-0.000665
618.312837	-0.000482
618.521281	-0.000426
618.729706	-0.000748
618.938113	-0.000695
619.146502	-0.000761
619.354873	-0.000859
619.563226	-0.000579
619.771560	-0.000992
619.979876	-0.001136
620.188174	-0.001366
620.396453	-0.001557
620.604715	-0.001668
620.812958	-0.001870
621.021183	-0.001920
621.229390	-0.001847
621.437578	-0.002168
621.645748	-0.001608
621.853900	-0.001593
622.062034	-0.001583
622.270150	-0.001564
622.478247	-0.001315
622.686326	-0.001218
622.894387	-0.001301
623.102430	-0.001284
623.310454	-0.001451
623.518461	-0.001663
623.726449	-0.001659
623.934418	-0.001822
624.142370	-0.001692
624.350303	-0.001877
624.558218	-0.001881
624.766115	-0.001835
624.973994	-0.001688
625.181855	-0.001394
625.389697	-0.001490
625.597521	-0.001650
625.805327	-0.001442
626.013114	-0.001648
626.220883	-0.001592
626.428634	-0.001793
626.636367	-0.001921
626.844082	-0.002265
627.051778	-0.002278
627.259457	-0.002362
627.467117	-0.002206
627.674758	-0.002291
627.882382	-0.002181
628.089987	-0.002040
628.297574	-0.001855
628.505143	-0.001737
628.712694	-0.001461
628.920226	-0.001527
629.127740	-0.001253
629.335236	-0.000996
629.542714	-0.000885
629.750174	-0.000942
629.957615	-0.001109
630.165038	-0.001183
630.372443	-0.001249
630.579829	-0.001524
630.787198	-0.001640
630.994548	-0.001762
631.201880	-0.001964
631.409194	-0.002001
631.616489	-0.001805
631.823766	-0.001714
632.031025	-0.001533
632.238266	-0.001691
632.445489	-0.001341
632.652693	-0.001173
632.859879	-0.001034
633.067047	-0.000974
633.274197	-0.000758
633.481329	-0.000944
633.688442	-0.000925
633.895537	-0.000923
634.102614	-0.000724
634.309672	-0.000966
634.516713	-0.001005
634.723735	-0.001036
634.930739	-0.001152
635.137724	-0.001275
635.344692	-0.001191
635.551641	-0.001145
635.758572	-0.001164
635.965485	-0.001146
636.172379	-0.001087
636.379256	-0.000958
636.586114	-0.001217
636.792954	-0.000881
636.999775	-0.001068
637.206579	-0.001040
637.413364	-0.001241
637.620131	-0.001246
637.826880	-0.001293
638.033610	-0.001146
638.240323	-0.001341
638.447017	-0.001392
638.653692	-0.001601
638.860350	-0.001492
639.066990	-0.001434
639.273611	-0.001295
639.480214	-0.001351
639.686798	-0.001275
639.893365	-0.001355
640.099913	-0.001260
640.306443	-0.001013
640.512955	-0.001093
640.719449	-0.001440
640.925924	-0.001521
641.132381	-0.001641
641.338820	-0.001553
641.545241	-0.001655
641.751644	-0.001744
641.958028	-0.001915
642.164394	-0.001886
642.370742	-0.002003
642.577071	-0.001559
642.783383	-0.001479
642.989676	-0.001273
643.195951	-0.001280
643.402207	-0.001129
643.608446	-0.001144
643.814666	-0.000954
644.020868	-0.000993
644.227052	-0.000683
644.433218	-0.000925
644.639365	-0.000900
644.845494	-0.001077
645.051605	-0.001342
645.257698	-0.001550
645.463772	-0.001634
645.669828	-0.001844
645.875866	-0.001895
646.081886	-0.001869
646.287888	-0.001873
646.493871	-0.001973
646.699836	-0.001820
646.905783	-0.001617
647.111712	-0.001456
647.317622	-0.001316
647.523514	-0.001004
647.729388	-0.001001
647.935244	-0.001040
648.141082	-0.000993
648.346901	-0.001273
648.552702	-0.001412
648.758485	-0.001485
648.964250	-0.001613
649.169996	-0.001624
649.375724	-0.001767
649.581434	-0.001661
649.787126	-0.001946
649.992800	-0.001689
650.198455	-0.001500
650.404092	-0.001231
650.609711	-0.001098
650.815311	-0.000885
651.020894	-0.000916
651.226458	-0.000858
651.432004	-0.000875
651.637532	-0.000923
651.843041	-0.001303
652.048532	-0.001118
652.254006	-0.001209
652.459460	-0.001019
652.664897	-0.001032
652.870315	-0.001053
653.075716	-0.001163
653.281097	-0.001256
653.486461	-0.000927
653.691807	-0.000693
653.897134	-0.000874
654.102443	-0.001144
654.307734	-0.001545
654.513006	-0.001556
654.718261	-0.001585
654.923497	-0.001623
655.128715	-0.001571
655.333915	-0.001969
655.539096	-0.002208
655.744259	-0.001985
655.949404	-0.001985
656.154531	-0.001859
656.359640	-0.002074
656.564730	-0.001924
656.769802	-0.001770
656.974856	-0.001962
657.179892	-0.001663
657.384909	-0.001636
657.589908	-0.001732
657.794889	-0.001629
657.999852	-0.001639
658.204797	-0.001624
658.409723	-0.001708
658.614631	-0.001880
658.819521	-0.001731
659.024393	-0.001675
659.229246	-0.001396
659.434081	-0.001519
659.638898	-0.001442
659.843697	-0.001584
660.048478	-0.001505
660.253240	-0.001679
660.457984	-0.001430
660.662710	-0.001528
660.867417	-0.001572
661.072107	-0.001853
661.276778	-0.002112
661.481431	-0.002067
661.686066	-0.001880
661.890682	-0.001861
662.095281	-0.001745
662.299861	-0.002007
662.504422	-0.002034
662.708966	-0.002133
662.913491	-0.001997
663.117999	-0.001566
663.322488	-0.001704
663.526958	-0.001731
663.731411	-0.001580
663.935845	-0.001534
664.140261	-0.001225
664.344659	-0.001199
664.549038	-0.001057
664.753400	-0.001058
664.957743	-0.001158
665.162068	-0.001140
665.366375	-0.001344
665.570663	-0.001435
665.774933	-0.001444
665.979185	-0.001700
666.183419	-0.001613
666.387635	-0.001836
666.591832	-0.001904
666.796011	-0.001937
667.000172	-0.001961
667.204315	-0.001822
667.408439	-0.001911
667.612545	-0.001745
667.816634	-0.001715
668.020703	-0.001684
668.224755	-0.001454
668.428788	-0.001399
668.632803	-0.001470
668.836800	-0.001386
669.040779	-0.001428
669.244739	-0.001314
669.448681	-0.001355
669.652605	-0.001296
669.856511	-0.001245
670.060399	-0.001184
670.264268	-0.001209
670.468119	-0.001288
670.671952	-0.001461
670.875767	-0.001444
671.079563	-0.001553
671.283341	-0.001662
671.487101	-0.001653
671.690843	-0.001656
671.894567	-0.001778
672.098272	-0.001775
672.301959	-0.001666
672.505628	-0.001367
672.709278	-0.001256
672.912911	-0.001243
673.116525	-0.001278
673.320121	-0.001085
673.523699	-0.001235
673.727258	-0.001142
673.930799	-0.001120
674.134322	-0.000905
674.337827	-0.000943
674.541314	-0.001032
674.744782	-0.000794
674.948232	-0.000824
675.151664	-0.001027
675.355078	-0.000898
675.558474	-0.001008
675.761851	-0.001125
675.965210	-0.001441
676.168551	-0.001595
676.371873	-0.001469
676.575178	-0.001652
676.778464	-0.001555
676.981732	-0.001598
677.184981	-0.001659
677.388213	-0.001475
677.591426	-0.001322
677.794621	-0.001120
677.997798	-0.001136
678.200956	-0.001226
678.404097	-0.001105
678.607219	-0.000998
678.810323	-0.000931
679.013408	-0.000902
679.216476	-0.000911
679.419525	-0.001041
679.622556	-0.001064
679.825569	-0.001005
680.028563	-0.001023
680.231540	-0.001118
680.434498	-0.001294
680.637438	-0.001265
680.840359	-0.001381
681.043263	-0.001433
681.246148	-0.001308
681.449015	-0.001320
681.651864	-0.001075
681.854694	-0.001122
682.057506	-0.001113
682.260301	-0.001048
682.463076	-0.001137
682.665834	-0.000863
682.868573	-0.000864
683.071295	-0.000833
683.273998	-0.000873
683.476682	-0.001218
683.679349	-0.001139
683.881997	-0.001178
684.084627	-0.001199
684.287239	-0.001190
684.489833	-0.001293
684.692408	-0.001400
684.894965	-0.001475
685.097504	-0.001336
685.300025	-0.001221
685.502527	-0.001164
685.705012	-0.001046
685.907478	-0.001215
686.109925	-0.001144
686.312355	-0.001002
686.514766	-0.000938
686.717159	-0.000920
686.919534	-0.001014
687.121891	-0.000926
687.324230	-0.000962
687.526550	-0.001056
687.728852	-0.000830
687.931136	-0.000908
688.133401	-0.001017
688.335649	-0.001011
688.537878	-0.001078
688.740089	-0.001023
688.942281	-0.000992
689.144456	-0.000992
689.346612	-0.000839
689.548750	-0.000896
689.750870	-0.000900
689.952971	-0.000969
690.155055	-0.001017
690.357120	-0.000944
690.559167	-0.000793
690.761195	-0.000920
690.963206	-0.000989
691.165198	-0.001093
691.367172	-0.001180
691.569128	-0.001089
691.771065	-0.001251
691.972984	-0.001067
692.174885	-0.001170
692.376768	-0.001346
692.578633	-0.001384
692.780479	-0.001325
692.982308	-0.001301
693.184118	-0.001080
693.385909	-0.001199
693.587683	-0.000981
693.789438	-0.001071
693.991175	-0.001003
694.192894	-0.001049
694.394595	-0.001021
694.596277	-0.000851
694.797941	-0.001042
694.999587	-0.001083
695.201215	-0.001073
695.402824	-0.001168
695.604416	-0.001206
695.805989	-0.001238
696.007543	-0.001129
696.209080	-0.001218
696.410598	-0.001333
696.612099	-0.001070
696.813580	-0.000998
697.015044	-0.000822
697.216490	-0.000710
697.417917	-0.000789
697.619326	-0.000675
697.820717	-0.000540
698.022089	-0.000337
698.223444	-0.000363
698.424780	-0.000450
698.626098	-0.000463
698.827397	-0.000483
699.028679	-0.000513
699.229942	-0.000571
699.431187	-0.000470
699.632414	-0.000614
699.833622	-0.000751
700.034813	-0.000779
700.235985	-0.000991
700.437139	-0.001222
700.638274	-0.001448
700.839392	-0.001434
701.040491	-0.001557
701.241572	-0.001418
701.442635	-0.001445
701.643679	-0.001207
701.844706	-0.001226
702.045714	-0.001180
702.246704	-0.000964
702.447675	-0.000805
702.648629	-0.000876
702.849564	-0.000501
703.050481	-0.000665
703.251380	-0.000693
703.452260	-0.000925
703.653122	-0.000985
703.853966	-0.000916
704.054792	-0.000968
704.255600	-0.001024
704.456389	-0.001067
704.657160	-0.001125
704.857913	-0.001419
705.058648	-0.001387
705.259365	-0.001198
705.460063	-0.001138
705.660743	-0.001145
705.861405	-0.001052
706.062048	-0.001103
706.262674	-0.000817
706.463281	-0.000857
706.663870	-0.000703
706.864441	-0.000642
707.064993	-0.000875
707.265527	-0.000807
707.466043	-0.000804
707.666541	-0.001138
707.867021	-0.001068
708.067482	-0.001224
708.267925	-0.001355
708.468350	-0.001523
708.668757	-0.001703
708.869145	-0.001735
709.069516	-0.001647
709.269868	-0.001627
709.470201	-0.001380
709.670517	-0.001319
709.870814	-0.001393
710.071093	-0.001308
710.271354	-0.001166
710.471597	-0.001147
710.671821	-0.001071
710.872028	-0.001319
711.072216	-0.001306
711.272385	-0.001362
711.472537	-0.001398
711.672670	-0.001267
711.872785	-0.001264
712.072882	-0.001198
712.272961	-0.001092
712.473021	-0.001126
712.673063	-0.001099
712.873087	-0.001312
713.073093	-0.001448
713.273081	-0.001493
713.473050	-0.001655
713.673001	-0.001541
713.872934	-0.001515
714.072849	-0.001559
714.272745	-0.001622
714.472623	-0.001610
714.672483	-0.001445
714.872325	-0.001442
715.072148	-0.001450
715.271954	-0.001589
715.471741	-0.001773
715.671509	-0.001905
715.871260	-0.001967
716.070992	-0.002063
716.270707	-0.002095
716.470403	-0.001967
716.670080	-0.001857
716.869740	-0.001959
717.069381	-0.001837
717.269004	-0.001866
717.468609	-0.001986
717.668195	-0.001952
717.867764	-0.001914
718.067314	-0.002015
718.266846	-0.002194
718.466360	-0.002396
718.665855	-0.002427
718.865332	-0.002576
719.064791	-0.002400
719.264232	-0.002282
719.463655	-0.002307
719.663059	-0.002143
719.862445	-0.002124
720.061813	-0.002102
720.261163	-0.001814
720.460494	-0.001645
720.659807	-0.001682
720.859102	-0.001766
721.058379	-0.001734
721.257638	-0.001753
721.456878	-0.001788
721.656100	-0.001783
721.855304	-0.001732
722.054490	-0.001864
722.253657	-0.002063
722.452806	-0.002137
722.651937	-0.002358
722.851050	-0.002491
723.050145	-0.002548
723.249221	-0.002712
723.448279	-0.002703
723.647319	-0.002664
723.846340	-0.002876
724.045344	-0.002980
724.244329	-0.002897
724.443296	-0.002866
724.642245	-0.002915
724.841175	-0.002885
725.040088	-0.002845
725.238982	-0.002785
725.437857	-0.002996
725.636715	-0.002858
725.835554	-0.002901
726.034376	-0.002932
726.233179	-0.002979
726.431963	-0.002926
726.630730	-0.003044
726.829478	-0.002963
727.028208	-0.002982
727.226920	-0.003068
727.425614	-0.003032
727.624289	-0.002800
727.822946	-0.002585
728.021585	-0.002700
728.220206	-0.002570
728.418808	-0.002744
728.617392	-0.002858
728.815958	-0.002971
729.014506	-0.002972
729.213036	-0.003077
729.411547	-0.003330
729.610040	-0.003623
729.808515	-0.003377
730.006972	-0.003563
730.205410	-0.003430
730.403831	-0.003445
730.602233	-0.003510
730.800616	-0.003554
730.998982	-0.003687
731.197329	-0.003674
731.395658	-0.003646
731.593969	-0.003781
731.792262	-0.003735
731.990536	-0.003756
732.188793	-0.003600
732.387031	-0.003649
732.585250	-0.003665
732.783452	-0.003441
732.981635	-0.003303
733.179800	-0.003202
733.377947	-0.003281
733.576076	-0.003354
733.774186	-0.003429
733.972278	-0.003523
734.170352	-0.003374
734.368408	-0.003411
734.566446	-0.003645
734.764465	-0.003536
734.962466	-0.003601
735.160449	-0.003615
735.358413	-0.003540
735.556360	-0.003592
735.754288	-0.003652
735.952198	-0.003759
736.150090	-0.003637
736.347963	-0.003504
736.545818	-0.003789
736.743655	-0.003771
736.941474	-0.003821
737.139275	-0.003920
737.337057	-0.003812
737.534821	-0.003734
737.732567	-0.003798
737.930295	-0.003775
738.128005	-0.003847
738.325696	-0.003809
738.523369	-0.003975
738.721024	-0.004071
738.918660	-0.004244
739.116279	-0.004327
739.313879	-0.004414
739.511461	-0.004209
739.709024	-0.004313
739.906570	-0.004358
740.104097	-0.004581
740.301606	-0.004480
740.499097	-0.004464
740.696569	-0.004180
740.894024	-0.004376
741.091460	-0.004521
741.288878	-0.004807
741.486277	-0.004844
741.683659	-0.004916
741.881022	-0.004613
742.078367	-0.004659
742.275694	-0.004637
742.473002	-0.004683
742.670293	-0.004480
742.867565	-0.004622
743.064819	-0.004541
743.262054	-0.004699
743.459272	-0.004647
743.656471	-0.004480
743.853652	-0.004493
744.050815	-0.004462
744.247959	-0.004637
744.445085	-0.004514
744.642194	-0.004563
744.839283	-0.004554
745.036355	-0.004549
745.233408	-0.004303
745.430444	-0.004495
745.627461	-0.004376
745.824459	-0.004191
746.021440	-0.004323
746.218402	-0.004295
746.415346	-0.004183
746.612272	-0.003997
746.809180	-0.003658
747.006069	-0.003976
747.202940	-0.004206
747.399793	-0.004457
747.596628	-0.004694
747.793444	-0.004451
747.990243	-0.004504
748.187023	-0.004335
748.383784	-0.004377
748.580528	-0.004460
748.777253	-0.004487
748.973960	-0.004332
749.170649	-0.004062
749.367320	-0.003855
749.563973	-0.003878
749.760607	-0.004024
749.957223	-0.004119
750.153821	-0.004191
750.350400	-0.004234
750.546962	-0.004033
750.743505	-0.003942
750.940030	-0.004020
751.136536	-0.003949
751.333025	-0.003953
751.529495	-0.003935
751.725947	-0.003596
751.922381	-0.003548
752.118796	-0.003628
752.315194	-0.003668
752.511573	-0.003569
752.707934	-0.003563
752.904276	-0.003805
753.100601	-0.003589
753.296907	-0.003526
753.493195	-0.003967
753.689465	-0.003958
753.885716	-0.003741
754.081949	-0.003560
754.278164	-0.003566
754.474361	-0.003525
754.670540	-0.003415
754.866700	-0.003645
755.062843	-0.003560
755.258967	-0.003367
755.455072	-0.003090
755.651160	-0.003018
755.847229	-0.003069
756.043280	-0.003125
756.239313	-0.002920
756.435328	-0.002890
756.631324	-0.002636
756.827302	-0.002567
757.023262	-0.002375
757.219204	-0.002540
757.415127	-0.002598
757.611033	-0.002594
757.806920	-0.002500
758.002788	-0.002508
758.198639	-0.002282
758.394471	-0.002434
758.590286	-0.002374
758.786081	-0.002263
758.981859	-0.002587
759.177619	-0.002671
759.373360	-0.002777
759.569083	-0.002913
759.764788	-0.003014
759.960474	-0.003245
760.156143	-0.003184
760.351793	-0.003208
760.547425	-0.003277
760.743038	-0.003165
760.938634	-0.003028
761.134211	-0.002896
761.329770	-0.002786
761.525311	-0.002755
761.720833	-0.002772
761.916338	-0.002688
762.111824	-0.002639
762.307292	-0.002837
762.502741	-0.002529
762.698173	-0.002535
762.893586	-0.002794
763.088981	-0.002815
763.284358	-0.002801
763.479716	-0.002666
763.675057	-0.002536
763.870379	-0.002698
764.065683	-0.002688
764.260968	-0.002929
764.456236	-0.002956
764.651485	-0.002604
764.846716	-0.002593
765.041929	-0.002674
765.237123	-0.002614
765.432299	-0.002751
765.627457	-0.002425
765.822597	-0.002167
766.017719	-0.001977
766.212822	-0.001981
766.407907	-0.002112
766.602974	-0.002038
766.798023	-0.001990
766.993054	-0.002001
767.188066	-0.001942
767.383060	-0.002254
767.578036	-0.002446
767.772993	-0.002277
767.967933	-0.002429
768.162854	-0.002281
768.357757	-0.002321
768.552642	-0.002224
768.747508	-0.002310
768.942356	-0.002471
769.137186	-0.002450
769.331998	-0.002458
769.526792	-0.002755
769.721567	-0.002593
769.916324	-0.002684
770.111063	-0.002548
770.305784	-0.002567
770.500486	-0.002505
770.695171	-0.002447
770.889837	-0.002242
771.084484	-0.002147
771.279114	-0.002152
771.473725	-0.002228
771.668318	-0.002232
771.862893	-0.002432
772.057450	-0.002400
772.251988	-0.002351
772.446509	-0.002415
772.641011	-0.002592
772.835494	-0.002558
773.029960	-0.002541
773.224407	-0.002378
773.418836	-0.002571
773.613247	-0.002606
773.807640	-0.002545
774.002014	-0.002650
774.196370	-0.002186
774.390708	-0.002071
774.585028	-0.002153
774.779330	-0.001869
774.973613	-0.002229
775.167878	-0.001904
775.362125	-0.001873
775.556354	-0.002075
775.750564	-0.001692
775.944756	-0.002017
776.138930	-0.002149
776.333086	-0.001955
776.527223	-0.002148
776.721343	-0.001704
776.915444	-0.001802
777.109526	-0.001714
777.303591	-0.001648
777.497637	-0.001923
777.691666	-0.002108
777.885676	-0.002143
778.079667	-0.002516
778.273641	-0.002581
778.467596	-0.002740
778.661533	-0.002824
778.855452	-0.002713
779.049352	-0.002757
779.243235	-0.002617
779.437099	-0.002366
779.630945	-0.002106
779.824773	-0.001748
780.018582	-0.001629
780.212373	-0.001559
780.406146	-0.001510
780.599901	-0.001544
780.793638	-0.001351
780.987356	-0.001359
781.181056	-0.001300
781.374738	-0.001204
781.568402	-0.001474
781.762047	-0.001145
781.955674	-0.000868
782.149283	-0.000731
782.342874	-0.000808
782.536447	-0.000979
782.730001	-0.001072
782.923537	-0.001024
783.117055	-0.001104
783.310555	-0.000791
783.504036	-0.001188
783.697499	-0.001561
783.890944	-0.001654
784.084371	-0.001490
784.277780	-0.001393
784.471170	-0.001457
784.664542	-0.001671
784.857896	-0.001697
785.051231	-0.001726
785.244549	-0.001559
785.437848	-0.001506
785.631129	-0.001446
785.824392	-0.001508
786.017636	-0.001403
786.210863	-0.001394
786.404071	-0.001392
786.597260	-0.001477
786.790432	-0.001537
786.983585	-0.001670
787.176721	-0.001811
787.369838	-0.001805
787.562936	-0.001761
787.756017	-0.001792
787.949079	-0.001779
788.142123	-0.001761
788.335149	-0.001682
788.528156	-0.001717
788.721146	-0.001693
788.914117	-0.001634
789.107070	-0.001613
789.300005	-0.001537
789.492921	-0.001481
789.685819	-0.001206
789.878699	-0.000839
790.071561	-0.000818
790.264405	-0.000705
790.457230	-0.000480
790.650037	-0.000190
790.842826	-0.000251
791.035597	-0.000149
791.228349	-0.000249
791.421084	-0.000625
791.613800	-0.000843
791.806497	-0.000756
791.999177	-0.000959
792.191838	-0.001109
792.384481	-0.001167
792.577106	-0.001045
792.769713	-0.001120
792.962301	-0.001064
793.154871	-0.000778
793.347423	-0.000857
793.539957	-0.000896
793.732473	-0.000790
793.924970	-0.000683
794.117449	-0.000752
794.309910	-0.000591
794.502353	-0.000715
794.694777	-0.000616
794.887183	-0.000673
795.079571	-0.000556
795.271941	-0.000775
795.464293	-0.000826
795.656626	-0.000899
795.848941	-0.000861
796.041238	-0.001054
796.233516	-0.001003
796.425777	-0.001231
796.618019	-0.001132
796.810243	-0.001174
797.002449	-0.000753
797.194636	-0.000657
797.386805	-0.000607
797.578956	-0.000475
797.771089	-0.000389
797.963204	-0.000346
798.155300	-0.000166
798.347378	-0.000315
798.539438	-0.000485
798.731480	-0.000551
798.923503	-0.000504
799.115509	-0.000390
799.307496	-0.000438
799.499465	-0.000405
799.691415	-0.000319
799.883348	-0.000330
800.075262	-0.000091
800.267158	0.000373
800.459035	0.000211
800.650895	-0.000017
800.842736	-0.000117
801.034559	-0.000025
801.226364	-0.000050
801.418150	-0.000063
801.609919	-0.000063
801.801669	-0.000113
801.993401	-0.000459
802.185114	-0.000498
802.376810	-0.000304
802.568487	-0.000446
802.760146	-0.000576
802.951787	-0.000529
803.143409	-0.000467
803.335014	-0.000457
803.526600	-0.000557
803.718168	-0.000692
803.909717	-0.000414
804.101249	-0.000409
804.292762	-0.000069
804.484257	-0.000010
804.675734	-0.000003
804.867192	-0.000125
805.058632	0.000050
805.250054	0.000259
805.441458	0.000708
805.632844	0.000603
805.824211	0.000574
806.015561	0.000331
806.206891	0.000462
806.398204	0.000535
806.589499	0.000664
806.780775	0.000540
806.972033	0.000377
807.163273	-0.000008
807.354495	0.000211
807.545698	0.000343
807.736883	0.000423
807.928050	0.000256
808.119199	0.000115
808.310329	-0.000117
808.501441	-0.000022
808.692535	-0.000030
808.883611	-0.000043
809.074669	-0.000357
809.265708	-0.000355
809.456729	-0.000446
809.647732	-0.000531
809.838717	-0.000331
810.029683	-0.000022
810.220632	-0.000396
810.411562	-0.000463
810.602474	-0.000219
810.793367	-0.000273
810.984242	-0.000320
811.175100	-0.000292
811.365938	-0.000049
811.556759	-0.000425
811.747562	-0.000807
811.938346	-0.000601
812.129112	-0.000673
812.319860	-0.000740
812.510589	-0.000582
812.701300	-0.000569
812.891994	-0.000490
813.082668	-0.000685
813.273325	-0.000720
813.463964	-0.000526
813.654584	-0.000573
813.845186	-0.000520
814.035769	-0.000648
814.226335	-0.000694
814.416882	-0.001028
814.607411	-0.001145
814.797922	-0.001101
814.988415	-0.000726
815.178889	-0.000744
815.369345	-0.000503
815.559783	-0.000412
815.750203	-0.000375
815.940605	-0.000445
816.130988	-0.000102
816.321353	0.000026
816.511700	0.000090
816.702028	0.000075
816.892339	0.000170
817.082631	-0.000044
817.272905	-0.000150
817.463161	-0.000030
817.653398	-0.000046
817.843617	-0.000005
818.033819	-0.000101
818.224001	-0.000256
818.414166	-0.000540
818.604312	-0.000737
818.794440	-0.000625
818.984550	-0.000421
819.174642	-0.000411
819.364716	-0.000460
819.554771	-0.000715
819.744808	-0.000829
819.934827	-0.000711
820.124827	-0.000778
820.314810	-0.000696
820.504774	-0.000773
820.694720	-0.000980
820.884647	-0.001159
821.074557	-0.001168
821.264448	-0.001214
821.454321	-0.001513
821.644176	-0.001688
821.834012	-0.001778
822.023831	-0.001578
822.213631	-0.001529
822.403413	-0.001509
822.593176	-0.001534
822.782922	-0.001630
822.972649	-0.001511
823.162358	-0.001295
823.352049	-0.001145
823.541721	-0.000896
823.731376	-0.001205
823.921012	-0.001252
824.110629	-0.001443
824.300229	-0.001342
824.489811	-0.001343
824.679374	-0.001126
824.868919	-0.001055
825.058445	-0.001238
825.247954	-0.001368
825.437444	-0.001422
825.626916	-0.001470
825.816370	-0.001296
826.005806	-0.001547
826.195223	-0.001355
826.384622	-0.001579
826.574003	-0.001537
826.763366	-0.001547
826.952711	-0.001597
827.142037	-0.001608
827.331345	-0.001755
827.520635	-0.001837
827.709906	-0.001777
827.899160	-0.001728
828.088395	-0.001678
828.277612	-0.001692
828.466810	-0.001740
828.655991	-0.001603
828.845153	-0.001961
829.034297	-0.001896
829.223423	-0.001882
829.412531	-0.001870
829.601620	-0.002127
829.790691	-0.002216
829.979744	-0.002441
830.168779	-0.002499
830.357795	-0.002761
830.546793	-0.002418
830.735773	-0.002456
830.924735	-0.002478
831.113679	-0.002500
831.302604	-0.002470
831.491511	-0.002420
831.680400	-0.002340
831.869271	-0.002084
832.058123	-0.001878
832.246957	-0.001816
832.435773	-0.001744
832.624571	-0.001790
832.813351	-0.001703
833.002112	-0.001793
833.190855	-0.001998
833.379580	-0.001767
833.568287	-0.002230
833.756975	-0.002324
833.945645	-0.002362
834.134297	-0.002452
834.322931	-0.002579
834.511547	-0.002637
834.700144	-0.002500
834.888723	-0.002268
835.077284	-0.002328
835.265826	-0.001893
835.454351	-0.001766
835.642857	-0.001601
835.831345	-0.001693
836.019815	-0.001537
836.208266	-0.001496
836.396699	-0.001770
836.585114	-0.001921
836.773511	-0.002109
836.961890	-0.002561
837.150250	-0.002783
837.338592	-0.003130
837.526916	-0.003174
837.715222	-0.003382
837.903510	-0.003445
838.091779	-0.003113
838.280030	-0.003064
838.468263	-0.003020
838.656477	-0.002736
838.844674	-0.002659
839.032852	-0.002585
839.221012	-0.002346
839.409153	-0.002198
839.597277	-0.002173
839.785382	-0.002015
839.973469	-0.001969
840.161538	-0.001943
840.349589	-0.001962
840.537621	-0.002062
840.725635	-0.001949
840.913631	-0.002186
841.101609	-0.002072
841.289568	-0.002159
841.477509	-0.002285
841.665432	-0.002241
841.853337	-0.002141
842.041224	-0.001900
842.229092	-0.001750
842.416942	-0.001666
842.604774	-0.001575
842.792588	-0.001901
842.980383	-0.001928
843.168160	-0.001946
843.355919	-0.001924
843.543660	-0.002049
843.731382	-0.002110
843.919087	-0.002182
844.106773	-0.002070
844.294441	-0.001952
844.482090	-0.001631
844.669722	-0.001627
844.857335	-0.001813
845.044930	-0.001908
845.232507	-0.002073
845.420065	-0.002327
845.607605	-0.002281
845.795127	-0.002503
845.982631	-0.002567
846.170117	-0.002711
846.357584	-0.002429
846.545033	-0.002269
846.732464	-0.002575
846.919877	-0.002420
847.107272	-0.002308
847.294648	-0.002273
847.482006	-0.002075
847.669346	-0.002078
847.856667	-0.002054
848.043971	-0.002321
848.231256	-0.002327
848.418523	-0.001901
848.605771	-0.001793
848.793002	-0.001635
848.980214	-0.001695
849.167408	-0.001776
849.354584	-0.001821
849.541742	-0.001491
849.728881	-0.001065
849.916002	-0.000972
850.103105	-0.001011
850.290190	-0.001118
850.477256	-0.000975
850.664304	-0.000802
850.851334	-0.000611
851.038346	-0.000636
851.225340	-0.000912
851.412315	-0.001140
851.599272	-0.001415
851.786211	-0.001116
851.973132	-0.000823
852.160034	-0.001105
852.346918	-0.001109
852.533784	-0.001227
852.720632	-0.001172
852.907462	-0.001037
853.094273	-0.001134
853.281066	-0.001185
853.467841	-0.001386
853.654598	-0.001510
853.841336	-0.001208
854.028056	-0.001292
854.214758	-0.001530
854.401442	-0.001190
854.588107	-0.001161
854.774755	-0.000972
854.961384	-0.000596
855.147995	-0.000480
855.334587	-0.000242
855.521162	-0.000555
855.707718	-0.000060
855.894256	0.000253
856.080775	0.000068
856.267277	0.000008
856.453760	0.000059
856.640225	0.000075
856.826672	-0.000092
857.013101	-0.000182
857.199511	0.000111
857.385903	-0.000490
857.572277	-0.000596
857.758633	-0.000529
857.944970	-0.000525
858.131290	-0.000665
858.317591	-0.000654
858.503873	-0.000677
858.690138	-0.000798
858.876384	-0.000886
859.062612	-0.000379
859.248822	-0.000578
859.435014	-0.000697
859.621188	-0.000659
859.807343	-0.000392
859.993480	-0.000565
860.179599	-0.000666
860.365699	-0.000561
860.551781	-0.000545
860.737846	-0.000660
860.923891	-0.000337
861.109919	-0.000099
861.295929	0.000055
861.481920	-0.000172
861.667893	-0.000155
861.853848	0.000260
862.039784	0.000470
862.225702	0.000343
862.411603	0.000168
862.597484	0.000196
862.783348	0.000019
862.969193	-0.000061
863.155021	0.000164
863.340830	0.000225
863.526620	-0.000159
863.712393	-0.000373
863.898147	-0.000275
864.083883	-0.000107
864.269601	-0.000429
864.455301	-0.000450
864.640982	-0.000457
864.826645	-0.000525
865.012290	-0.000748
865.197917	-0.000669
865.383526	-0.000617
865.569116	-0.000672
865.754688	-0.000557
865.940242	-0.000253
866.125777	-0.000109
866.311295	-0.000224
866.496794	-0.000119
866.682275	0.000228
866.867737	0.000339
867.053182	0.000246
867.238608	0.000435
867.424016	0.000280
867.609406	0.000465
867.794778	0.000471
867.980131	0.000579
868.165466	0.000579
868.350783	0.000699
868.536082	0.000705
868.721362	0.000809
868.906625	0.000732
869.091869	0.000792
869.277094	0.000565
869.462302	0.000693
869.647491	0.000824
869.832662	0.000490
870.017815	0.000447
870.202950	0.000240
870.388066	0.000215
870.573165	0.000197
870.758245	-0.000048
870.943306	0.000147
871.128350	0.000344
871.313375	0.000200
871.498382	0.000542
871.683371	0.000528
871.868342	0.000389
872.053294	0.000759
872.238229	0.000540
872.423144	0.001019
872.608042	0.001156
872.792922	0.000887
872.977783	0.001202
873.162626	0.001277
873.347451	0.001318
873.532258	0.001698
873.717046	0.001518
873.901816	0.002176
874.086568	0.002019
874.271302	0.001370
874.456017	0.001500
874.640715	0.001299
874.825394	0.001277
875.010055	0.001139
875.194697	0.001388
875.379322	0.001433
875.563928	0.001010
875.748516	0.001086
875.933085	0.001302
876.117637	0.001117
876.302170	0.001387
876.486685	0.001678
876.671182	0.001676
876.855661	0.001680
877.040121	0.001577
877.224563	0.001456
877.408987	0.001537
877.593393	0.002111
877.777780	0.002319
877.962150	0.002215
878.146501	0.001777
878.330833	0.002035
878.515148	0.001827
878.699444	0.001508
878.883722	0.002101
879.067982	0.001925
879.252224	0.001496
879.436447	0.001512
879.620653	0.001307
879.804840	0.001403
879.989008	0.001448
880.173159	0.001669
880.357291	0.002104
880.541405	0.001579
880.725501	0.001550
880.909579	0.001561
881.093638	0.001540
881.277680	0.001616
881.461703	0.001687
881.645707	0.001230
881.829694	0.000907
882.013662	0.000703
882.197612	0.001141
882.381544	0.001102
882.565458	0.001217
882.749353	0.001034
882.933230	0.001245
883.117089	0.001503
883.300930	0.001686
883.484753	0.002120
883.668557	0.002052
883.852343	0.002009
884.036111	0.002173
884.219861	0.002060
884.403592	0.002397
884.587305	0.002170
884.771000	0.002159
884.954677	0.002489
885.138335	0.002516
885.321976	0.002783
885.505598	0.002809
885.689201	0.002929
885.872787	0.003191
886.056354	0.003083
886.239904	0.003579
886.423434	0.003322
886.606947	0.003375
886.790442	0.002959
886.973918	0.003050
887.157376	0.002855
887.340816	0.002709
887.524237	0.002344
887.707641	0.002256
887.891026	0.001746
888.074393	0.001678
888.257741	0.001295
888.441072	0.001593
888.624384	0.001610
888.807678	0.001438
888.990954	0.001491
889.174211	0.001908
889.357451	0.001829
889.540672	0.001879
889.723875	0.001872
889.907059	0.002184
890.090226	0.001778
890.273374	0.001528
890.456504	0.001869
890.639616	0.001617
890.822709	0.001478
891.005785	0.001684
891.188842	0.001896
891.371881	0.001703
891.554901	0.001558
891.737904	0.002002
891.920888	0.002183
892.103854	0.002382
892.286802	0.002313
892.469731	0.002401
892.652643	0.002263
892.835536	0.002343
893.018410	0.002828
893.201267	0.002957
893.384106	0.003002
893.566926	0.003043
893.749728	0.002683
893.932511	0.002870
894.115277	0.002918
894.298024	0.002926
894.480753	0.002464
894.663464	0.002127
894.846157	0.001950
895.028831	0.002082
895.211487	0.002029
895.394125	0.002298
895.576745	0.002401
895.759346	0.002352
895.941930	0.002415
896.124495	0.002520
896.307041	0.002523
896.489570	0.002709
896.672080	0.002683
896.854573	0.002681
897.037046	0.002310
897.219502	0.002324
897.401940	0.002231
897.584359	0.002453
897.766760	0.002636
897.949143	0.002665
898.131507	0.002470
898.313854	0.002166
898.496182	0.002540
898.678492	0.002670
898.860783	0.002883
899.043057	0.002910
899.225312	0.002982
899.407549	0.002934
899.589768	0.003066
899.771968	0.003293
899.954151	0.003132
900.136315	0.002330
900.318461	0.002597
900.500588	0.002281
900.682698	0.002294
900.864789	0.002302
901.046862	0.002173
901.228917	0.002418
901.410953	0.002243
901.592971	0.002113
901.774972	0.002635
901.956953	0.002479
902.138917	0.002837
902.320862	0.003225
902.502790	0.002770
902.684699	0.002877
902.866589	0.002740
903.048462	0.003221
903.230316	0.003539
903.412152	0.003257
903.593970	0.002883
903.775770	0.002651
903.957551	0.002288
904.139314	0.002387
904.321059	0.002544
904.502786	0.002613
904.684494	0.002124
904.866185	0.001977
905.047857	0.002062
905.229510	0.002197
905.411146	0.001882
905.592763	0.001768
905.774363	0.001772
905.955943	0.001524
906.137506	0.001340
906.319051	0.001533
906.500577	0.001145
906.682085	0.001129
906.863575	0.001178
907.045046	0.001647
907.226500	0.001488
907.407935	0.001658
907.589352	0.002289
907.770750	0.002285
907.952131	0.002291
908.133493	0.002772
908.314837	0.002988
908.496163	0.002967
908.677470	0.002891
908.858760	0.003253
909.040031	0.003286
909.221284	0.002594
909.402518	0.002464
909.583735	0.001796
909.764933	0.001582
909.946113	0.001385
910.127275	0.001039
910.308418	0.001105
910.489544	0.000712
910.670651	0.000561
910.851740	0.000697
911.032810	0.000677
911.213863	0.000975
911.394897	0.001193
911.575913	0.000939
911.756911	0.001375
911.937890	0.000980
912.118851	0.001228
912.299794	0.001228
912.480719	0.001264
912.661626	0.001130
912.842514	0.001245
913.023384	0.001100
913.204236	0.001330
913.385070	0.001137
913.565886	0.001303
913.746683	0.001164
913.927462	0.001218
914.108223	0.001105
914.288965	0.001329
914.469690	0.001420
914.650396	0.001485
914.831084	0.001446
915.011754	0.001454
915.192405	0.001391
915.373038	0.001410
915.553653	0.000799
915.734250	0.000940
915.914829	0.001028
916.095389	0.000985
916.275931	0.000663
916.456455	0.000637
916.636961	0.000824
916.817448	0.000782
916.997917	0.000615
917.178368	0.001178
917.358801	0.001003
917.539216	0.000917
917.719612	0.000786
917.899990	0.001305
918.080350	0.001489
918.260692	0.001322
918.441015	0.000784
918.621320	0.000635
918.801607	0.000590
918.981876	0.000522
919.162127	0.000446
919.342359	0.000498
919.522573	-0.000141
919.702769	-0.000581
919.882947	-0.000620
920.063106	-0.000268
920.243247	-0.000414
920.423370	-0.000703
920.603475	-0.000884
920.783562	-0.000947
920.963630	-0.001172
921.143680	-0.001013
921.323712	-0.001190
921.503725	-0.001275
921.683721	-0.001166
921.863698	-0.001062
922.043657	-0.000907
922.223598	-0.001132
922.403520	-0.001362
922.583424	-0.001664
922.763311	-0.002046
922.943178	-0.002334
923.123028	-0.001844
923.302859	-0.002180
923.482673	-0.002275
923.662467	-0.002364
923.842244	-0.002476
924.022003	-0.002716
924.201743	-0.002398
924.381465	-0.001975
924.561169	-0.001509
924.740854	-0.002363
924.920522	-0.002536
925.100171	-0.002723
925.279802	-0.003023
925.459414	-0.002949
925.639009	-0.002918
925.818585	-0.003117
925.998143	-0.003593
926.177683	-0.003760
926.357205	-0.004018
926.536708	-0.003750
926.716193	-0.004165
926.895660	-0.004755
927.075109	-0.005140
927.254539	-0.005519
927.433951	-0.005888
927.613345	-0.006152
927.792721	-0.006628
927.972079	-0.006760
928.151418	-0.007496
928.330739	-0.006896
928.510042	-0.007077
928.689327	-0.006606
928.868593	-0.006640
929.047841	-0.006767
929.227071	-0.006389
929.406283	-0.006367
929.585476	-0.006603
929.764652	-0.006284
929.943809	-0.006379
930.122948	-0.006235
930.302068	-0.006653
930.481171	-0.006416
930.660255	-0.006328
930.839321	-0.006495
931.018369	-0.007129
931.197398	-0.006749
931.376409	-0.007217
931.555402	-0.007660
931.734377	-0.007153
931.913334	-0.007137
932.092272	-0.007157
932.271192	-0.007069
932.450094	-0.007337
932.628978	-0.006708
932.807844	-0.007146
932.986691	-0.006648
933.165520	-0.007117
933.344331	-0.008062
933.523123	-0.008155
933.701898	-0.008235
933.880654	-0.008964
934.059392	-0.009404
934.238111	-0.010072
934.416813	-0.010463
934.595496	-0.011310
934.774161	-0.011500
934.952808	-0.011108
935.131437	-0.011665
935.310047	-0.012249
935.488639	-0.012445
935.667213	-0.012095
935.845769	-0.011900
936.024306	-0.011754
936.202825	-0.011201
936.381326	-0.010744
936.559809	-0.010793
936.738274	-0.010484
936.916720	-0.010858
937.095148	-0.010242
937.273558	-0.010513
937.451950	-0.009890
937.630323	-0.009285
937.808678	-0.009219
937.987015	-0.010062
938.165334	-0.010597
938.343635	-0.011273
938.521917	-0.011045
938.700181	-0.011074
938.878427	-0.011396
939.056655	-0.012533
939.234864	-0.014607
939.413055	-0.015117
939.591228	-0.014575
939.769383	-0.014953
939.947519	-0.015025
940.125638	-0.016004
940.303738	-0.016397
940.481820	-0.016344
940.659883	-0.016084
940.837929	-0.015038
941.015956	-0.015607
941.193965	-0.016169
941.371955	-0.016279
941.549928	-0.015487
941.727882	-0.014929
941.905818	-0.015849
942.083736	-0.016065
942.261636	-0.016760
942.439517	-0.016761
942.617380	-0.016734
942.795225	-0.015841
942.973052	-0.015702
943.150860	-0.017726
943.328651	-0.017578
943.506423	-0.018625
943.684176	-0.017622
943.861912	-0.017344
944.039629	-0.017391
944.217328	-0.016876
944.395009	-0.018006
944.572672	-0.018218
944.750317	-0.017437
944.927943	-0.018054
945.105551	-0.016852
945.283141	-0.017916
945.460712	-0.017621
945.638265	-0.016958
945.815801	-0.017092
945.993317	-0.016466
946.170816	-0.016472
946.348297	-0.015528
946.525759	-0.014594
946.703203	-0.013622
946.880629	-0.013488
947.058036	-0.014175
947.235425	-0.014192
947.412797	-0.015166
947.590149	-0.015208
947.767484	-0.014060
947.944800	-0.014770
948.122099	-0.015748
948.299379	-0.017357
948.476640	-0.017445
948.653884	-0.017590
948.831109	-0.018463
949.008316	-0.018377
949.185505	-0.018539
949.362676	-0.020524
949.539828	-0.020304
949.716962	-0.020071
949.894078	-0.019706
950.071176	-0.019552
950.248256	-0.019911
950.425317	-0.019760
950.602360	-0.019282
950.779385	-0.021166
950.956391	-0.020147
951.133380	-0.018179
951.310350	-0.017432
951.487302	-0.016633
951.664235	-0.016901
951.841151	-0.015134
952.018048	-0.014332
952.194927	-0.014426
952.371788	-0.012133
952.548631	-0.011306
952.725455	-0.012369
952.902261	-0.012445
953.079049	-0.011712
953.255819	-0.010952
953.432570	-0.011255
953.609303	-0.010083
953.786018	-0.008822
953.962715	-0.008696
954.139394	-0.010187
954.316054	-0.010323
954.492696	-0.010844
954.669320	-0.011774
954.845926	-0.010809
955.022513	-0.011410
955.199083	-0.012536
955.375634	-0.013062
955.552166	-0.011655
955.728681	-0.011109
955.905177	-0.011700
956.081655	-0.009354
956.258115	-0.009111
956.434557	-0.010293
956.610980	-0.010177
956.787385	-0.011907
956.963772	-0.011732
957.140141	-0.011731
957.316492	-0.011845
957.492824	-0.010967
957.669138	-0.013860
957.845434	-0.014338
958.021712	-0.013458
958.197971	-0.013712
958.374212	-0.012209
958.550435	-0.012102
958.726640	-0.012747
958.902826	-0.010586
959.078995	-0.010598
959.255145	-0.010579
959.431277	-0.010431
959.607390	-0.012869
959.783486	-0.011205
959.959563	-0.008874
960.135622	-0.008375
960.311662	-0.010874
960.487685	-0.011920
960.663689	-0.012377
960.839675	-0.010058
961.015643	-0.007605
961.191593	-0.006018
961.367524	-0.006978
961.543437	-0.007051
961.719332	-0.003522
961.895209	-0.001305
962.071067	-0.001425
962.246907	-0.001468
962.422730	-0.000744
962.598533	0.000213
962.774319	0.001924
962.950086	0.003114
963.125835	0.005133
963.301566	0.003499
963.477279	0.004395
963.652973	0.006234
963.828650	0.006231
964.004308	0.006008
964.179947	0.003297
964.355569	0.002039
964.531172	0.004486
964.706757	0.001645
964.882324	-0.000048
965.057873	-0.000858
965.233403	-0.000859
965.408916	0.001472
965.584410	0.001847
965.759885	0.002777
965.935343	0.002520
966.110782	0.001995
966.286203	0.002819
966.461606	0.002749
966.636991	0.004689
966.812357	0.004459
966.987705	0.002784
967.163035	0.002965
967.338347	0.003219
967.513641	0.007082
967.688916	0.009735
967.864173	0.008159
968.039412	0.010432
968.214632	0.009321
968.389835	0.009300
968.565019	0.010205
968.740185	0.009478
968.915333	0.010090
969.090462	0.008570
969.265573	0.005831
969.440667	0.007164
969.615741	0.007775
969.790798	0.008526
969.965836	0.010796
970.140856	0.011317
970.315858	0.010996
970.490842	0.013257
970.665808	0.014095
970.840755	0.010738
971.015684	0.011621
971.190595	0.010409
971.365487	0.010026
971.540362	0.008263
971.715218	0.007142
971.890056	0.009634
972.064875	0.008085
972.239677	0.008327
972.414460	0.009339
972.589225	0.008304
972.763972	0.006818
972.938700	0.006206
973.113411	0.005408
973.288103	0.003594
973.462777	0.001424
973.637432	0.001289
973.812070	0.001601
973.986689	0.003011
974.161290	0.002411
974.335873	0.002546
974.510437	0.002799
974.684984	0.004367
974.859512	0.007466
975.034022	0.007980
975.208513	0.006873
975.382987	0.006816
975.557442	0.006608
975.731879	0.010615
975.906298	0.011272
976.080698	0.012138
976.255080	0.013262
976.429445	0.012901
976.603790	0.014543
976.778118	0.016854
976.952427	0.014647
977.126719	0.014087
977.300992	0.012540
977.475246	0.010421
977.649483	0.009800
977.823701	0.009339
977.997901	0.008957
978.172083	0.009928
978.346247	0.010011
978.520392	0.011189
978.694519	0.011946
978.868628	0.009403
979.042719	0.011012
979.216791	0.011670
979.390845	0.011794
979.564882	0.012365
979.738899	0.009990
979.912899	0.012235
980.086880	0.011153
980.260843	0.010252
980.434788	0.010340
980.608715	0.011923
980.782623	0.010633
980.956514	0.010781
981.130386	0.008119
981.304240	0.009524
981.478075	0.007768
981.651892	0.006457
981.825692	0.007814
981.999472	0.006827
982.173235	0.006499
982.346980	0.007579
982.520706	0.005334
982.694414	0.006334
982.868104	0.005818
983.041775	0.005441
983.215428	0.007231
983.389064	0.006626
983.562680	0.007860
983.736279	0.007780
983.909860	0.007760
984.083422	0.009064
984.256966	0.012138
984.430491	0.010475
984.603999	0.009003
984.777488	0.008507
984.950959	0.009055
985.124412	0.008797
985.297847	0.008845
985.471263	0.008942
985.644661	0.009563
985.818041	0.008759
985.991403	0.009946
986.164747	0.011078
986.338072	0.011908
986.511379	0.012117
986.684668	0.012648
986.857938	0.011864
987.031191	0.011709
987.204425	0.010962
987.377641	0.009867
987.550839	0.009919
987.724018	0.008940
987.897179	0.006671
988.070322	0.005732
988.243447	0.005240
988.416554	0.006558
988.589642	0.007498
988.762712	0.007682
988.935764	0.008526
989.108798	0.009412
989.281813	0.009404
989.454811	0.009689
989.627790	0.011068
989.800751	0.011411
989.973693	0.011171
990.146617	0.009855
990.319524	0.010044
990.492412	0.010265
990.665281	0.008628
990.838133	0.009769
991.010966	0.010463
991.183781	0.010528
991.356578	0.011321
991.529356	0.010788
991.702117	0.011155
991.874859	0.010762
992.047583	0.011460
992.220288	0.013243
992.392976	0.010828
992.565645	0.011936
992.738296	0.011653
992.910929	0.011146
993.083543	0.010713
993.256139	0.011081
993.428718	0.009882
993.601277	0.008020
993.773819	0.006071
993.946342	0.008049
994.118848	0.008702
994.291335	0.007891
994.463803	0.007244
994.636254	0.007354
994.808686	0.007450
994.981100	0.007336
995.153496	0.008170
995.325874	0.008948
995.498233	0.008147
995.670574	0.008777
995.842897	0.009012
996.015202	0.009183
996.187488	0.011756
996.359757	0.012394
996.532007	0.012976
996.704239	0.010948
996.876452	0.011200
997.048648	0.012274
997.220825	0.012208
997.392984	0.012718
997.565124	0.012200
997.737247	0.009493
997.909351	0.008693
998.081437	0.009854
998.253505	0.011336
998.425554	0.012287
998.597586	0.010538
998.769599	0.010236
998.941594	0.008578
999.113571	0.008936
999.285529	0.007696
999.457469	0.009462
999.629391	0.009562
999.801295	0.009094
999.973181	0.007856
1000.145048	0.009655
1000.316897	0.007321
1000.488728	0.009740
1000.660541	0.010585
1000.832335	0.011478
1001.004111	0.010997
1001.175869	0.009008
1001.347609	0.008684
1001.519331	0.009043
1001.691034	0.008189
1001.862719	0.008762
1002.034386	0.008924
1002.206035	0.008583
1002.377665	0.007306
1002.549277	0.006503
1002.720871	0.009209
1002.892447	0.009163
1003.064004	0.008457
1003.235544	0.010213
1003.407065	0.010107
1003.578568	0.009147
1003.750052	0.009212
1003.921519	0.009982
1004.092967	0.008671
1004.264397	0.005173
1004.435809	0.005458
1004.607202	0.005548
1004.778577	0.004860
1004.949934	0.004776
1005.121273	0.004503
1005.292594	0.004701
1005.463896	0.004619
1005.635180	0.004867
1005.806446	0.005264
1005.977694	0.005951
1006.148923	0.006778
1006.320135	0.006250
1006.491328	0.005542
1006.662503	0.004526
1006.833659	0.004018
1007.004798	0.005355
1007.175918	0.006240
1007.347020	0.006804
1007.518103	0.005971
1007.689169	0.004736
1007.860216	0.003421
1008.031245	0.005851
1008.202256	0.008555
1008.373248	0.008450
1008.544223	0.007497
1008.715179	0.006772
1008.886117	0.007263
1009.057036	0.008387
1009.227938	0.010248
1009.398821	0.010939
1009.569686	0.008770
1009.740533	0.007043
1009.911361	0.003556
1010.082172	0.004872
1010.252964	0.004385
1010.423738	0.004923
1010.594493	0.003665
1010.765231	0.000927
1010.935950	0.000801
1011.106651	0.001494
1011.277334	0.001100
1011.447998	0.007545
1011.618645	0.007490
1011.789273	0.009057
1011.959882	0.009401
1012.130474	0.009007
1012.301048	0.010086
1012.471603	0.011859
1012.642140	0.010973
1012.812658	0.008983
1012.983159	0.006676
1013.153641	0.004516
1013.324105	0.004069
1013.494551	0.002411
1013.664979	0.004757
1013.835388	0.005286
1014.005779	0.003964
1014.176152	0.003917
1014.346507	0.006629
1014.516843	0.006459
1014.687162	0.007509
1014.857462	0.006592
1015.027744	0.007115
1015.198007	0.006178
1015.368252	0.005240
1015.538480	0.004922
1015.708689	0.006105
1015.878879	0.006326
1016.049052	0.005955
1016.219206	0.005362
1016.389342	0.006145
1016.559460	0.006359
1016.729559	0.006224
1016.899641	0.005887
1017.069704	0.004724
1017.239749	0.004853
1017.409775	0.005168
1017.579784	0.005777
1017.749774	0.006671
1017.919746	0.006812
1018.089700	0.006534
1018.259635	0.005231
1018.429553	0.004217
1018.599452	0.003815
1018.769333	0.003490
1018.939195	0.003729
1019.109040	0.002521
1019.278866	0.004073
1019.448674	0.003618
1019.618464	0.004513
1019.788235	0.006360
1019.957989	0.009167
1020.127724	0.008685
1020.297441	0.009027
1020.467139	0.007177
1020.636820	0.008063
1020.806482	0.007759
1020.976126	0.007516
1021.145752	0.007421
1021.315359	0.006609
1021.484948	0.004756
1021.654519	0.006659
1021.824072	0.005223
1021.993607	0.006677
1022.163123	0.006182
1022.332621	0.005370
1022.502101	0.005751
1022.671563	0.003612
1022.841007	0.004881
1023.010432	0.008369
1023.179839	0.007550
1023.349228	0.009922
1023.518598	0.010928
1023.687951	0.012169
1023.857285	0.011672
1024.026601	0.010870
1024.195899	0.013763
1024.365178	0.013125
1024.534439	0.008666
1024.703682	0.008015
1024.872907	0.008463
1025.042114	0.005601
1025.211302	0.003882
1025.380472	0.004825
1025.549624	0.007152
1025.718758	0.004919
1025.887873	0.003442
1026.056970	0.004180
1026.226049	0.004883
1026.395110	0.002983
1026.564153	0.006014
1026.733177	0.006397
1026.902183	0.003486
1027.071171	0.002127
1027.240141	0.004969
1027.409092	0.006042
1027.578026	0.007756
1027.746940	0.006695
1027.915837	0.007281
1028.084716	0.005656
1028.253576	0.006330
1028.422418	0.007246
1028.591242	0.008390
1028.760048	0.007792
1028.928835	0.006609
1029.097604	0.007410
1029.266355	0.008910
1029.435088	0.008076
1029.603803	0.007836
1029.772499	0.007503
1029.941177	0.007646
1030.109837	0.005353
1030.278478	0.004181
1030.447102	0.004286
1030.615707	0.002316
1030.784294	0.001779
1030.952863	0.001998
1031.121413	0.002560
1031.289945	0.001954
1031.458460	0.003904
1031.626955	0.005860
1031.795433	0.005489
1031.963892	0.007009
1032.132334	0.007773
1032.300756	0.007285
1032.469161	0.007584
1032.637548	0.007123
1032.805916	0.005783
1032.974266	0.006609
1033.142598	0.005655
1033.310911	0.006144
1033.479207	0.006024
1033.647484	0.006600
1033.815743	0.007232
1033.983983	0.007123
1034.152206	0.007832
1034.320410	0.008503
1034.488596	0.006990
1034.656764	0.006400
1034.824914	0.006659
1034.993045	0.008551
1035.161158	0.007753
1035.329253	0.007983
1035.497330	0.007527
1035.665388	0.008157
1035.833428	0.008636
1036.001450	0.007991
1036.169454	0.007558
1036.337440	0.005935
1036.505407	0.005281
1036.673356	0.005867
1036.841287	0.004806
1037.009200	0.006072
1037.177094	0.003992
1037.344970	0.004946
1037.512828	0.004913
1037.680668	0.005534
1037.848489	0.008190
1038.016293	0.004988
1038.184078	0.005373
1038.351845	0.005021
1038.519593	0.003272
1038.687324	0.004233
1038.855036	0.005900
1039.022730	0.005760
1039.190406	0.005503
1039.358063	0.003855
1039.525702	0.006306
1039.693323	0.004853
1039.860926	0.007253
1040.028511	0.008153
1040.196077	0.009268
1040.363625	0.006807
1040.531155	0.007917
1040.698667	0.008793
1040.866161	0.009125
1041.033636	0.008451
1041.201093	0.008910
1041.368532	0.009227
1041.535952	0.008184
1041.703355	0.006850
1041.870739	0.006642
1042.038105	0.004900
1042.205452	0.004625
1042.372782	0.006287
1042.540093	0.006657
1042.707386	0.008084
1042.874661	0.007135
1043.041918	0.010118
1043.209156	0.009408
1043.376376	0.011341
1043.543578	0.011110
1043.710762	0.010493
1043.877927	0.008805
1044.045074	0.011579
1044.212203	0.010749
1044.379314	0.010582
1044.546407	0.011368
1044.713481	0.011399
1044.880537	0.010213
1045.047575	0.011462
1045.214595	0.010738
1045.381596	0.011115
1045.548579	0.008692
1045.715544	0.007066
1045.882491	0.006064
1046.049420	0.002870
1046.216330	0.003320
1046.383222	0.004590
1046.550096	0.004641
1046.716951	0.005395
1046.883789	0.004476
1047.050608	0.003294
1047.217409	0.003130
1047.384192	0.005141
1047.550956	0.006941
1047.717703	0.007947
1047.884431	0.007098
1048.051140	0.007388
1048.217832	0.009356
1048.384505	0.010801
1048.551161	0.008604
1048.717798	0.010777
1048.884416	0.008564
1049.051017	0.007330
1049.217599	0.006170
1049.384163	0.003625
1049.550709	0.004031
1049.717237	0.002172
1049.883746	-0.000110
1050.050237	0.002866
1050.216710	0.002908
1050.383165	0.002822
1050.549601	0.004325
1050.716019	0.004564
1050.882420	0.007390
1051.048801	0.007581
1051.215165	0.008974
1051.381510	0.009685
1051.547837	0.010096
1051.714146	0.005834
1051.880437	0.007560
1052.046709	0.007397
1052.212964	0.007169
1052.379200	0.005156
1052.545417	0.004293
1052.711617	0.001488
1052.877798	0.003390
1053.043961	0.001660
1053.210106	0.005998
1053.376233	0.006993
1053.542341	0.003860
1053.708432	0.005490
1053.874504	0.006475
1054.040557	0.005371
1054.206593	0.007934
1054.372610	0.007988
1054.538609	0.007657
1054.704590	0.005652
1054.870553	0.005918
1055.036497	0.008057
1055.202424	0.007461
1055.368331	0.007734
1055.534221	0.008522
1055.700093	0.008275
1055.865946	0.006107
1056.031781	0.007980
1056.197598	0.007798
1056.363397	0.006419
1056.529177	0.005710
1056.694939	0.005821
1056.860683	0.005029
1057.026409	0.004417
1057.192116	0.002790
1057.357806	0.003194
1057.523477	0.002998
1057.689130	0.004021
1057.854764	0.003495
1058.020381	0.003557
1058.185979	0.002560
1058.351559	0.003386
1058.517120	0.003606
1058.682664	0.003674
1058.848189	0.002736
1059.013696	0.003274
1059.179185	0.003016
1059.344656	0.003593
1059.510108	0.004373
1059.675542	0.005394
1059.840958	0.003654
1060.006356	0.004575
1060.171735	0.005860
1060.337096	0.006524
1060.502439	0.004801
1060.667764	0.005810
1060.833071	0.007699
1060.998359	0.005701
1061.163629	0.003054
1061.328881	0.003091
1061.494115	0.003365
1061.659330	0.002569
1061.824527	0.001408
1061.989706	0.002605
1062.154867	0.001217
1062.320010	0.000333
1062.485134	0.000167
1062.650240	0.002576
1062.815328	0.003704
1062.980398	0.005663
1063.145449	0.005644
1063.310482	0.007749
1063.475497	0.007164
1063.640494	0.008505
1063.805473	0.006835
1063.970433	0.009049
1064.135375	0.008433
1064.300299	0.010760
1064.465204	0.008266
1064.630092	0.009626
1064.794961	0.006944
1064.959812	0.007197
1065.124645	0.007871
1065.289459	0.008187
1065.454256	0.007029
1065.619034	0.007306
1065.783793	0.005382
1065.948535	0.003746
1066.113258	0.001783
1066.277964	0.003554
1066.442651	0.002158
1066.607319	0.002035
1066.771970	0.002961
1066.936602	0.003930
1067.101216	0.001264
1067.265812	0.000310
1067.430389	0.001752
1067.594949	0.000782
1067.759490	0.002188
1067.924013	0.002968
1068.088518	0.002383
1068.253004	0.000936
1068.417472	-0.001173
1068.581922	0.000284
1068.746354	0.001157
1068.910768	0.000369
1069.075163	0.003911
1069.239540	0.002576
1069.403899	0.002515
1069.568240	0.002553
1069.732562	0.005060
1069.896866	0.004804
1070.061152	0.006256
1070.225420	0.006971
1070.389670	0.007204
1070.553901	0.005675
1070.718114	0.005414
1070.882309	0.004772
1071.046486	0.003585
1071.210644	0.002533
1071.374784	0.003996
1071.538906	0.001104
1071.703010	0.000803
1071.867096	-0.001388
1072.031163	-0.002955
1072.195212	-0.000249
1072.359243	0.001144
1072.523256	0.001308
1072.687250	0.000797
1072.851226	0.002982
1073.015184	0.006436
1073.179124	0.006042
1073.343045	0.008191
1073.506949	0.009420
1073.670834	0.006439
1073.834701	0.005492
1073.998549	0.002945
1074.162380	0.001102
1074.326192	0.001212
1074.489986	0.000892
1074.653761	0.002099
1074.817519	0.003996
1074.981258	0.003325
1075.144979	0.005449
1075.308682	0.005008
1075.472367	0.007423
1075.636033	0.007806
1075.799681	0.006809
1075.963311	0.005000
1076.126923	0.004078
1076.290516	0.001983
1076.454092	0.000274
1076.617649	-0.000251
1076.781187	0.000524
1076.944708	-0.000902
1077.108210	-0.001157
1077.271695	-0.002011
1077.435160	-0.000317
1077.598608	0.001503
1077.762038	0.004080
1077.925449	0.008561
1078.088842	0.010687
1078.252217	0.012109
1078.415573	0.011930
1078.578912	0.014343
1078.742232	0.014211
1078.905534	0.011238
1079.068817	0.009805
1079.232083	0.007730
1079.395330	0.005834
1079.558559	0.003595
1079.721770	0.003334
1079.884962	0.001563
1080.048136	-0.000364
1080.211293	-0.001136
1080.374430	0.001919
1080.537550	0.000655
1080.700651	0.002903
1080.863735	0.002515
1081.026800	0.001349
1081.189846	0.000689
1081.352875	0.003726
1081.515885	0.007068
1081.678877	0.006404
1081.841851	0.004903
1082.004807	0.006248
1082.167744	0.001567
1082.330663	0.003753
1082.493564	0.003995
1082.656447	0.003877
1082.819312	0.004746
1082.982158	0.001118
1083.144986	0.004636
1083.307796	0.003820
1083.470587	0.001844
1083.633361	0.004391
1083.796116	0.000681
1083.958853	0.000599
1084.121571	-0.001297
1084.284272	0.001902
1084.446954	0.001363
1084.609618	-0.002194
1084.772264	-0.000446
1084.934892	0.002310
1085.097501	0.005567
1085.260092	0.007538
1085.422665	0.007595
1085.585220	0.010655
1085.747756	0.006145
1085.910274	0.008092
1086.072774	0.009388
1086.235256	0.009330
1086.397720	0.006742
1086.560165	0.003644
1086.722592	0.004686
1086.885001	0.005250
1087.047392	0.004296
1087.209764	0.004857
1087.372119	0.006052
1087.534455	0.003132
1087.696772	0.003850
1087.859072	0.007439
1088.021353	0.006909
1088.183616	0.006491
1088.345861	0.007087
1088.508088	0.007813
1088.670296	0.008977
1088.832486	0.008970
1088.994658	0.010877
1089.156812	0.010540
1089.318948	0.008697
1089.481065	0.008071
1089.643164	0.007948
1089.805245	0.004445
1089.967308	0.004287
1090.129352	0.006259
1090.291378	0.004073
1090.453386	0.003994
1090.615376	0.003621
1090.777347	0.000073
1090.939301	-0.000374
1091.101236	0.001320
1091.263153	0.002612
1091.425051	-0.000126
1091.586932	-0.002210
1091.748794	-0.002371
1091.910638	-0.002116
1092.072463	-0.002084
1092.234271	0.001721
1092.396060	0.003202
1092.557831	0.000546
1092.719584	0.003774
1092.881319	0.006460
1093.043035	0.007454
1093.204733	0.006760
1093.366413	0.007199
1093.528075	0.004628
1093.689718	0.003325
1093.851343	0.002368
1094.012950	0.000559
1094.174539	-0.003184
1094.336110	-0.003358
1094.497662	-0.007276
1094.659196	-0.005826
1094.820712	-0.004110
1094.982210	-0.004834
1095.143689	-0.003691
1095.305151	-0.004686
1095.466594	-0.003198
1095.628018	-0.000872
1095.789425	-0.002565
1095.950813	-0.002925
1096.112183	-0.004204
1096.273535	-0.005793
1096.434869	-0.003303
1096.596184	-0.005165
1096.757482	-0.005220
1096.918761	-0.005836
1097.080021	-0.008208
1097.241264	-0.006234
1097.402488	-0.003284
1097.563694	-0.003963
1097.724882	-0.003054
1097.886052	-0.006087
1098.047203	-0.003586
1098.208336	-0.001457
1098.369451	-0.002879
1098.530548	-0.003037
1098.691627	-0.004160
1098.852687	-0.004563
1099.013729	-0.001194
1099.174753	-0.001135
1099.335758	0.005984
1099.496746	0.003305
1099.657715	0.001282
1099.818666	0.005780
1099.979599	0.005802
1100.140513	0.004198
1100.301409	0.002129
1100.462287	0.001942
1100.623147	0.002034
1100.783989	-0.002695
1100.944812	-0.003916
1101.105617	-0.002884
1101.266404	-0.004631
1101.427173	-0.002981
1101.587923	-0.002126
1101.748656	-0.002144
1101.909370	-0.005285
1102.070066	-0.006306
1102.230743	-0.006064
1102.391403	-0.002074
1102.552044	0.000946
1102.712667	0.003700
1102.873271	0.003065
1103.033858	0.003572
1103.194426	0.005495
1103.354976	0.008242
1103.515508	0.006189
1103.676021	0.008510
1103.836517	0.003590
1103.996994	0.000490
1104.157453	-0.002487
1104.317893	0.000183
1104.478316	-0.000428
1104.638720	0.001398
1104.799106	0.001901
1104.959474	0.006270
1105.119823	0.006958
1105.280155	0.013671
1105.440468	0.015903
1105.600763	0.014324
1105.761039	0.010967
1105.921298	0.008661
1106.081538	0.009197
1106.241760	0.004649
1106.401964	-0.000291
1106.562149	-0.000258
1106.722316	-0.003126
1106.882465	-0.007110
1107.042596	-0.006118
1107.202709	-0.003633
1107.362803	0.001019
1107.522879	-0.001131
1107.682937	0.000660
1107.842977	0.002542
1108.002999	-0.002513
1108.163002	-0.003563
1108.322987	-0.001164
1108.482954	-0.002981
1108.642902	-0.005837
1108.802833	-0.008296
1108.962745	-0.009349
1109.122639	-0.008855
1109.282515	-0.005194
1109.442372	-0.006873
1109.602211	-0.009066
1109.762032	-0.011181
1109.921835	-0.008328
1110.081620	-0.007155
1110.241386	-0.009763
1110.401134	-0.009078
1110.560864	-0.010222
1110.720576	-0.010175
1110.880269	-0.007943
1111.039945	-0.005238
1111.199602	-0.005483
1111.359240	-0.006107
1111.518861	-0.007607
1111.678463	-0.003483
1111.838047	-0.002284
1111.997613	0.001791
1112.157161	-0.001922
1112.316690	-0.003692
1112.476202	-0.005884
1112.635695	-0.001525
1112.795169	-0.001274
1112.954626	-0.000858
1113.114064	-0.001730
1113.273484	-0.003422
1113.432886	-0.007327
1113.592270	-0.008573
1113.751635	-0.002482
1113.910983	-0.001575
1114.070312	-0.002213
1114.229622	-0.003584
1114.388915	-0.002288
1114.548189	-0.003269
1114.707445	-0.002250
1114.866683	-0.002657
1115.025903	-0.003118
1115.185104	-0.006406
1115.344287	-0.007241
1115.503452	-0.010407
1115.662599	-0.008883
1115.821727	-0.007798
1115.980838	-0.003178
1116.139930	-0.001845
1116.299004	-0.001872
1116.458059	0.002731
1116.617097	0.002719
1116.776116	0.003161
1116.935117	0.001896
1117.094099	0.001432
1117.253064	-0.000796
1117.412010	-0.008629
1117.570938	-0.009691
1117.729848	-0.008185
1117.888740	-0.010203
1118.047613	-0.008140
1118.206468	-0.007442
1118.365305	-0.005219
1118.524124	-0.005227
1118.682924	-0.002713
1118.841707	0.002143
1119.000471	-0.001023
1119.159216	0.000072
1119.317944	0.001846
1119.476653	-0.002788
1119.635344	-0.006167
1119.794017	-0.006654
1119.952672	-0.006705
1120.111308	-0.011021
1120.269927	-0.011768
1120.428527	-0.008346
1120.587108	-0.008164
1120.745672	-0.005599
1120.904217	-0.001716
1121.062744	0.000220
1121.221253	-0.003806
1121.379744	-0.011704
1121.538216	-0.008305
1121.696671	-0.011010
1121.855107	-0.010656
1122.013524	-0.013796
1122.171924	-0.020388
1122.330305	-0.021485
1122.488668	-0.014877
1122.647013	-0.012057
1122.805340	-0.001230
1122.963648	-0.004129
1123.121938	-0.003962
1123.280210	-0.007725
1123.438464	-0.005807
1123.596700	-0.004130
1123.754917	-0.000531
1123.913116	-0.003682
1124.071297	-0.005138
1124.229459	-0.007996
1124.387604	-0.003416
1124.545730	0.001604
1124.703838	0.008399
1124.861928	0.005737
1125.019999	0.011795
1125.178052	0.007722
1125.336088	0.004550
1125.494104	0.005155
1125.652103	0.002204
1125.810083	-0.003822
1125.968045	-0.005601
1126.125989	-0.011582
1126.283915	-0.007755
1126.441823	-0.015613
1126.599712	-0.017994
1126.757583	-0.014127
1126.915436	-0.006538
1127.073270	-0.011079
1127.231087	-0.005146
1127.388885	-0.004518
1127.546665	-0.003893
1127.704426	-0.009383
1127.862170	-0.012133
1128.019895	-0.014507
1128.177602	-0.018316
1128.335291	-0.022379
1128.492961	-0.014854
1128.650614	-0.022618
1128.808248	-0.024407
1128.965864	-0.021572
1129.123461	-0.010309
1129.281041	-0.005192
1129.438602	-0.003257
1129.596145	-0.003816
1129.753670	-0.002891
1129.911176	-0.001300
1130.068665	0.002373
1130.226135	-0.001526
1130.383587	-0.008217
1130.541020	-0.011608
1130.698436	-0.012181
1130.855833	-0.011257
1131.013212	-0.012228
1131.170573	-0.011569
1131.327915	-0.019678
1131.485239	-0.021394
1131.642545	-0.018463
1131.799833	-0.012018
1131.957103	-0.017190
1132.114354	-0.013652
1132.271588	-0.012467
1132.428803	-0.007982
1132.585999	-0.007233
1132.743178	-0.005881
1132.900338	-0.006963
1133.057480	-0.005125
1133.214604	-0.005958
1133.371710	-0.003451
1133.528797	-0.007825
1133.685866	-0.003751
1133.842917	-0.003760
1133.999950	-0.008080
1134.156964	-0.003665
1134.313960	0.004667
1134.470938	0.002622
1134.627898	0.006127
1134.784840	-0.001690
1134.941763	0.002852
1135.098668	-0.006949
1135.255555	-0.003461
1135.412424	-0.004623
1135.569274	-0.000041
1135.726107	-0.004789
1135.882921	0.000411
1136.039716	-0.003106
1136.196494	0.002506
1136.353253	-0.004527
1136.509995	0.004816
1136.666717	0.000968
1136.823422	0.007356
1136.980109	0.008751
1137.136777	0.008318
1137.293427	0.009812
1137.450059	0.008829
1137.606672	0.004563
1137.763267	0.011148
1137.919844	0.007618
1138.076403	0.011046
1138.232944	0.010221
1138.389466	0.006423
1138.545971	0.008240
1138.702457	0.003547
1138.858924	0.000629
1139.015374	0.002068
1139.171805	-0.001908
1139.328218	0.002232
1139.484613	-0.003139
1139.640990	-0.010788
1139.797348	-0.014161
1139.953688	-0.019304
1140.110010	-0.019657
1140.266314	-0.017746
1140.422600	-0.008555
1140.578867	-0.009660
1140.735116	-0.017233
1140.891347	-0.021478
1141.047559	-0.013363
1141.203754	-0.016132
1141.359930	-0.007209
1141.516088	-0.008282
1141.672228	-0.005335
1141.828349	-0.012603
1141.984452	-0.011326
1142.140537	-0.002268
1142.296604	0.005545
1142.452653	0.004024
1142.608683	0.004496
1142.764695	-0.000042
1142.920689	0.000308
1143.076665	-0.000922
1143.232622	0.001924
1143.388562	-0.000223
1143.544483	-0.006729
1143.700385	-0.006744
1143.856270	-0.011952
1144.012136	-0.012929
1144.167985	-0.012321
1144.323814	-0.008544
1144.479626	-0.003370
1144.635420	-0.005555
1144.791195	-0.002574
1144.946952	0.005475
1145.102691	-0.001178
1145.258411	0.005079
1145.414113	0.004757
1145.569798	0.003544
1145.725463	-0.001260
1145.881111	-0.009748
1146.036741	-0.003695
1146.192352	-0.010234
1146.347945	-0.015673
1146.503519	-0.013788
1146.659076	-0.016185
1146.814614	-0.010720
1146.970134	-0.000901
1147.125636	0.008071
1147.281120	0.005834
1147.436585	0.001107
1147.592032	0.018004
1147.747461	0.020067
1147.902872	0.019304
1148.058265	0.014087
1148.213639	0.013752
1148.368995	0.007499
1148.524333	-0.005736
1148.679653	0.003485
1148.834954	0.002850
1148.990237	-0.006753
1149.145502	-0.014984
1149.300749	-0.009194
1149.455977	-0.000194
1149.611188	0.002789
1149.766380	0.005149
1149.921553	0.007229
1150.076709	0.001124
1150.231846	-0.001831
1150.386966	-0.000343
1150.542066	0.001572
1150.697149	-0.003575
1150.852214	0.002103
1151.007260	-0.001557
1151.162288	-0.010220
1151.317298	-0.007936
1151.472289	-0.010421
1151.627263	-0.007646
1151.782218	-0.012063
1151.937155	-0.005282
1152.092073	-0.010289
1152.246974	-0.019204
1152.401856	-0.010120
1152.556720	-0.000749
1152.711566	-0.000075
1152.866393	0.002748
1153.021203	-0.001862
1153.175994	0.002433
1153.330767	-0.004311
1153.485521	-0.000638
1153.640258	-0.001175
1153.794976	-0.008256
1153.949676	-0.020513
1154.104358	-0.026284
1154.259021	-0.027745
1154.413667	-0.021680
1154.568294	-0.020659
1154.722903	-0.017268
1154.877493	-0.007298
1155.032066	-0.013690
1155.186620	-0.021155
1155.341156	-0.015159
1155.495674	-0.010059
1155.650173	-0.009917
1155.804654	-0.021843
1155.959118	-0.029843
1156.113562	-0.036452
1156.267989	-0.043392
1156.422397	-0.043470
1156.576788	-0.033678
1156.731160	-0.034114
1156.885513	-0.034554
1157.039849	-0.037893
1157.194166	-0.030059
1157.348465	-0.023496
1157.502746	-0.013167
1157.657009	-0.010737
1157.811253	-0.002390
1157.965479	-0.012917
1158.119687	-0.005034
1158.273877	0.003220
1158.428048	0.005225
1158.582201	0.007165
1158.736337	0.002850
1158.890453	-0.002765
1159.044552	-0.004528
1159.198632	-0.012225
1159.352694	-0.005639
1159.506738	-0.013620
1159.660764	-0.019096
1159.814771	-0.015567
1159.968761	-0.016941
1160.122732	-0.017044
1160.276685	-0.021680
1160.430619	-0.022038
1160.584535	-0.012058
1160.738434	-0.015387
1160.892313	-0.003571
1161.046175	0.000919
1161.200019	0.007611
1161.353844	0.005494
1161.507651	0.005702
1161.661440	0.009064
1161.815210	0.007267
1161.968962	0.007472
1162.122697	0.006890
1162.276412	-0.004407
1162.430110	-0.014607
1162.583789	-0.016500
1162.737451	-0.011954
1162.891094	0.000548
1163.044718	0.001280
1163.198325	0.003349
1163.351913	-0.005955
1163.505483	0.011082
1163.659035	0.017976
1163.812569	0.022926
1163.966084	0.019087
1164.119581	0.022835
1164.273060	0.013148
1164.426521	0.016689
1164.579964	0.010616
1164.733388	0.030390
1164.886794	0.012867
1165.040182	0.010825
1165.193551	0.016546
1165.346903	0.010273
1165.500236	0.000618
1165.653551	-0.004553
1165.806848	-0.001614
1165.960126	-0.004516
1166.113386	-0.024038
1166.266628	-0.025080
1166.419852	-0.039758
1166.573058	-0.039146
1166.726245	-0.028557
1166.879414	-0.019379
1167.032565	-0.016181
1167.185698	-0.017395
1167.338812	-0.010870
1167.491909	-0.012656
1167.644987	-0.019322
1167.798046	0.002229
1167.951088	-0.012150
1168.104111	-0.023343
1168.257117	-0.030979
1168.410103	-0.022160
1168.563072	-0.018408
1168.716023	-0.013753
1168.868955	0.005898
1169.021869	0.021935
1169.174765	0.019589
1169.327642	0.027393
1169.480501	0.036352
1169.633343	0.047446
1169.786165	0.048539
1169.938970	0.027927
1170.091757	0.015352
1170.244525	0.001454
1170.397275	0.001691
1170.550007	-0.003280
1170.702720	-0.017128
1170.855415	-0.019584
1171.008092	-0.027297
1171.160751	-0.039404
1171.313392	-0.027141
1171.466014	-0.011388
1171.618619	-0.012311
1171.771205	-0.012311
1171.923772	-0.012311
