sample name	sample
index	966
start time	 04-14-2021  02:15:09 PM
880	0.011958
Peak Time (s)	101.537
Peak Height 	0.01196
calc peak height	100,103
Baseline Time (s)	11.037
Baseline Value 	-0.003273
subtract baseline	10,4
Abs	-0.020181
Peak Time (s)	100.535
Peak Height 	-0.02018
calc peak height	100,103
Baseline Time (s)	9.536
Baseline Value 	9.3461E-4
subtract baseline	10,3
PK_550	0.004165
Peak Time (s)	100.535
Peak Height 	0.004165
calc peak height	100,103
Baseline Time (s)	9.037
Baseline Value 	5.3874E-4
subtract baseline	10,2
PK_880	-0.015573
Peak Time (s)	102.037
Peak Height 	-0.01557
calc peak height	100,103
Baseline Time (s)	11.537
Baseline Value 	7.0537E-4
subtract baseline	10,1


Time (s)	A880-A510	A880-A775	A880-A975	A880	I510	I775	I975	I880	
0.041000	-0.006283	-0.001208	-0.003573	0.006693	6214.030159	41579.242002	3918.018817	21894.419167
0.536000	-0.001327	-0.000906	-0.003091	0.003692	6275.287845	41874.393878	3926.366583	22026.160285
1.036000	-0.001827	-0.001214	-0.002013	0.003313	6274.344934	41880.720437	3929.875868	22042.838520
1.537000	-0.000508	-0.000756	0.000136	0.001918	6295.496693	42047.343656	3938.468706	22104.436366
2.039500	-0.004149	-0.001024	-0.003575	0.005884	6236.560414	41667.822253	3919.948222	21929.861759
2.536500	-0.002545	-0.000320	0.002627	0.001861	6280.055217	42091.726781	3944.687955	22106.951469
3.037000	0.002565	-0.000256	0.000644	-0.000727	6340.480222	42331.748592	3946.170835	22221.783633
3.535000	-0.002229	-0.000818	0.001551	-0.000187	6298.498849	42231.854228	3947.070926	22197.770360
4.038000	-0.004670	-0.000888	-0.005746	0.004541	6242.875703	41799.894265	3917.969689	21988.783424
4.538500	-0.000634	-0.000530	0.000454	0.000517	6305.478484	42194.274143	3942.660500	22166.515772
5.038500	0.002040	-0.000286	-0.000670	0.000252	6328.596847	42240.249070	3940.563398	22178.272066
5.536000	-0.001788	0.000120	-0.003180	0.000665	6295.287300	42239.671331	3933.460670	22159.948692
6.035000	0.002002	0.000791	0.002551	0.001335	6319.759849	42239.777186	3945.790600	22130.256283
6.536500	0.000286	0.000374	0.002739	0.001324	6306.362303	42202.965782	3946.277389	22130.725691
7.040000	0.000692	0.000117	-0.001847	0.000880	6313.032444	42219.882615	3936.171081	22150.387744
7.537000	-0.001179	0.000333	-0.000078	0.000916	6298.087771	42236.158098	3940.388868	22148.813444
8.040000	0.003078	0.000442	0.004980	0.000439	6335.306466	42289.180568	3953.967881	22169.935278
8.535000	0.000465	-0.000592	0.002987	-0.000522	6322.274838	42282.660520	3951.424185	22212.645680
9.037500	0.000792	0.000000	0.003663	0.000286	6318.485062	42263.042367	3951.099620	22176.736390
9.535500	0.001844	0.000657	0.000000	0.001043	6320.808149	42253.951811	3940.267304	22143.157862
10.038500	-0.000341	0.000370	0.002349	0.000655	6306.688547	42263.175706	3946.962669	22160.364164
10.536000	-0.001271	-0.000583	-0.000647	-0.000455	6308.101925	42277.352016	3942.344645	22209.653859
11.036500	-0.000504	0.000019	-0.001007	0.000000	6310.553128	42290.658807	3940.357005	22189.444852
11.536500	0.000000	-0.000666	-0.001119	-0.000065	6315.016885	42234.507006	3940.241088	22192.316983
12.037000	0.002193	-0.000032	0.005363	0.000850	6325.077187	42209.075195	3953.899732	22151.726453
12.537500	0.000403	-0.000648	0.000060	-0.000211	6319.338296	42249.389266	3943.477190	22198.831900
13.037500	0.000141	-0.000741	-0.002241	0.000199	6314.053074	42203.925628	3936.868531	22180.624372
13.536000	-0.000125	-0.000032	0.002697	0.000787	6307.347853	42214.850877	3947.492509	22154.528104
14.038000	-0.001147	0.000146	0.001139	0.002143	6288.752192	42108.382266	3940.364596	22094.512378
14.535500	0.000187	-0.000140	-0.002449	0.002461	6296.676072	42053.868593	3930.881066	22080.420474
15.035500	-0.000554	-0.000236	0.003926	0.000839	6303.576457	42191.663040	3950.384353	22152.203682
15.536500	-0.002509	-0.000385	-0.005583	0.000248	6292.907937	42231.662460	3928.658493	22178.439796
16.036000	0.000759	-0.000112	-0.001834	0.001228	6310.826851	42167.724757	3935.358523	22134.995968
16.537000	0.000017	0.000251	-0.000626	0.000909	6307.504379	42229.358995	3939.069019	22149.092203
17.039500	-0.001620	-0.000639	0.000760	-0.000098	6302.572674	42240.039614	3944.912905	22193.814876
17.537500	-0.000295	-0.000874	0.002273	0.000439	6308.741962	42170.125398	3947.306101	22169.952516
18.038000	-0.002722	-0.000417	-0.002228	0.001729	6279.704170	42095.013657	3933.189140	22112.814695
18.537500	-0.002541	-0.000472	0.001016	0.001102	6285.991099	42146.528298	3942.603023	22140.540789
19.035500	-0.000981	-0.000313	0.000802	0.001363	6296.136977	42137.334030	3941.444554	22129.006552
19.535500	-0.000987	-0.001060	0.003697	0.000976	6299.111613	42104.887435	3949.485175	22146.139158
20.039000	0.001746	0.000898	-0.003062	0.002443	6309.035399	42149.213596	3929.445885	22081.253434
20.536000	-0.000030	0.000234	0.001839	0.002144	6297.462358	42116.243700	3942.067933	22094.441112
21.036000	-0.002244	-0.000264	-0.001254	0.001124	6288.140812	42163.367018	3937.017895	22139.576767
21.537000	-0.002807	0.000088	-0.001327	0.001676	6279.458462	42145.341711	3935.500519	22115.149191
22.040000	0.001089	-0.000635	0.000933	0.001318	6312.708077	42112.315418	3941.871989	22130.971332
22.537500	-0.000287	-0.000432	0.003729	0.001685	6299.051038	42097.629869	3947.822410	22114.761963
23.034500	0.000515	0.000257	0.001131	0.001602	6305.975287	42167.232310	3941.663875	22118.419465
23.537500	-0.000496	-0.000280	0.001674	0.001737	6297.007751	42106.606039	3942.660724	22112.463983
24.038500	-0.001958	-0.000976	-0.001006	0.000781	6293.052951	42130.056066	3938.454952	22154.786195
24.536000	-0.002932	-0.000677	0.003867	0.000960	6284.057252	42140.806522	3949.941305	22146.833930
25.039000	-0.000790	-0.000477	-0.003258	0.001444	6297.001674	42115.275540	3931.385206	22125.429550
25.536500	-0.001800	-0.000302	0.003471	0.001518	6288.529903	42124.366060	3947.597995	22122.144651
26.040000	0.000349	-0.000124	-0.001154	0.001512	6305.378531	42140.925322	3936.318259	22122.378951
26.537000	0.000267	-0.000108	-0.001186	0.001580	6304.208934	42136.278566	3936.076560	22119.412189
27.040000	-0.001729	-0.000084	-0.000894	0.001464	6289.507993	42148.974641	3937.068538	22124.547794
27.535000	0.000160	0.000139	-0.003484	-0.001198	6325.201301	42410.391857	3937.243895	22242.751246
28.038000	-0.000731	0.000083	-0.005719	0.003605	6280.597920	41970.994627	3920.269948	22029.975710
28.535500	-0.000912	0.000137	0.000892	0.000960	6299.825219	42214.456795	3942.648175	22146.846472
29.038500	-0.000165	0.000067	-0.004393	0.001012	6305.270722	42203.436916	3929.685707	22144.548735
29.535500	-0.001499	-0.000601	0.000910	0.000299	6300.409622	42207.467774	3944.307926	22176.177942
30.036000	-0.000525	-0.000684	0.000403	0.001688	6297.161955	42074.537247	3939.677285	22114.605636
30.537000	0.000311	-0.001118	-0.001261	0.000414	6313.699409	42150.412506	3938.730098	22171.079968
31.037000	-0.001844	-0.000921	-0.002189	0.001934	6284.943294	42031.011227	3932.783721	22103.711425
31.537000	-0.000877	-0.001188	0.002655	0.000655	6302.487198	42122.270036	3947.713757	22160.379087
32.041000	-0.001447	0.000152	-0.002592	0.003194	6278.226561	42014.171811	3928.765786	22048.081273
32.535000	-0.000737	-0.000310	0.003734	0.000924	6301.473633	42177.275150	3949.702154	22148.430310
33.038000	0.000184	0.000400	0.004657	0.001246	6306.170499	42212.335521	3951.182418	22134.179429
33.536000	-0.000178	-0.000652	-0.002046	0.000774	6307.041620	42160.011476	3935.944703	22155.115850
34.038000	-0.000895	0.000312	0.000571	0.002539	6287.633140	42087.705811	3938.015502	22077.015794
34.536500	-0.000544	-0.000342	0.002685	0.001911	6295.269068	42085.275050	3944.708767	22104.763012
35.036500	0.001382	0.000424	0.001861	0.002223	6307.909232	42126.227615	3941.929379	22090.958382
35.536500	-0.001568	0.000286	0.000052	0.002402	6283.443896	42097.604015	3937.086269	22083.031834
36.040000	-0.002595	0.000205	-0.000389	0.001661	6281.225061	42157.234753	3937.816029	22115.821433
36.537500	-0.003318	-0.000339	-0.001864	0.001706	6275.247627	42104.000228	3934.123710	22113.794207
37.037500	-0.001457	-0.000000	0.000377	0.001917	6288.096542	42115.567046	3939.057899	22104.488676
37.538000	-0.002529	0.000026	0.002979	0.001713	6281.330845	42136.305666	3945.910735	22113.484439
38.038000	-0.000955	-0.000868	-0.000088	0.001519	6295.123165	42073.258850	3938.895229	22122.097305
38.535500	0.001155	-0.000312	-0.003398	0.001622	6310.837918	42114.068226	3930.616525	22117.538403
39.038500	-0.002400	-0.000175	-0.004693	0.001964	6280.388626	42095.614999	3926.670629	22102.421688
39.536000	-0.002327	-0.000004	0.001168	0.001993	6280.722083	42108.385012	3940.800070	22101.106832
40.036500	-0.001065	0.000545	0.000795	0.002329	6287.932654	42127.560614	3939.071946	22086.262102
40.537000	0.000221	-0.000487	-0.002544	0.001706	6302.859589	42090.662656	3932.477178	22113.814935
41.037000	-0.001485	-0.000279	-0.002706	0.002071	6286.675110	42076.516210	3931.202189	22097.669309
41.537500	-0.001004	0.000091	0.003194	0.002412	6287.765554	42079.213630	3944.726118	22082.612329
42.037500	-0.002615	-0.000266	0.000538	0.001614	6281.431737	42118.948644	3940.187811	22117.890949
42.535500	-0.000091	-0.000385	0.000420	0.001985	6298.232340	42074.689684	3938.995086	22101.468551
43.035500	-0.001513	-0.001099	-0.002107	0.001591	6290.206283	42045.941772	3933.816943	22118.920310
43.536000	-0.000238	0.000776	0.001206	0.002760	6291.032046	42109.612194	3939.024384	22067.246422
44.035500	0.001385	0.000599	-0.003488	0.001897	6310.483956	42171.541362	3929.736040	22105.369799
44.536500	0.000437	0.000309	0.000572	0.001181	6308.668936	42210.069025	3941.327879	22137.074297
45.037000	0.000763	-0.000343	-0.001059	0.000427	6317.151281	42219.315387	3939.189378	22170.501157
45.537000	-0.000572	-0.000102	0.002463	0.000837	6303.452936	42203.972155	3946.795127	22152.293714
46.037500	0.001523	0.001329	-0.000320	0.003842	6296.328089	42061.862889	3932.690026	22019.533523
46.537000	-0.000929	-0.000826	0.000011	0.000298	6304.879012	42187.198457	3942.112482	22176.219544
47.037500	-0.000631	-0.000001	-0.001956	0.000367	6306.672242	42255.611107	3937.151853	22173.143709
47.535000	-0.001611	0.000121	-0.003024	0.001197	6292.504665	42191.577346	3932.547962	22136.335639
48.038500	-0.002632	0.000321	-0.001981	0.002767	6272.339198	42067.940166	3931.275141	22066.951784
48.536000	0.000735	0.000309	0.002476	0.001028	6312.209200	42223.819210	3946.358379	22143.837298
49.036000	0.001236	0.000825	0.001248	0.001123	6315.393773	42261.906135	3943.117681	22139.612229
49.536500	0.001040	0.000481	0.001395	0.001085	6314.148531	42234.240732	3943.571935	22141.295273
50.037000	-0.000087	0.000016	-0.000572	-0.000228	6315.614875	42311.017461	3941.972741	22199.555824
50.537500	0.002001	0.000074	0.001807	-0.000121	6331.231504	42306.723004	3947.538108	22194.833133
51.036500	0.005374	-0.001965	0.000472	-0.007740	6419.152609	42815.919972	3963.074103	22536.337629
51.534500	0.014840	-0.010712	0.002828	0.322749	4581.029336	21190.089399	3389.541301	12073.608954
52.035000	-0.004422	-0.012671	-0.038599	-0.041637	6619.895444	45003.981535	3950.263771	24130.438359
52.535500	-0.015298	-0.034214	-0.048869	-0.194709	8060.459190	59888.682509	4366.376528	33102.223910
53.037500	-0.016374	-0.047680	-0.038719	-0.229182	8472.857656	62711.896717	4527.065347	35597.388077
53.536000	-0.004409	-0.040629	-0.029651	-0.218397	8488.013402	62199.996726	4520.567976	34795.340980
54.036000	0.004184	-0.032920	-0.019494	-0.204524	8420.509252	61364.629794	4506.604734	33792.598832
54.537000	0.002319	-0.016931	-0.015363	-0.135711	7591.556429	54671.702012	4281.722325	29265.622992
55.037000	-0.003742	-0.010684	-0.018139	-0.096732	7129.496145	50914.851324	4153.362154	27002.206874
55.534500	-0.000833	-0.010913	-0.017716	-0.111217	7302.277600	52516.309777	4197.782183	27819.683158
56.034500	-0.003907	-0.009568	-0.019229	-0.095705	7117.905120	50924.677859	4147.177539	26945.275133
56.538000	-0.000342	-0.006666	-0.013669	-0.108936	7284.182249	52741.277335	4203.146492	27689.140033
57.035500	-0.003003	-0.006974	-0.019367	-0.118444	7353.837741	53807.944922	4214.793845	28237.890849
57.535000	-0.002277	-0.007833	-0.018421	-0.110509	7280.531804	52787.848916	4193.504509	27779.084928
58.038500	-0.001283	-0.005973	-0.013463	-0.094784	7134.477110	51221.229330	4161.379398	26894.375012
58.536000	-0.002650	-0.004823	-0.010004	-0.087876	7054.577961	50585.033048	4151.254689	26515.691914
59.039000	-0.003689	-0.002960	-0.017474	-0.073068	6905.767559	49185.449898	4087.759840	25724.034883
59.537000	-0.001901	-0.006641	-0.019795	-0.065256	6850.592054	47977.196473	4059.937724	25317.099848
60.040000	-0.005589	-0.002315	-0.014974	-0.017373	6408.388928	43677.718094	3948.692601	22976.745608
60.534500	-0.005522	-0.001535	-0.014467	-0.029516	6508.394353	44908.648745	3980.236627	23546.056050
61.034000	-0.008469	-0.002983	-0.018102	-0.029170	6481.150928	44735.674340	3970.209968	23529.645024
61.535000	-0.004476	-0.002500	-0.013525	-0.016020	6406.449597	43533.668317	3948.928740	22914.301352
62.038000	-0.009681	-0.001918	-0.014599	-0.001132	6247.980584	42217.844746	3910.407439	22239.805840
62.535500	-0.004854	-0.000946	-0.007629	0.003579	6248.867911	41880.949559	3915.772953	22031.136316
63.038500	-0.005019	-0.002150	-0.016969	-0.005610	6319.151286	42603.862742	3915.414046	22440.238689
63.536500	-0.007578	-0.002391	-0.013180	-0.006017	6302.258931	42618.959878	3925.451912	22458.555594
64.039000	-0.001544	-0.001543	-0.012242	-0.001554	6314.590342	42289.961683	3917.014376	22258.607315
64.536500	0.000670	-0.002936	-0.011115	0.001161	6310.647103	41919.343206	3913.233698	22137.938816
65.039500	-0.003663	-0.001705	-0.012004	0.003204	6260.960876	41846.526893	3906.290852	22047.650366
65.534500	-0.004960	-0.002555	-0.017353	-0.014494	6390.269712	43386.147274	3935.850182	22844.113470
66.039500	-0.006553	-0.009571	-0.014882	-0.011511	6353.703802	42465.282053	3934.608690	22707.603460
66.535000	-0.002394	-0.003136	-0.012426	0.010850	6211.990924	41041.407261	3887.428364	21713.471827
67.035500	-0.004525	-0.006528	-0.020272	0.042552	5963.855749	38082.432592	3799.867736	20388.993537
67.535500	-0.005756	-0.009427	-0.021304	0.056021	5861.926014	36782.007313	3769.708317	19854.892258
68.036500	-0.009368	-0.011958	-0.014715	0.109522	5497.081948	32683.694021	3678.759502	17889.583556
68.536500	-0.012888	-0.007894	-0.014532	0.114765	5445.230100	32603.059415	3669.523007	17709.694241
69.036500	-0.017093	-0.006197	-0.019691	0.099555	5510.522381	33781.248665	3687.976547	18237.620632
69.537000	-0.018396	-0.004287	-0.017462	0.083881	5598.304056	35056.210473	3721.917831	18801.298419
70.034000	-0.015582	-0.000206	-0.018649	0.073369	5682.348277	36154.309896	3740.159728	19190.932789
70.537500	-0.018274	0.001129	-0.021343	0.063795	5726.773986	36999.596785	3753.871270	19554.079576
71.037000	-0.015178	0.001404	-0.027314	0.056743	5793.569717	37579.323429	3756.044026	19826.707463
71.535500	-0.013319	0.001138	-0.012210	0.050321	5849.254278	38074.083838	3800.488327	20078.899957
72.035500	-0.012415	-0.000142	-0.011367	0.045962	5885.198037	38324.189504	3811.560172	20252.191778
72.536000	-0.013563	-0.001271	-0.021220	0.041682	5906.796596	38581.950627	3799.702140	20424.071103
73.036000	-0.010280	-0.000371	-0.016760	0.040372	5938.752204	38763.899737	3811.984887	20477.020888
73.536000	-0.014154	-0.001479	-0.016869	0.037944	5928.652771	38872.967183	3816.966931	20575.568995
74.036000	-0.011782	-0.001359	-0.012223	0.034967	5966.168855	39130.278358	3833.530278	20697.141269
74.537000	-0.011411	-0.001005	-0.022401	0.031481	5993.513568	39451.797574	3818.973196	20840.586905
75.035000	-0.010545	-0.001630	-0.013359	0.028080	6024.042013	39686.055038	3846.223110	20981.634279
75.534500	-0.010093	-0.000942	-0.015394	0.025855	6043.356814	39933.436789	3846.646104	21074.520280
76.035500	-0.010694	-0.001334	-0.014834	0.020639	6076.919333	40346.832599	3859.568085	21294.140418
76.536000	-0.007488	0.000323	-0.014293	0.017809	6121.363026	40735.467135	3867.189223	21414.390314
77.035500	-0.009389	-0.000477	-0.013948	0.013451	6139.639312	41046.532529	3877.923420	21601.142553
77.536000	-0.013274	-0.000382	-0.015202	0.011228	6127.268127	41250.504387	3880.147112	21697.089977
78.036000	-0.010940	0.000240	-0.019812	0.006722	6178.481915	41705.806638	3879.910147	21893.167214
78.537000	-0.012368	0.000639	-0.018518	0.003539	6191.744230	42026.903720	3890.252903	22032.865377
79.037000	-0.012096	0.000391	-0.019240	0.000541	6216.616889	42275.433387	3895.556965	22165.433504
79.537000	-0.016114	0.000676	-0.021760	-0.000992	6197.703828	42440.504299	3893.255346	22233.568170
80.037000	-0.014747	0.000415	-0.021049	-0.004627	6235.885395	42748.593402	3903.428374	22396.056653
80.535500	-0.015623	0.001139	-0.018681	-0.006618	6244.464975	42998.337469	3913.738975	22485.648491
81.035000	-0.016089	0.000834	-0.021746	-0.009076	6259.832634	43197.500356	3912.296874	22596.818012
81.535500	-0.014813	0.001588	-0.024669	-0.008689	6266.715429	43231.622433	3904.470392	22579.266267
82.036000	-0.016372	0.001160	-0.021414	-0.012460	6283.905124	43543.116004	3921.155906	22750.928768
82.536500	-0.015936	0.000630	-0.021780	-0.013691	6296.905921	43608.669716	3923.226705	22807.248216
83.036000	-0.017715	-0.000633	-0.024122	-0.015314	6295.686965	43642.410016	3921.504674	22881.797010
83.537000	-0.016108	0.000624	-0.027661	-0.012648	6287.426365	43510.528710	3906.750890	22759.517690
84.036500	-0.015514	0.000868	-0.020021	-0.014739	6308.423080	43729.313503	3929.983454	22855.359325
84.534500	-0.016583	0.001318	-0.018006	-0.015091	6302.802029	43804.767139	3935.712317	22871.523273
85.037500	-0.013988	0.000832	-0.017727	-0.015160	6323.730263	43765.515692	3936.558305	22874.715544
85.535500	-0.017284	0.001705	-0.018548	-0.015152	6297.791419	43846.979827	3934.546480	22874.360203
86.035500	-0.017333	0.001189	-0.021055	-0.015979	6303.883728	43876.258473	3930.479176	22912.403026
86.536000	-0.017308	0.001578	-0.023261	-0.015551	6300.723465	43872.594195	3924.138140	22892.695790
87.036000	-0.016638	0.002010	-0.024427	-0.015470	6305.339449	43905.687121	3921.148246	22888.984802
87.536500	-0.018202	0.001919	-0.020869	-0.011904	6265.364800	43562.059884	3921.127279	22725.492590
88.037000	-0.017959	0.002364	-0.021189	-0.015836	6297.861875	43973.701275	3929.812986	22905.838978
88.537000	-0.018829	0.000858	-0.022335	-0.017667	6305.388759	44004.447687	3931.465973	22990.364790
89.037500	-0.017002	0.002523	-0.024715	-0.016851	6313.320495	44084.801390	3923.769473	22952.651835
89.534500	-0.021826	0.002208	-0.023993	-0.017599	6281.442656	44125.874549	3927.302650	22987.209003
90.035000	-0.019391	0.001763	-0.026534	-0.018557	6307.961803	44174.654379	3923.496738	23031.595438
90.535500	-0.016406	0.002092	-0.025313	-0.018143	6328.184583	44166.530664	3925.434337	23012.399480
91.036000	-0.020038	0.001810	-0.021327	-0.017842	6297.295061	44111.210735	3934.331979	22998.458343
91.536000	-0.018284	0.001907	-0.023235	-0.017681	6309.774994	44105.113059	3929.327179	22991.013178
92.036000	-0.017460	0.002404	-0.021861	-0.016958	6310.570075	44083.724539	3930.900827	22957.609093
92.536000	-0.016215	0.002596	-0.023353	-0.015142	6306.085171	43930.032065	3922.936102	22873.874970
93.037000	-0.017639	0.001776	-0.026201	-0.014777	6292.088745	43818.299115	3915.258743	22857.087515
93.536500	-0.020465	0.001952	-0.025802	-0.009249	6227.487342	43317.494260	3903.121831	22604.681237
94.035000	-0.018913	0.001875	-0.025144	-0.013016	6268.474469	43662.125416	3913.584188	22776.348946
94.534000	-0.017059	0.001510	-0.021506	-0.012307	6277.366063	43561.517815	3920.570241	22743.928527
95.035500	-0.014582	0.002844	-0.025818	-0.010429	6282.024095	43510.680560	3905.864174	22658.294664
95.535500	-0.016640	0.002825	-0.025389	-0.009093	6255.703965	43384.228461	3903.725449	22597.603688
96.035500	-0.016230	0.003212	-0.020600	-0.008826	6256.813383	43395.457449	3914.426889	22585.511185
96.536500	-0.016543	0.003475	-0.024314	-0.007758	6246.152225	43320.387640	3903.112742	22537.119577
97.036000	-0.016020	0.003848	-0.021694	-0.006700	6242.041491	43256.825141	3906.797246	22489.365588
97.537000	-0.019407	0.003865	-0.022545	-0.000326	6167.789036	42670.691225	3889.879416	22203.920884
98.037000	-0.016599	0.003667	-0.021050	-0.004834	6223.282040	43067.112908	3903.914560	22405.345793
98.537000	-0.016999	0.004227	-0.018438	-0.003051	6206.621955	42954.163122	3905.867703	22325.430560
99.039500	-0.015133	0.003513	-0.021561	-0.002017	6212.963826	42793.422465	3896.108201	22279.226805
99.535000	-0.017747	0.003245	-0.023248	0.000202	6176.316935	42565.766405	3887.024908	22180.469878
100.035000	-0.016895	0.003417	-0.024463	0.001422	6173.537166	42470.203176	3881.401152	22126.377870
100.535500	-0.016803	0.004165	-0.020181	0.003402	6159.341525	42358.228195	3886.717539	22038.921209
101.036000	-0.017378	0.003195	-0.027590	0.004296	6148.343253	42189.306840	3867.679316	21999.550904
101.536500	-0.021211	0.003215	-0.021513	0.011958	6063.526135	41504.459946	3864.088283	21665.538590
102.036500	-0.015573	0.002239	-0.026719	0.007376	6138.821849	41826.092780	3862.677374	21864.583009
102.536500	-0.016129	0.003048	-0.023944	0.009773	6116.880741	41684.087555	3863.530953	21760.173930
103.037000	-0.018753	0.002622	-0.019627	0.011207	6086.979191	41518.429566	3870.071841	21698.003139
103.540000	-0.018991	0.003405	-0.018533	0.018536	6031.948502	40941.043301	3855.980202	21383.410574
104.034500	-0.016426	0.004012	-0.015565	0.016125	6068.027047	41206.219974	3868.126427	21486.344590
104.535500	-0.017174	0.003046	-0.020871	0.016216	6061.916012	41113.095379	3855.939250	21482.423491
105.035500	-0.014110	0.003989	-0.020900	0.018380	6068.471674	41005.937590	3851.030916	21390.068741
105.535500	-0.014676	0.003596	-0.019689	0.020280	6050.541149	40805.436486	3849.494001	21309.354780
106.036000	-0.012246	0.004222	-0.018457	0.022427	6052.591501	40672.889733	3847.456476	21218.536912
106.536500	-0.018787	0.003217	-0.018982	0.022557	6004.553392	40574.426843	3846.001844	21213.074088
107.037000	-0.015327	0.003757	-0.019267	0.024755	6013.588420	40430.930725	3840.502286	21120.615474
107.537000	-0.017658	0.003630	-0.021833	0.032320	5943.469871	39772.465472	3818.388737	20805.954659
108.037000	-0.015007	0.003709	-0.015689	0.028019	5992.557267	40146.038304	3841.196586	20984.193541
108.537500	-0.017141	0.002707	-0.018450	0.028837	5971.617817	39990.356119	3833.319238	20950.160918
109.035000	-0.015475	0.003415	-0.021435	0.031152	5967.029155	39853.421578	3821.771966	20854.166989
109.535000	-0.018140	0.003690	-0.020902	0.038248	5898.897469	39278.021875	3807.671083	20563.203241
110.035500	-0.012199	0.003425	-0.017761	0.033899	5970.765077	39621.374909	3823.781449	20740.955355
110.536000	-0.012771	0.003526	-0.016737	0.035343	5956.556095	39508.131860	3822.873027	20681.753160
111.035500	-0.013555	0.004030	-0.015138	0.037441	5936.341121	39374.121736	3821.789920	20596.039254
111.536500	-0.014215	0.004543	-0.019832	0.038264	5925.998894	39348.099570	3809.921748	20562.550972
112.037000	-0.013270	0.003773	-0.015780	0.038708	5929.489206	39246.449047	3817.666636	20544.488460
112.534000	-0.012773	0.004435	-0.015882	0.040473	5920.666290	39154.336978	3813.651628	20472.945265
