sample name	sample
index	1295
start time	 04-29-2021  03:27:47 PM


Wavelength (nm)	Absorbance
494.344910	NaN
494.563924	NaN
494.782919	NaN
495.001897	NaN
495.220856	-0.016158
495.439797	0.383141
495.658719	-0.227638
495.877624	-1.321413
496.096510	-0.658474
496.315378	-0.277314
496.534227	1.065063
496.753059	0.336814
496.971872	0.206562
497.190667	0.034401
497.409444	0.021324
497.628203	0.023306
497.846943	0.021708
498.065665	0.021460
498.284369	0.020936
498.503055	0.019937
498.721723	0.020544
498.940372	0.019969
499.159003	0.018741
499.377616	0.018955
499.596210	0.018227
499.814787	0.017965
500.033345	0.018395
500.251885	0.018472
500.470406	0.018901
500.688910	0.018693
500.907395	0.018737
501.125862	0.019620
501.344311	0.020372
501.562742	0.020097
501.781154	0.020887
501.999548	0.020978
502.217924	0.021157
502.436282	0.020078
502.654621	0.019703
502.872942	0.019641
503.091245	0.019224
503.309530	0.018465
503.527797	0.018341
503.746045	0.017873
503.964275	0.017771
504.182487	0.015906
504.400681	0.015474
504.618856	0.015602
504.837013	0.015907
505.055152	0.015751
505.273273	0.015721
505.491376	0.016066
505.709460	0.015686
505.927526	0.016128
506.145574	0.017205
506.363604	0.018438
506.581615	0.017689
506.799608	0.017777
507.017583	0.017371
507.235540	0.017721
507.453478	0.017165
507.671399	0.017337
507.889301	0.016902
508.107185	0.016700
508.325050	0.015207
508.542898	0.015504
508.760727	0.015426
508.978538	0.015957
509.196330	0.015160
509.414105	0.015085
509.631861	0.015016
509.849599	0.014980
510.067319	0.014602
510.285021	0.014959
510.502704	0.014905
510.720369	0.014599
510.938016	0.014231
511.155645	0.014038
511.373255	0.014382
511.590848	0.013827
511.808422	0.012402
512.025977	0.012174
512.243515	0.013280
512.461034	0.013113
512.678536	0.013662
512.896018	0.013232
513.113483	0.014162
513.330930	0.014269
513.548358	0.015203
513.765768	0.016178
513.983160	0.016579
514.200533	0.015246
514.417889	0.014986
514.635226	0.014093
514.852545	0.014600
515.069845	0.013904
515.287128	0.013803
515.504392	0.014002
515.721638	0.013319
515.938866	0.013185
516.156075	0.013151
516.373267	0.012709
516.590440	0.012673
516.807594	0.012486
517.024731	0.012240
517.241850	0.012115
517.458950	0.011209
517.676032	0.011690
517.893095	0.011671
518.110141	0.011740
518.327168	0.012461
518.544177	0.012348
518.761168	0.012453
518.978141	0.012390
519.195095	0.012091
519.412031	0.012060
519.628949	0.012259
519.845849	0.012679
520.062731	0.012727
520.279594	0.012867
520.496439	0.012973
520.713266	0.012777
520.930074	0.013210
521.146865	0.012873
521.363637	0.012745
521.580391	0.012048
521.797127	0.012382
522.013844	0.012324
522.230543	0.011992
522.447224	0.011952
522.663887	0.011976
522.880532	0.011351
523.097158	0.011901
523.313766	0.011983
523.530356	0.012230
523.746928	0.011480
523.963481	0.011699
524.180017	0.011805
524.396534	0.011770
524.613032	0.011665
524.829513	0.011665
525.045975	0.011154
525.262420	0.011128
525.478845	0.010967
525.695253	0.011587
525.911643	0.011381
526.128014	0.011254
526.344367	0.011439
526.560702	0.011681
526.777018	0.011795
526.993316	0.012091
527.209597	0.012616
527.425858	0.012564
527.642102	0.012297
527.858328	0.012384
528.074535	0.011502
528.290724	0.010823
528.506894	0.010225
528.723047	0.010817
528.939181	0.010445
529.155297	0.010055
529.371395	0.010457
529.587475	0.010386
529.803536	0.010099
530.019579	0.010629
530.235604	0.011564
530.451611	0.011551
530.667600	0.010671
530.883570	0.010861
531.099522	0.010861
531.315456	0.010794
531.531372	0.010033
531.747269	0.010452
531.963148	0.010385
532.179009	0.009669
532.394852	0.009536
532.610676	0.009656
532.826482	0.009778
533.042271	0.009591
533.258040	0.009269
533.473792	0.010097
533.689525	0.009872
533.905240	0.010392
534.120937	0.010505
534.336616	0.010549
534.552277	0.010239
534.767919	0.009322
534.983543	0.009279
535.199149	0.009158
535.414736	0.008736
535.630306	0.008369
535.845857	0.008005
536.061390	0.007572
536.276904	0.007788
536.492401	0.008050
536.707879	0.008633
536.923339	0.008425
537.138781	0.008467
537.354204	0.008235
537.569610	0.008159
537.784997	0.007470
538.000366	0.007450
538.215716	0.007376
538.431049	0.007327
538.646363	0.007550
538.861659	0.007406
539.076937	0.007299
539.292196	0.007192
539.507438	0.007114
539.722661	0.007653
539.937866	0.007864
540.153052	0.007497
540.368221	0.007448
540.583371	0.007078
540.798503	0.007127
541.013617	0.006987
541.228712	0.007090
541.443789	0.007109
541.658848	0.007201
541.873889	0.006994
542.088912	0.007421
542.303916	0.007100
542.518902	0.006906
542.733870	0.006854
542.948820	0.007178
543.163752	0.007248
543.378665	0.007161
543.593560	0.007222
543.808437	0.007451
544.023295	0.006902
544.238136	0.007089
544.452958	0.007216
544.667762	0.007178
544.882548	0.006764
545.097315	0.006566
545.312064	0.006593
545.526795	0.006229
545.741508	0.005950
545.956203	0.006079
546.170879	0.005732
546.385537	0.005744
546.600177	0.005561
546.814799	0.005719
547.029402	0.005362
547.243988	0.005522
547.458555	0.005826
547.673103	0.005586
547.887634	0.005377
548.102146	0.005595
548.316640	0.005653
548.531116	0.005819
548.745574	0.005787
548.960013	0.006100
549.174435	0.005595
549.388838	0.005386
549.603222	0.005954
549.817589	0.006208
550.031937	0.006319
550.246267	0.006393
550.460579	0.006143
550.674873	0.005998
550.889148	0.005728
551.103405	0.005791
551.317644	0.005764
551.531865	0.005192
551.746068	0.005074
551.960252	0.004714
552.174418	0.004368
552.388566	0.004596
552.602696	0.004756
552.816807	0.004838
553.030900	0.004782
553.244975	0.004563
553.459032	0.005170
553.673070	0.005326
553.887091	0.005357
554.101093	0.005229
554.315077	0.004958
554.529042	0.004987
554.742990	0.005029
554.956919	0.005233
555.170830	0.005230
555.384722	0.005105
555.598597	0.004948
555.812453	0.005423
556.026291	0.005652
556.240111	0.005627
556.453913	0.005309
556.667696	0.005354
556.881461	0.005137
557.095208	0.005049
557.308937	0.004427
557.522647	0.004587
557.736339	0.003885
557.950013	0.003491
558.163669	0.003467
558.377307	0.003364
558.590926	0.003103
558.804527	0.003097
559.018110	0.003177
559.231675	0.003447
559.445221	0.003599
559.658749	0.003544
559.872259	0.003512
560.085751	0.003859
560.299225	0.003976
560.512680	0.004320
560.726117	0.004392
560.939536	0.004202
561.152937	0.003919
561.366319	0.003725
561.579683	0.004101
561.793029	0.004324
562.006357	0.003717
562.219667	0.004021
562.432958	0.003777
562.646231	0.003805
562.859486	0.004065
563.072723	0.004206
563.285941	0.003854
563.499141	0.003905
563.712323	0.003733
563.925487	0.004112
564.138632	0.003774
564.351760	0.003860
564.564869	0.004084
564.777960	0.004132
564.991032	0.004348
565.204087	0.004714
565.417123	0.004482
565.630141	0.004739
565.843140	0.004633
566.056122	0.004677
566.269085	0.004833
566.482030	0.004693
566.694957	0.004305
566.907866	0.004316
567.120756	0.003971
567.333628	0.003843
567.546482	0.003755
567.759318	0.003798
567.972135	0.003939
568.184935	0.003743
568.397716	0.003863
568.610478	0.003795
568.823223	0.003668
569.035949	0.003963
569.248657	0.004274
569.461347	0.004452
569.674019	0.004402
569.886672	0.004235
570.099308	0.003742
570.311925	0.003629
570.524523	0.003785
570.737104	0.003351
570.949666	0.003189
571.162210	0.003248
571.374736	0.003218
571.587244	0.002995
571.799733	0.003327
572.012205	0.003635
572.224658	0.003614
572.437092	0.003811
572.649509	0.004074
572.861907	0.004060
573.074287	0.004010
573.286649	0.004070
573.498993	0.004143
573.711318	0.003511
573.923625	0.003764
574.135914	0.003723
574.348185	0.003664
574.560438	0.003590
574.772672	0.003483
574.984888	0.003097
575.197086	0.002794
575.409266	0.003096
575.621427	0.003214
575.833570	0.003053
576.045695	0.002835
576.257802	0.002840
576.469890	0.002989
576.681961	0.003075
576.894013	0.003359
577.106046	0.003579
577.318062	0.003760
577.530059	0.004039
577.742039	0.004025
577.954000	0.004207
578.165942	0.003913
578.377867	0.003985
578.589773	0.003903
578.801661	0.003893
579.013531	0.003736
579.225382	0.003318
579.437216	0.003269
579.649031	0.003359
579.860828	0.003075
580.072606	0.003119
580.284367	0.003143
580.496109	0.002817
580.707833	0.002741
580.919539	0.002640
581.131227	0.002754
581.342896	0.002254
581.554547	0.001920
581.766180	0.002078
581.977795	0.002410
582.189391	0.002575
582.400969	0.002835
582.612529	0.002793
582.824071	0.002567
583.035595	0.002476
583.247100	0.002784
583.458587	0.003097
583.670056	0.003121
583.881506	0.002848
584.092939	0.002367
584.304353	0.002636
584.515749	0.002928
584.727127	0.003093
584.938486	0.003060
585.149828	0.003241
585.361151	0.002979
585.572456	0.003112
585.783742	0.002999
585.995011	0.003048
586.206261	0.002765
586.417493	0.002643
586.628706	0.002446
586.839902	0.002626
587.051079	0.002233
587.262238	0.002448
587.473379	0.002075
587.684502	0.002041
587.895606	0.001974
588.106692	0.001965
588.317760	0.001875
588.528810	0.002140
588.739841	0.002092
588.950855	0.002327
589.161850	0.002398
589.372827	0.002629
589.583785	0.002942
589.794726	0.003463
590.005648	0.003506
590.216552	0.003598
590.427437	0.003366
590.638305	0.003113
590.849154	0.003143
591.059985	0.003020
591.270798	0.002986
591.481592	0.002771
591.692369	0.002442
591.903127	0.002352
592.113867	0.002099
592.324588	0.002408
592.535292	0.002636
592.745977	0.002748
592.956644	0.002544
593.167293	0.002722
593.377923	0.003153
593.588536	0.003222
593.799130	0.003196
594.009706	0.003097
594.220263	0.002962
594.430803	0.002990
594.641324	0.002725
594.851827	0.002910
595.062312	0.002740
595.272778	0.002299
595.483227	0.002332
595.693657	0.002320
595.904069	0.002327
596.114462	0.002002
596.324838	0.001752
596.535195	0.001810
596.745534	0.001810
596.955855	0.001940
597.166157	0.002050
597.376441	0.001918
597.586707	0.002214
597.796955	0.002371
598.007185	0.002775
598.217396	0.002946
598.427589	0.002853
598.637764	0.003091
598.847921	0.002968
599.058060	0.003053
599.268180	0.003039
599.478282	0.002673
599.688366	0.002687
599.898431	0.002704
600.108479	0.002187
600.318508	0.002157
600.528519	0.001576
600.738511	0.001216
600.948486	0.000795
601.158442	0.000784
601.368380	0.000700
601.578300	0.000426
601.788202	0.000171
601.998085	0.000385
602.207950	0.000285
602.417797	0.000311
602.627626	0.000589
602.837436	0.000734
603.047228	0.000745
603.257002	0.000898
603.466758	0.001240
603.676496	0.001209
603.886215	0.001455
604.095916	0.001500
604.305599	0.001760
604.515264	0.001452
604.724910	0.001455
604.934538	0.001154
605.144148	0.001093
605.353740	0.000673
605.563314	0.000590
605.772869	0.000486
605.982406	0.000206
606.191925	-0.000050
606.401425	-0.000113
606.610908	-0.000339
606.820372	-0.000352
607.029818	-0.000256
607.239246	-0.000163
607.448655	-0.000111
607.658047	-0.000316
607.867420	0.000069
608.076775	0.000207
608.286111	0.000300
608.495430	0.000281
608.704730	0.000566
608.914012	0.000275
609.123275	0.000172
609.332521	0.000221
609.541748	0.000317
609.750957	0.000154
609.960148	-0.000066
610.169321	0.000042
610.378475	0.000151
610.587611	-0.000257
610.796729	-0.000172
611.005829	0.000012
611.214910	0.000166
611.423974	-0.000006
611.633019	0.000020
611.842045	-0.000053
612.051054	-0.000126
612.260044	-0.000291
612.469017	-0.000277
612.677970	-0.000301
612.886906	-0.000459
613.095824	-0.000476
613.304723	-0.000418
613.513604	-0.000494
613.722467	-0.000319
613.931311	-0.000279
614.140138	-0.000299
614.348946	-0.000165
614.557736	-0.000290
614.766507	-0.000247
614.975261	-0.000435
615.183996	-0.000341
615.392713	-0.000464
615.601412	-0.000301
615.810092	-0.000368
616.018754	-0.000084
616.227399	-0.000173
616.436024	0.000029
616.644632	0.000191
616.853222	0.000154
617.061793	0.000056
617.270346	0.000139
617.478880	-0.000120
617.687397	-0.000135
617.895895	-0.000341
618.104375	-0.000381
618.312837	-0.000723
618.521281	-0.001017
618.729706	-0.000993
618.938113	-0.001185
619.146502	-0.001408
619.354873	-0.001397
619.563226	-0.001441
619.771560	-0.001576
619.979876	-0.001552
620.188174	-0.001341
620.396453	-0.001607
620.604715	-0.001765
620.812958	-0.001672
621.021183	-0.001453
621.229390	-0.001585
621.437578	-0.001706
621.645748	-0.001684
621.853900	-0.001733
622.062034	-0.001977
622.270150	-0.001725
622.478247	-0.001757
622.686326	-0.002031
622.894387	-0.002342
623.102430	-0.002365
623.310454	-0.002511
623.518461	-0.002584
623.726449	-0.002746
623.934418	-0.002562
624.142370	-0.002791
624.350303	-0.002966
624.558218	-0.002578
624.766115	-0.002553
624.973994	-0.002718
625.181855	-0.002604
625.389697	-0.002482
625.597521	-0.002222
625.805327	-0.002395
626.013114	-0.002290
626.220883	-0.002027
626.428634	-0.002061
626.636367	-0.001912
626.844082	-0.001642
627.051778	-0.001452
627.259457	-0.001500
627.467117	-0.001627
627.674758	-0.001460
627.882382	-0.001386
628.089987	-0.001632
628.297574	-0.001797
628.505143	-0.001905
628.712694	-0.002110
628.920226	-0.002122
629.127740	-0.002288
629.335236	-0.002289
629.542714	-0.002356
629.750174	-0.002395
629.957615	-0.002324
630.165038	-0.002505
630.372443	-0.002469
630.579829	-0.002096
630.787198	-0.002204
630.994548	-0.002084
631.201880	-0.002094
631.409194	-0.002068
631.616489	-0.002195
631.823766	-0.002206
632.031025	-0.002123
632.238266	-0.002385
632.445489	-0.002640
632.652693	-0.002639
632.859879	-0.002600
633.067047	-0.002751
633.274197	-0.002864
633.481329	-0.003012
633.688442	-0.003140
633.895537	-0.002983
634.102614	-0.002831
634.309672	-0.002953
634.516713	-0.002991
634.723735	-0.003006
634.930739	-0.002917
635.137724	-0.002996
635.344692	-0.002845
635.551641	-0.002771
635.758572	-0.002677
635.965485	-0.002511
636.172379	-0.002495
636.379256	-0.002374
636.586114	-0.002313
636.792954	-0.002253
636.999775	-0.002116
637.206579	-0.002084
637.413364	-0.002051
637.620131	-0.002262
637.826880	-0.002382
638.033610	-0.002402
638.240323	-0.002486
638.447017	-0.002662
638.653692	-0.002765
638.860350	-0.002754
639.066990	-0.002736
639.273611	-0.002584
639.480214	-0.002686
639.686798	-0.002493
639.893365	-0.002548
640.099913	-0.002648
640.306443	-0.002566
640.512955	-0.002427
640.719449	-0.002409
640.925924	-0.002337
641.132381	-0.002362
641.338820	-0.002212
641.545241	-0.002247
641.751644	-0.002015
641.958028	-0.002009
642.164394	-0.002098
642.370742	-0.002357
642.577071	-0.002447
642.783383	-0.002471
642.989676	-0.002424
643.195951	-0.002563
643.402207	-0.002639
643.608446	-0.002817
643.814666	-0.002817
644.020868	-0.002718
644.227052	-0.002473
644.433218	-0.002392
644.639365	-0.002434
644.845494	-0.002502
645.051605	-0.002353
645.257698	-0.002337
645.463772	-0.002178
645.669828	-0.002125
645.875866	-0.002150
646.081886	-0.002086
646.287888	-0.002026
646.493871	-0.001976
646.699836	-0.002025
646.905783	-0.002101
647.111712	-0.001924
647.317622	-0.002142
647.523514	-0.002120
647.729388	-0.002218
647.935244	-0.002387
648.141082	-0.002574
648.346901	-0.002821
648.552702	-0.002685
648.758485	-0.002648
648.964250	-0.002950
649.169996	-0.002908
649.375724	-0.003177
649.581434	-0.003150
649.787126	-0.003118
649.992800	-0.003011
650.198455	-0.002740
650.404092	-0.002815
650.609711	-0.002639
650.815311	-0.002399
651.020894	-0.002224
651.226458	-0.001869
651.432004	-0.001799
651.637532	-0.001755
651.843041	-0.001701
652.048532	-0.001896
652.254006	-0.001886
652.459460	-0.001921
652.664897	-0.002015
652.870315	-0.002020
653.075716	-0.002159
653.281097	-0.002349
653.486461	-0.002269
653.691807	-0.002381
653.897134	-0.002130
654.102443	-0.002196
654.307734	-0.002309
654.513006	-0.002201
654.718261	-0.002239
654.923497	-0.002160
655.128715	-0.001912
655.333915	-0.001875
655.539096	-0.001823
655.744259	-0.001785
655.949404	-0.001718
656.154531	-0.001568
656.359640	-0.001595
656.564730	-0.001624
656.769802	-0.001610
656.974856	-0.001459
657.179892	-0.001544
657.384909	-0.001395
657.589908	-0.001408
657.794889	-0.001457
657.999852	-0.001497
658.204797	-0.001483
658.409723	-0.001475
658.614631	-0.001271
658.819521	-0.001414
659.024393	-0.001407
659.229246	-0.001509
659.434081	-0.001260
659.638898	-0.001162
659.843697	-0.001167
660.048478	-0.001328
660.253240	-0.001236
660.457984	-0.001396
660.662710	-0.001432
660.867417	-0.001563
661.072107	-0.001682
661.276778	-0.002014
661.481431	-0.002195
661.686066	-0.002281
661.890682	-0.002353
662.095281	-0.002384
662.299861	-0.002442
662.504422	-0.002393
662.708966	-0.002148
662.913491	-0.001834
663.117999	-0.001690
663.322488	-0.001443
663.526958	-0.001281
663.731411	-0.001052
663.935845	-0.000869
664.140261	-0.000883
664.344659	-0.000876
664.549038	-0.000987
664.753400	-0.001188
664.957743	-0.001193
665.162068	-0.001254
665.366375	-0.001127
665.570663	-0.001163
665.774933	-0.001399
665.979185	-0.001364
666.183419	-0.001497
666.387635	-0.001535
666.591832	-0.001734
666.796011	-0.001936
667.000172	-0.001976
667.204315	-0.002180
667.408439	-0.002115
667.612545	-0.002246
667.816634	-0.002433
668.020703	-0.002376
668.224755	-0.002512
668.428788	-0.002300
668.632803	-0.002237
668.836800	-0.002360
669.040779	-0.002527
669.244739	-0.002590
669.448681	-0.002452
669.652605	-0.002394
669.856511	-0.002259
670.060399	-0.002204
670.264268	-0.002285
670.468119	-0.002294
670.671952	-0.002163
670.875767	-0.001962
671.079563	-0.002170
671.283341	-0.002155
671.487101	-0.002058
671.690843	-0.002171
671.894567	-0.002027
672.098272	-0.001857
672.301959	-0.001615
672.505628	-0.001522
672.709278	-0.001715
672.912911	-0.001483
673.116525	-0.001404
673.320121	-0.001545
673.523699	-0.001568
673.727258	-0.001577
673.930799	-0.001829
674.134322	-0.002027
674.337827	-0.002168
674.541314	-0.002102
674.744782	-0.002289
674.948232	-0.002338
675.151664	-0.002157
675.355078	-0.002126
675.558474	-0.002240
675.761851	-0.001935
675.965210	-0.001974
676.168551	-0.001888
676.371873	-0.001795
676.575178	-0.001674
676.778464	-0.001650
676.981732	-0.001712
677.184981	-0.001676
677.388213	-0.001656
677.591426	-0.001955
677.794621	-0.002126
677.997798	-0.002201
678.200956	-0.002309
678.404097	-0.002360
678.607219	-0.002389
678.810323	-0.002323
679.013408	-0.002474
679.216476	-0.002414
679.419525	-0.002088
679.622556	-0.001937
679.825569	-0.001839
680.028563	-0.001593
680.231540	-0.001564
680.434498	-0.001387
680.637438	-0.001350
680.840359	-0.001027
681.043263	-0.000881
681.246148	-0.001041
681.449015	-0.001037
681.651864	-0.001056
681.854694	-0.001066
682.057506	-0.000840
682.260301	-0.000869
682.463076	-0.000890
682.665834	-0.001116
682.868573	-0.001034
683.071295	-0.000902
683.273998	-0.000654
683.476682	-0.000645
683.679349	-0.000695
683.881997	-0.000714
684.084627	-0.000653
684.287239	-0.000590
684.489833	-0.000295
684.692408	-0.000440
684.894965	-0.000419
685.097504	-0.000455
685.300025	-0.000368
685.502527	-0.000305
685.705012	-0.000263
685.907478	-0.000404
686.109925	-0.000508
686.312355	-0.000572
686.514766	-0.000552
686.717159	-0.000662
686.919534	-0.000796
687.121891	-0.000769
687.324230	-0.000800
687.526550	-0.000895
687.728852	-0.000743
687.931136	-0.000545
688.133401	-0.000595
688.335649	-0.000593
688.537878	-0.000512
688.740089	-0.000411
688.942281	-0.000633
689.144456	-0.000778
689.346612	-0.000808
689.548750	-0.000917
689.750870	-0.000856
689.952971	-0.000764
690.155055	-0.000814
690.357120	-0.000671
690.559167	-0.000643
690.761195	-0.000475
690.963206	-0.000298
691.165198	-0.000228
691.367172	-0.000330
691.569128	-0.000414
691.771065	-0.000535
691.972984	-0.000425
692.174885	-0.000692
692.376768	-0.000682
692.578633	-0.000803
692.780479	-0.000925
692.982308	-0.001118
693.184118	-0.000950
693.385909	-0.001162
693.587683	-0.001251
693.789438	-0.001310
693.991175	-0.001283
694.192894	-0.001309
694.394595	-0.001240
694.596277	-0.001323
694.797941	-0.001214
694.999587	-0.001357
695.201215	-0.001231
695.402824	-0.001272
695.604416	-0.001257
695.805989	-0.001195
696.007543	-0.001416
696.209080	-0.001379
696.410598	-0.001275
696.612099	-0.001320
696.813580	-0.001353
697.015044	-0.001368
697.216490	-0.001137
697.417917	-0.001138
697.619326	-0.001167
697.820717	-0.000978
698.022089	-0.001008
698.223444	-0.000894
698.424780	-0.000830
698.626098	-0.000869
698.827397	-0.000859
699.028679	-0.001012
699.229942	-0.000897
699.431187	-0.000913
699.632414	-0.001034
699.833622	-0.001028
700.034813	-0.001115
700.235985	-0.001005
700.437139	-0.000697
700.638274	-0.000491
700.839392	-0.000437
701.040491	-0.000508
701.241572	-0.000551
701.442635	-0.000435
701.643679	-0.000327
701.844706	-0.000365
702.045714	-0.000443
702.246704	-0.000623
702.447675	-0.000964
702.648629	-0.000951
702.849564	-0.000935
703.050481	-0.000798
703.251380	-0.000836
703.452260	-0.000952
703.653122	-0.001006
703.853966	-0.001054
704.054792	-0.001128
704.255600	-0.001047
704.456389	-0.001088
704.657160	-0.001058
704.857913	-0.001182
705.058648	-0.001321
705.259365	-0.001411
705.460063	-0.001362
705.660743	-0.001510
705.861405	-0.001630
706.062048	-0.001769
706.262674	-0.001837
706.463281	-0.002122
706.663870	-0.002296
706.864441	-0.002237
707.064993	-0.002348
707.265527	-0.002401
707.466043	-0.002354
707.666541	-0.002253
707.867021	-0.002152
708.067482	-0.002183
708.267925	-0.002057
708.468350	-0.001772
708.668757	-0.001763
708.869145	-0.001603
709.069516	-0.001378
709.269868	-0.001252
709.470201	-0.001134
709.670517	-0.000918
709.870814	-0.000866
710.071093	-0.000959
710.271354	-0.000951
710.471597	-0.000952
710.671821	-0.000883
710.872028	-0.000966
711.072216	-0.001003
711.272385	-0.000897
711.472537	-0.001033
711.672670	-0.001041
711.872785	-0.000947
712.072882	-0.001149
712.272961	-0.001043
712.473021	-0.001147
712.673063	-0.001260
712.873087	-0.001278
713.073093	-0.001527
713.273081	-0.001611
713.473050	-0.001785
713.673001	-0.001935
713.872934	-0.001894
714.072849	-0.002000
714.272745	-0.001953
714.472623	-0.002104
714.672483	-0.002282
714.872325	-0.002280
715.072148	-0.002334
715.271954	-0.002261
715.471741	-0.002235
715.671509	-0.002234
715.871260	-0.002376
716.070992	-0.002500
716.270707	-0.002709
716.470403	-0.002480
716.670080	-0.002501
716.869740	-0.002411
717.069381	-0.002384
717.269004	-0.002308
717.468609	-0.002433
717.668195	-0.002311
717.867764	-0.002236
718.067314	-0.001979
718.266846	-0.002026
718.466360	-0.002026
718.665855	-0.002112
718.865332	-0.002109
719.064791	-0.002182
719.264232	-0.001913
719.463655	-0.001958
719.663059	-0.001968
719.862445	-0.002122
720.061813	-0.002099
720.261163	-0.002147
720.460494	-0.002257
720.659807	-0.002153
720.859102	-0.001934
721.058379	-0.001917
721.257638	-0.001925
721.456878	-0.002018
721.656100	-0.001795
721.855304	-0.001908
722.054490	-0.001883
722.253657	-0.001659
722.452806	-0.001732
722.651937	-0.001995
722.851050	-0.002208
723.050145	-0.002176
723.249221	-0.002126
723.448279	-0.002195
723.647319	-0.002222
723.846340	-0.002209
724.045344	-0.002393
724.244329	-0.002485
724.443296	-0.002365
724.642245	-0.002376
724.841175	-0.002521
725.040088	-0.002630
725.238982	-0.002854
725.437857	-0.002946
725.636715	-0.003032
725.835554	-0.003074
726.034376	-0.003193
726.233179	-0.003247
726.431963	-0.003242
726.630730	-0.003239
726.829478	-0.003112
727.028208	-0.003033
727.226920	-0.003084
727.425614	-0.003088
727.624289	-0.003183
727.822946	-0.003039
728.021585	-0.003138
728.220206	-0.003335
728.418808	-0.003465
728.617392	-0.003650
728.815958	-0.003547
729.014506	-0.003683
729.213036	-0.003766
729.411547	-0.003640
729.610040	-0.003555
729.808515	-0.003558
730.006972	-0.003421
730.205410	-0.003318
730.403831	-0.003096
730.602233	-0.003083
730.800616	-0.002820
730.998982	-0.002696
731.197329	-0.002544
731.395658	-0.002550
731.593969	-0.002301
731.792262	-0.002187
731.990536	-0.002017
732.188793	-0.002020
732.387031	-0.001951
732.585250	-0.001815
732.783452	-0.001716
732.981635	-0.001732
733.179800	-0.001849
733.377947	-0.001859
733.576076	-0.001698
733.774186	-0.001593
733.972278	-0.001659
734.170352	-0.001628
734.368408	-0.001607
734.566446	-0.001599
734.764465	-0.001625
734.962466	-0.001507
735.160449	-0.001482
735.358413	-0.001669
735.556360	-0.001876
735.754288	-0.001802
735.952198	-0.001858
736.150090	-0.002050
736.347963	-0.002188
736.545818	-0.002180
736.743655	-0.002280
736.941474	-0.002599
737.139275	-0.002632
737.337057	-0.002539
737.534821	-0.002766
737.732567	-0.002900
737.930295	-0.003058
738.128005	-0.003013
738.325696	-0.003080
738.523369	-0.003126
738.721024	-0.002924
738.918660	-0.002897
739.116279	-0.002966
739.313879	-0.002726
739.511461	-0.002630
739.709024	-0.002510
739.906570	-0.002567
740.104097	-0.002617
740.301606	-0.002555
740.499097	-0.002722
740.696569	-0.002846
740.894024	-0.002878
741.091460	-0.002982
741.288878	-0.003041
741.486277	-0.003083
741.683659	-0.003023
741.881022	-0.002913
742.078367	-0.002905
742.275694	-0.002791
742.473002	-0.002576
742.670293	-0.002476
742.867565	-0.002357
743.064819	-0.002310
743.262054	-0.002140
743.459272	-0.001967
743.656471	-0.001947
743.853652	-0.001869
744.050815	-0.001964
744.247959	-0.002136
744.445085	-0.002242
744.642194	-0.002531
744.839283	-0.002397
745.036355	-0.002440
745.233408	-0.002672
745.430444	-0.002644
745.627461	-0.002873
745.824459	-0.002624
746.021440	-0.002320
746.218402	-0.002087
746.415346	-0.001927
746.612272	-0.001931
746.809180	-0.001683
747.006069	-0.001570
747.202940	-0.001505
747.399793	-0.001093
747.596628	-0.001050
747.793444	-0.001185
747.990243	-0.001194
748.187023	-0.001051
748.383784	-0.001039
748.580528	-0.001226
748.777253	-0.001085
748.973960	-0.001060
749.170649	-0.001023
749.367320	-0.000924
749.563973	-0.000684
749.760607	-0.000739
749.957223	-0.000494
750.153821	-0.000293
750.350400	-0.000162
750.546962	-0.000223
750.743505	-0.000146
750.940030	-0.000139
751.136536	-0.000226
751.333025	-0.000537
751.529495	-0.000416
751.725947	-0.000589
751.922381	-0.000730
752.118796	-0.000681
752.315194	-0.000527
752.511573	-0.000514
752.707934	-0.000493
752.904276	-0.000460
753.100601	-0.000446
753.296907	-0.000390
753.493195	-0.000346
753.689465	-0.000399
753.885716	-0.000519
754.081949	-0.000583
754.278164	-0.000569
754.474361	-0.000624
754.670540	-0.000728
754.866700	-0.000600
755.062843	-0.000797
755.258967	-0.000675
755.455072	-0.000685
755.651160	-0.000691
755.847229	-0.000674
756.043280	-0.000751
756.239313	-0.000944
756.435328	-0.000859
756.631324	-0.000959
756.827302	-0.000861
757.023262	-0.001062
757.219204	-0.000976
757.415127	-0.001207
757.611033	-0.001185
757.806920	-0.001198
758.002788	-0.000978
758.198639	-0.001033
758.394471	-0.000837
758.590286	-0.000671
758.786081	-0.000507
758.981859	-0.000519
759.177619	-0.000270
759.373360	-0.000151
759.569083	-0.000140
759.764788	-0.000130
759.960474	-0.000098
760.156143	-0.000130
760.351793	-0.000348
760.547425	-0.000486
760.743038	-0.000488
760.938634	-0.000309
761.134211	-0.000452
761.329770	-0.000522
761.525311	-0.000554
761.720833	-0.000703
761.916338	-0.000737
762.111824	-0.000497
762.307292	-0.000601
762.502741	-0.000680
762.698173	-0.001021
762.893586	-0.001051
763.088981	-0.000936
763.284358	-0.001049
763.479716	-0.000894
763.675057	-0.000988
763.870379	-0.001280
764.065683	-0.001040
764.260968	-0.001016
764.456236	-0.000648
764.651485	-0.000695
764.846716	-0.000832
765.041929	-0.000718
765.237123	-0.000890
765.432299	-0.000648
765.627457	-0.000502
765.822597	-0.000669
766.017719	-0.000701
766.212822	-0.000738
766.407907	-0.000570
766.602974	-0.000413
766.798023	-0.000571
766.993054	-0.000479
767.188066	-0.000600
767.383060	-0.000580
767.578036	-0.000349
767.772993	-0.000179
767.967933	-0.000241
768.162854	-0.000467
768.357757	-0.000654
768.552642	-0.000700
768.747508	-0.000635
768.942356	-0.000568
769.137186	-0.000411
769.331998	-0.000547
769.526792	-0.000607
769.721567	-0.000619
769.916324	-0.000391
770.111063	-0.000180
770.305784	0.000102
770.500486	0.000318
770.695171	0.000341
770.889837	0.000052
771.084484	0.000109
771.279114	0.000009
771.473725	-0.000021
771.668318	-0.000093
771.862893	0.000024
772.057450	-0.000096
772.251988	-0.000265
772.446509	-0.000535
772.641011	-0.000467
772.835494	-0.000538
773.029960	-0.000305
773.224407	-0.000139
773.418836	-0.000131
773.613247	-0.000342
773.807640	-0.000428
774.002014	-0.000461
774.196370	-0.000281
774.390708	-0.000254
774.585028	-0.000240
774.779330	-0.000178
774.973613	-0.000285
775.167878	-0.000398
775.362125	-0.000349
775.556354	-0.000187
775.750564	-0.000014
775.944756	0.000047
776.138930	0.000183
776.333086	0.000230
776.527223	0.000183
776.721343	0.000300
776.915444	0.000404
777.109526	0.000419
777.303591	0.000508
777.497637	0.000444
777.691666	0.000361
777.885676	0.000263
778.079667	0.000262
778.273641	0.000211
778.467596	0.000115
778.661533	0.000260
778.855452	0.000231
779.049352	0.000076
779.243235	0.000276
779.437099	0.000318
779.630945	0.000429
779.824773	0.000483
780.018582	0.000486
780.212373	0.000664
780.406146	0.000700
780.599901	0.000738
780.793638	0.000932
780.987356	0.000764
781.181056	0.000692
781.374738	0.000612
781.568402	0.000541
781.762047	0.000449
781.955674	0.000383
782.149283	0.000390
782.342874	0.000628
782.536447	0.000611
782.730001	0.000630
782.923537	0.000576
783.117055	0.000679
783.310555	0.000830
783.504036	0.000999
783.697499	0.000922
783.890944	0.000872
784.084371	0.000755
784.277780	0.000600
784.471170	0.000482
784.664542	0.000888
784.857896	0.000925
785.051231	0.000994
785.244549	0.000991
785.437848	0.000882
785.631129	0.000964
785.824392	0.000726
786.017636	0.000871
786.210863	0.000869
786.404071	0.000690
786.597260	0.000651
786.790432	0.000390
786.983585	0.000326
787.176721	0.000455
787.369838	0.000410
787.562936	0.000653
787.756017	0.000752
787.949079	0.000871
788.142123	0.000828
788.335149	0.001116
788.528156	0.001596
788.721146	0.001651
788.914117	0.001907
789.107070	0.001847
789.300005	0.001971
789.492921	0.002122
789.685819	0.002086
789.878699	0.002240
790.071561	0.002058
790.264405	0.001866
790.457230	0.001871
790.650037	0.001661
790.842826	0.001743
791.035597	0.001628
791.228349	0.001419
791.421084	0.001623
791.613800	0.001410
791.806497	0.001427
791.999177	0.001375
792.191838	0.001483
792.384481	0.001521
792.577106	0.001506
792.769713	0.001557
792.962301	0.001496
793.154871	0.001519
793.347423	0.001743
793.539957	0.001449
793.732473	0.001463
793.924970	0.001441
794.117449	0.001489
794.309910	0.001401
794.502353	0.001348
794.694777	0.001536
794.887183	0.001377
795.079571	0.001251
795.271941	0.001236
795.464293	0.001133
795.656626	0.001114
795.848941	0.001298
796.041238	0.001493
796.233516	0.001651
796.425777	0.001661
796.618019	0.001834
796.810243	0.001967
797.002449	0.002188
797.194636	0.002283
797.386805	0.002184
797.578956	0.002075
797.771089	0.001934
797.963204	0.001665
798.155300	0.001566
798.347378	0.001416
798.539438	0.001597
798.731480	0.001726
798.923503	0.001613
799.115509	0.001478
799.307496	0.001516
799.499465	0.001570
799.691415	0.001849
799.883348	0.001841
800.075262	0.001958
800.267158	0.001623
800.459035	0.001561
800.650895	0.001701
800.842736	0.001993
801.034559	0.001819
801.226364	0.001682
801.418150	0.001665
801.609919	0.001749
801.801669	0.001856
801.993401	0.002036
802.185114	0.001982
802.376810	0.002038
802.568487	0.002114
802.760146	0.002317
802.951787	0.002685
803.143409	0.002577
803.335014	0.002587
803.526600	0.002456
803.718168	0.002556
803.909717	0.002676
804.101249	0.002396
804.292762	0.002205
804.484257	0.002020
804.675734	0.001882
804.867192	0.001826
805.058632	0.001856
805.250054	0.001763
805.441458	0.001659
805.632844	0.001421
805.824211	0.001545
806.015561	0.001563
806.206891	0.001559
806.398204	0.001386
806.589499	0.001410
806.780775	0.001100
806.972033	0.000990
807.163273	0.000840
807.354495	0.000911
807.545698	0.000927
807.736883	0.000771
807.928050	0.000839
808.119199	0.000724
808.310329	0.000699
808.501441	0.000925
808.692535	0.000901
808.883611	0.000938
809.074669	0.001135
809.265708	0.001115
809.456729	0.001185
809.647732	0.001106
809.838717	0.001257
810.029683	0.001448
810.220632	0.001346
810.411562	0.001500
810.602474	0.001746
810.793367	0.001919
810.984242	0.002015
811.175100	0.002290
811.365938	0.002401
811.556759	0.002407
811.747562	0.002346
811.938346	0.002295
812.129112	0.002333
812.319860	0.002035
812.510589	0.001730
812.701300	0.001544
812.891994	0.001200
813.082668	0.001264
813.273325	0.001309
813.463964	0.001310
813.654584	0.001423
813.845186	0.001340
814.035769	0.001327
814.226335	0.001454
814.416882	0.001602
814.607411	0.001743
814.797922	0.001553
814.988415	0.001632
815.178889	0.001504
815.369345	0.001453
815.559783	0.001439
815.750203	0.001684
815.940605	0.001715
816.130988	0.001833
816.321353	0.002014
816.511700	0.002064
816.702028	0.001924
816.892339	0.002010
817.082631	0.002028
817.272905	0.002124
817.463161	0.002149
817.653398	0.001866
817.843617	0.001726
818.033819	0.001669
818.224001	0.001649
818.414166	0.001723
818.604312	0.001660
818.794440	0.001577
818.984550	0.001473
819.174642	0.001147
819.364716	0.001262
819.554771	0.001094
819.744808	0.000993
819.934827	0.000741
820.124827	0.000752
820.314810	0.000478
820.504774	0.000502
820.694720	0.000555
820.884647	0.000383
821.074557	0.000210
821.264448	0.000401
821.454321	0.000102
821.644176	0.000183
821.834012	-0.000055
822.023831	0.000080
822.213631	-0.000075
822.403413	-0.000315
822.593176	-0.000154
822.782922	-0.000100
822.972649	-0.000335
823.162358	-0.000264
823.352049	-0.000130
823.541721	-0.000125
823.731376	-0.000062
823.921012	-0.000094
824.110629	-0.000077
824.300229	-0.000088
824.489811	-0.000179
824.679374	-0.000073
824.868919	0.000112
825.058445	0.000043
825.247954	0.000261
825.437444	0.000035
825.626916	0.000080
825.816370	0.000073
826.005806	0.000036
826.195223	0.000096
826.384622	-0.000107
826.574003	-0.000235
826.763366	-0.000413
826.952711	-0.000661
827.142037	-0.000452
827.331345	-0.000598
827.520635	-0.000774
827.709906	-0.000967
827.899160	-0.001046
828.088395	-0.001238
828.277612	-0.001369
828.466810	-0.001327
828.655991	-0.001191
828.845153	-0.001739
829.034297	-0.001534
829.223423	-0.001234
829.412531	-0.001062
829.601620	-0.001118
829.790691	-0.000856
829.979744	-0.000762
830.168779	-0.000933
830.357795	-0.001087
830.546793	-0.000867
830.735773	-0.000966
830.924735	-0.001173
831.113679	-0.001231
831.302604	-0.001162
831.491511	-0.001297
831.680400	-0.001261
831.869271	-0.000848
832.058123	-0.000944
832.246957	-0.000534
832.435773	-0.000446
832.624571	-0.000394
832.813351	-0.000013
833.002112	0.000088
833.190855	0.000207
833.379580	0.000100
833.568287	-0.000194
833.756975	0.000030
833.945645	-0.000060
834.134297	-0.000063
834.322931	-0.000039
834.511547	-0.000641
834.700144	-0.000839
834.888723	-0.000712
835.077284	-0.000641
835.265826	-0.000730
835.454351	-0.000899
835.642857	-0.001063
835.831345	-0.001143
836.019815	-0.001159
836.208266	-0.000772
836.396699	-0.000731
836.585114	-0.000950
836.773511	-0.000945
836.961890	-0.000622
837.150250	-0.000613
837.338592	-0.000427
837.526916	-0.000343
837.715222	-0.000150
837.903510	-0.000440
838.091779	-0.000442
838.280030	-0.000302
838.468263	-0.000551
838.656477	-0.000753
838.844674	-0.000835
839.032852	-0.001037
839.221012	-0.001099
839.409153	-0.001196
839.597277	-0.000871
839.785382	-0.000892
839.973469	-0.001094
840.161538	-0.000840
840.349589	-0.000812
840.537621	-0.001017
840.725635	-0.001037
840.913631	-0.001298
841.101609	-0.001150
841.289568	-0.001406
841.477509	-0.001514
841.665432	-0.001651
841.853337	-0.001949
842.041224	-0.002237
842.229092	-0.002110
842.416942	-0.002211
842.604774	-0.002136
842.792588	-0.002457
842.980383	-0.002520
843.168160	-0.002470
843.355919	-0.002231
843.543660	-0.002070
843.731382	-0.002130
843.919087	-0.001817
844.106773	-0.001776
844.294441	-0.001645
844.482090	-0.001639
844.669722	-0.001483
844.857335	-0.001568
845.044930	-0.001656
845.232507	-0.001676
845.420065	-0.001244
845.607605	-0.001680
845.795127	-0.001950
845.982631	-0.002121
846.170117	-0.002195
846.357584	-0.002377
846.545033	-0.002166
846.732464	-0.002237
846.919877	-0.002169
847.107272	-0.002369
847.294648	-0.002308
847.482006	-0.001969
847.669346	-0.002046
847.856667	-0.002388
848.043971	-0.002223
848.231256	-0.002458
848.418523	-0.002401
848.605771	-0.002490
848.793002	-0.002517
848.980214	-0.002370
849.167408	-0.002349
849.354584	-0.002061
849.541742	-0.001758
849.728881	-0.002091
849.916002	-0.001949
850.103105	-0.002008
850.290190	-0.001886
850.477256	-0.001620
850.664304	-0.001619
850.851334	-0.001546
851.038346	-0.001544
851.225340	-0.001553
851.412315	-0.001289
851.599272	-0.001296
851.786211	-0.001247
851.973132	-0.001244
852.160034	-0.001374
852.346918	-0.001417
852.533784	-0.001652
852.720632	-0.001954
852.907462	-0.002007
853.094273	-0.001735
853.281066	-0.001851
853.467841	-0.001649
853.654598	-0.001768
853.841336	-0.002110
854.028056	-0.002009
854.214758	-0.001777
854.401442	-0.001621
854.588107	-0.001584
854.774755	-0.002110
854.961384	-0.002024
855.147995	-0.002212
855.334587	-0.002061
855.521162	-0.001853
855.707718	-0.001957
855.894256	-0.002214
856.080775	-0.002247
856.267277	-0.002225
856.453760	-0.001936
856.640225	-0.001691
856.826672	-0.001499
857.013101	-0.001667
857.199511	-0.001668
857.385903	-0.001583
857.572277	-0.001433
857.758633	-0.001519
857.944970	-0.001342
858.131290	-0.001142
858.317591	-0.001106
858.503873	-0.001078
858.690138	-0.000861
858.876384	-0.000914
859.062612	-0.001072
859.248822	-0.001278
859.435014	-0.001180
859.621188	-0.001215
859.807343	-0.001429
859.993480	-0.001606
860.179599	-0.001562
860.365699	-0.001724
860.551781	-0.001605
860.737846	-0.001399
860.923891	-0.001091
861.109919	-0.001049
861.295929	-0.001203
861.481920	-0.001360
861.667893	-0.001384
861.853848	-0.001655
862.039784	-0.001744
862.225702	-0.001650
862.411603	-0.001952
862.597484	-0.002009
862.783348	-0.002132
862.969193	-0.001845
863.155021	-0.001691
863.340830	-0.001822
863.526620	-0.001824
863.712393	-0.002049
863.898147	-0.002443
864.083883	-0.002426
864.269601	-0.002226
864.455301	-0.002400
864.640982	-0.002709
864.826645	-0.002801
865.012290	-0.002702
865.197917	-0.002702
865.383526	-0.002411
865.569116	-0.002286
865.754688	-0.002208
865.940242	-0.002606
866.125777	-0.002718
866.311295	-0.002732
866.496794	-0.002792
866.682275	-0.002767
866.867737	-0.002863
867.053182	-0.003030
867.238608	-0.003090
867.424016	-0.002944
867.609406	-0.002784
867.794778	-0.002579
867.980131	-0.002832
868.165466	-0.003052
868.350783	-0.003256
868.536082	-0.003046
868.721362	-0.002771
868.906625	-0.002651
869.091869	-0.002742
869.277094	-0.003056
869.462302	-0.003152
869.647491	-0.002976
869.832662	-0.002629
870.017815	-0.002529
870.202950	-0.002656
870.388066	-0.002821
870.573165	-0.002525
870.758245	-0.002360
870.943306	-0.001994
871.128350	-0.001805
871.313375	-0.001518
871.498382	-0.001750
871.683371	-0.001781
871.868342	-0.001798
872.053294	-0.001864
872.238229	-0.002178
872.423144	-0.002216
872.608042	-0.002187
872.792922	-0.002203
872.977783	-0.001928
873.162626	-0.001753
873.347451	-0.001578
873.532258	-0.001216
873.717046	-0.000962
873.901816	-0.000743
874.086568	-0.000538
874.271302	-0.000615
874.456017	-0.000610
874.640715	-0.000919
874.825394	-0.000745
875.010055	-0.000606
875.194697	-0.000857
875.379322	-0.001148
875.563928	-0.001206
875.748516	-0.001197
875.933085	-0.001172
876.117637	-0.001342
876.302170	-0.001033
876.486685	-0.000961
876.671182	-0.001077
876.855661	-0.000795
877.040121	-0.000491
877.224563	-0.000735
877.408987	-0.000928
877.593393	-0.001151
877.777780	-0.000788
877.962150	-0.001010
878.146501	-0.001158
878.330833	-0.001189
878.515148	-0.001369
878.699444	-0.001587
878.883722	-0.001472
879.067982	-0.001613
879.252224	-0.001124
879.436447	-0.001236
879.620653	-0.001089
879.804840	-0.001092
879.989008	-0.000963
880.173159	-0.001122
880.357291	-0.000627
880.541405	-0.000519
880.725501	-0.000433
880.909579	-0.000867
881.093638	-0.000732
881.277680	-0.001057
881.461703	-0.001085
881.645707	-0.001307
881.829694	-0.001266
882.013662	-0.001539
882.197612	-0.001581
882.381544	-0.001478
882.565458	-0.001236
882.749353	-0.001301
882.933230	-0.001379
883.117089	-0.001423
883.300930	-0.001524
883.484753	-0.001777
883.668557	-0.002090
883.852343	-0.001885
884.036111	-0.001801
884.219861	-0.002160
884.403592	-0.002041
884.587305	-0.001985
884.771000	-0.001926
884.954677	-0.001828
885.138335	-0.001561
885.321976	-0.001289
885.505598	-0.001368
885.689201	-0.001603
885.872787	-0.001629
886.056354	-0.001775
886.239904	-0.001822
886.423434	-0.001685
886.606947	-0.001683
886.790442	-0.001593
886.973918	-0.001640
887.157376	-0.001530
887.340816	-0.001531
887.524237	-0.001168
887.707641	-0.001279
887.891026	-0.001190
888.074393	-0.001232
888.257741	-0.001274
888.441072	-0.001077
888.624384	-0.001181
888.807678	-0.001186
888.990954	-0.000884
889.174211	-0.000871
889.357451	-0.000477
889.540672	-0.000443
889.723875	-0.000493
889.907059	-0.000062
890.090226	-0.000338
890.273374	-0.000107
890.456504	-0.000252
890.639616	-0.000733
890.822709	-0.000683
891.005785	-0.001206
891.188842	-0.001242
891.371881	-0.001284
891.554901	-0.001626
891.737904	-0.002002
891.920888	-0.002240
892.103854	-0.001915
892.286802	-0.001835
892.469731	-0.001728
892.652643	-0.001699
892.835536	-0.001843
893.018410	-0.002054
893.201267	-0.002120
893.384106	-0.002019
893.566926	-0.002091
893.749728	-0.002438
893.932511	-0.002221
894.115277	-0.002687
894.298024	-0.002666
894.480753	-0.002866
894.663464	-0.002759
894.846157	-0.002898
895.028831	-0.002385
895.211487	-0.002264
895.394125	-0.002374
895.576745	-0.002288
895.759346	-0.002236
895.941930	-0.002211
896.124495	-0.001934
896.307041	-0.001861
896.489570	-0.001634
896.672080	-0.001890
896.854573	-0.001450
897.037046	-0.001374
897.219502	-0.001403
897.401940	-0.001197
897.584359	-0.000748
897.766760	-0.000469
897.949143	-0.000463
898.131507	-0.000324
898.313854	-0.000492
898.496182	-0.001018
898.678492	-0.001139
898.860783	-0.001158
899.043057	-0.001317
899.225312	-0.001727
899.407549	-0.001865
899.589768	-0.001854
899.771968	-0.001945
899.954151	-0.001966
900.136315	-0.002073
900.318461	-0.001952
900.500588	-0.002173
900.682698	-0.002296
900.864789	-0.002118
901.046862	-0.002112
901.228917	-0.002020
901.410953	-0.002076
901.592971	-0.001966
901.774972	-0.001804
901.956953	-0.001490
902.138917	-0.001284
902.320862	-0.001094
902.502790	-0.000940
902.684699	-0.000928
902.866589	-0.001033
903.048462	-0.000992
903.230316	-0.001072
903.412152	-0.000625
903.593970	-0.001091
903.775770	-0.001191
903.957551	-0.001081
904.139314	-0.001464
904.321059	-0.001552
904.502786	-0.001231
904.684494	-0.001224
904.866185	-0.000761
905.047857	-0.001339
905.229510	-0.001211
905.411146	-0.001039
905.592763	-0.001119
905.774363	-0.000615
905.955943	-0.000431
906.137506	-0.000687
906.319051	-0.000692
906.500577	-0.000936
906.682085	-0.000738
906.863575	-0.000617
907.045046	-0.000995
907.226500	-0.001009
907.407935	-0.001228
907.589352	-0.001155
907.770750	-0.001046
907.952131	-0.001020
908.133493	-0.001190
908.314837	-0.001162
908.496163	-0.001328
908.677470	-0.001278
908.858760	-0.001397
909.040031	-0.001744
909.221284	-0.001678
909.402518	-0.001571
909.583735	-0.001396
909.764933	-0.000962
909.946113	-0.000718
910.127275	-0.000506
910.308418	-0.000092
910.489544	0.000051
910.670651	0.000424
910.851740	0.000087
911.032810	-0.000147
911.213863	-0.000257
911.394897	-0.000540
911.575913	-0.000640
911.756911	-0.000833
911.937890	-0.000976
912.118851	-0.000882
912.299794	-0.000986
912.480719	-0.000482
912.661626	-0.000513
912.842514	-0.000637
913.023384	-0.000815
913.204236	-0.001249
913.385070	-0.001063
913.565886	-0.001204
913.746683	-0.000987
913.927462	-0.000931
914.108223	-0.001434
914.288965	-0.001446
914.469690	-0.001472
914.650396	-0.001264
914.831084	-0.001420
915.011754	-0.001718
915.192405	-0.001960
915.373038	-0.002616
915.553653	-0.002689
915.734250	-0.002831
915.914829	-0.002901
916.095389	-0.003236
916.275931	-0.003357
916.456455	-0.003205
916.636961	-0.003291
916.817448	-0.003471
916.997917	-0.003321
917.178368	-0.003528
917.358801	-0.004038
917.539216	-0.003967
917.719612	-0.003911
917.899990	-0.004019
918.080350	-0.003459
918.260692	-0.003330
918.441015	-0.003302
918.621320	-0.002865
918.801607	-0.002724
918.981876	-0.002344
919.162127	-0.002763
919.342359	-0.002664
919.522573	-0.002843
919.702769	-0.003447
919.882947	-0.004181
920.063106	-0.004166
920.243247	-0.004664
920.423370	-0.005395
920.603475	-0.005496
920.783562	-0.005652
920.963630	-0.005902
921.143680	-0.006339
921.323712	-0.006669
921.503725	-0.006096
921.683721	-0.006061
921.863698	-0.006223
922.043657	-0.005817
922.223598	-0.005818
922.403520	-0.005963
922.583424	-0.006045
922.763311	-0.005495
922.943178	-0.005587
923.123028	-0.005622
923.302859	-0.005528
923.482673	-0.005435
923.662467	-0.005796
923.842244	-0.005796
924.022003	-0.005241
924.201743	-0.005139
924.381465	-0.005543
924.561169	-0.005323
924.740854	-0.005711
924.920522	-0.005693
925.100171	-0.005884
925.279802	-0.005179
925.459414	-0.005549
925.639009	-0.005601
925.818585	-0.005685
925.998143	-0.005658
926.177683	-0.005967
926.357205	-0.005941
926.536708	-0.006333
926.716193	-0.006211
926.895660	-0.006816
927.075109	-0.006887
927.254539	-0.007180
927.433951	-0.007257
927.613345	-0.007651
927.792721	-0.006956
927.972079	-0.007168
928.151418	-0.007313
928.330739	-0.007481
928.510042	-0.007584
928.689327	-0.007194
928.868593	-0.007721
929.047841	-0.007655
929.227071	-0.007437
929.406283	-0.008127
929.585476	-0.007906
929.764652	-0.008154
929.943809	-0.008574
930.122948	-0.008480
930.302068	-0.008710
930.481171	-0.008810
930.660255	-0.009213
930.839321	-0.009096
931.018369	-0.009047
931.197398	-0.009567
931.376409	-0.009079
931.555402	-0.009322
931.734377	-0.009871
931.913334	-0.009982
932.092272	-0.009633
932.271192	-0.009423
932.450094	-0.009764
932.628978	-0.009688
932.807844	-0.009131
932.986691	-0.009342
933.165520	-0.009433
933.344331	-0.009586
933.523123	-0.009559
933.701898	-0.009983
933.880654	-0.010204
934.059392	-0.010458
934.238111	-0.010692
934.416813	-0.011323
934.595496	-0.011936
934.774161	-0.011530
934.952808	-0.011231
935.131437	-0.011764
935.310047	-0.011735
935.488639	-0.012098
935.667213	-0.012236
935.845769	-0.011772
936.024306	-0.011414
936.202825	-0.011544
936.381326	-0.012419
936.559809	-0.012988
936.738274	-0.013294
936.916720	-0.012538
937.095148	-0.012799
937.273558	-0.012787
937.451950	-0.014056
937.630323	-0.014305
937.808678	-0.014723
937.987015	-0.013803
938.165334	-0.013446
938.343635	-0.013851
938.521917	-0.014916
938.700181	-0.014952
938.878427	-0.015794
939.056655	-0.015189
939.234864	-0.015417
939.413055	-0.015695
939.591228	-0.016331
939.769383	-0.017135
939.947519	-0.016725
940.125638	-0.017377
940.303738	-0.017289
940.481820	-0.015993
940.659883	-0.016739
940.837929	-0.017152
941.015956	-0.016206
941.193965	-0.016637
941.371955	-0.015900
941.549928	-0.015257
941.727882	-0.015264
941.905818	-0.015418
942.083736	-0.016003
942.261636	-0.016044
942.439517	-0.016014
942.617380	-0.016299
942.795225	-0.016389
942.973052	-0.016391
943.150860	-0.018213
943.328651	-0.018368
943.506423	-0.018576
943.684176	-0.019281
943.861912	-0.019096
944.039629	-0.019165
944.217328	-0.019055
944.395009	-0.019693
944.572672	-0.020795
944.750317	-0.019804
944.927943	-0.020046
945.105551	-0.020197
945.283141	-0.019342
945.460712	-0.019951
945.638265	-0.020259
945.815801	-0.020419
945.993317	-0.019427
946.170816	-0.018763
946.348297	-0.020745
946.525759	-0.020095
946.703203	-0.019913
946.880629	-0.021241
947.058036	-0.020155
947.235425	-0.019885
947.412797	-0.020141
947.590149	-0.021040
947.767484	-0.020521
947.944800	-0.019064
948.122099	-0.018760
948.299379	-0.018176
948.476640	-0.017519
948.653884	-0.018481
948.831109	-0.018292
949.008316	-0.017968
949.185505	-0.018117
949.362676	-0.018451
949.539828	-0.017414
949.716962	-0.016631
949.894078	-0.018020
950.071176	-0.017744
950.248256	-0.017646
950.425317	-0.018383
950.602360	-0.019238
950.779385	-0.017632
950.956391	-0.016863
951.133380	-0.016231
951.310350	-0.016447
951.487302	-0.015592
951.664235	-0.015435
951.841151	-0.014579
952.018048	-0.013706
952.194927	-0.012700
952.371788	-0.011927
952.548631	-0.012857
952.725455	-0.013619
952.902261	-0.013508
953.079049	-0.013627
953.255819	-0.013684
953.432570	-0.011955
953.609303	-0.012507
953.786018	-0.012107
953.962715	-0.011864
954.139394	-0.009874
954.316054	-0.010167
954.492696	-0.008608
954.669320	-0.008156
954.845926	-0.006620
955.022513	-0.008710
955.199083	-0.006957
955.375634	-0.007794
955.552166	-0.009577
955.728681	-0.010468
955.905177	-0.008271
956.081655	-0.008767
956.258115	-0.008326
956.434557	-0.008035
956.610980	-0.007784
956.787385	-0.009116
956.963772	-0.007799
957.140141	-0.006137
957.316492	-0.006304
957.492824	-0.005342
957.669138	-0.006209
957.845434	-0.006258
958.021712	-0.008526
958.197971	-0.007139
958.374212	-0.006149
958.550435	-0.006593
958.726640	-0.005573
958.902826	-0.004464
959.078995	-0.003493
959.255145	-0.003141
959.431277	-0.003818
959.607390	-0.001050
959.783486	-0.001714
959.959563	-0.000672
960.135622	0.000626
960.311662	-0.000376
960.487685	-0.001060
960.663689	-0.002510
960.839675	-0.002669
961.015643	-0.001876
961.191593	-0.002570
961.367524	-0.002775
961.543437	-0.002816
961.719332	-0.003346
961.895209	-0.005026
962.071067	-0.003936
962.246907	-0.004442
962.422730	-0.003236
962.598533	-0.002597
962.774319	-0.001095
962.950086	-0.000957
963.125835	0.000567
963.301566	0.001194
963.477279	0.003700
963.652973	0.005747
963.828650	0.005109
964.004308	0.004391
964.179947	0.006364
964.355569	0.006548
964.531172	0.007185
964.706757	0.006667
964.882324	0.005347
965.057873	0.007092
965.233403	0.004864
965.408916	0.006506
965.584410	0.006350
965.759885	0.005804
965.935343	0.005372
966.110782	0.006165
966.286203	0.005843
966.461606	0.009095
966.636991	0.008224
966.812357	0.008934
966.987705	0.009905
967.163035	0.011426
967.338347	0.011290
967.513641	0.012164
967.688916	0.014274
967.864173	0.013240
968.039412	0.010476
968.214632	0.008966
968.389835	0.008164
968.565019	0.008695
968.740185	0.007253
968.915333	0.007799
969.090462	0.007457
969.265573	0.005677
969.440667	0.007304
969.615741	0.010449
969.790798	0.011511
969.965836	0.011647
970.140856	0.010029
970.315858	0.011507
970.490842	0.010867
970.665808	0.010217
970.840755	0.008117
971.015684	0.007872
971.190595	0.005874
971.365487	0.007675
971.540362	0.006405
971.715218	0.006373
971.890056	0.005595
972.064875	0.003953
972.239677	0.003957
972.414460	0.006422
972.589225	0.006910
972.763972	0.006287
972.938700	0.004323
973.113411	0.009462
973.288103	0.011123
973.462777	0.012966
973.637432	0.016066
973.812070	0.016954
973.986689	0.016599
974.161290	0.017616
974.335873	0.019135
974.510437	0.020136
974.684984	0.016414
974.859512	0.015305
975.034022	0.012925
975.208513	0.014363
975.382987	0.015966
975.557442	0.014687
975.731879	0.011721
975.906298	0.009151
976.080698	0.009572
976.255080	0.010222
976.429445	0.010183
976.603790	0.012946
976.778118	0.012560
976.952427	0.010381
977.126719	0.013230
977.300992	0.013642
977.475246	0.014716
977.649483	0.012880
977.823701	0.013563
977.997901	0.014844
978.172083	0.013646
978.346247	0.011910
978.520392	0.012534
978.694519	0.012980
978.868628	0.013148
979.042719	0.011498
979.216791	0.010818
979.390845	0.008816
979.564882	0.009016
979.738899	0.009472
979.912899	0.010613
980.086880	0.010266
980.260843	0.007745
980.434788	0.007253
980.608715	0.011414
980.782623	0.015108
980.956514	0.017094
981.130386	0.016221
981.304240	0.015366
981.478075	0.014747
981.651892	0.015561
981.825692	0.018402
981.999472	0.019703
982.173235	0.017609
982.346980	0.016418
982.520706	0.017351
982.694414	0.017843
982.868104	0.019050
983.041775	0.018614
983.215428	0.016892
983.389064	0.013897
983.562680	0.013785
983.736279	0.014709
983.909860	0.014746
984.083422	0.011741
984.256966	0.011099
984.430491	0.011251
984.603999	0.009493
984.777488	0.009787
984.950959	0.010656
985.124412	0.008595
985.297847	0.007582
985.471263	0.006207
985.644661	0.007909
985.818041	0.006869
985.991403	0.004050
986.164747	0.005535
986.338072	0.005365
986.511379	0.005572
986.684668	0.007740
986.857938	0.008751
987.031191	0.006987
987.204425	0.006775
987.377641	0.007289
987.550839	0.009234
987.724018	0.010495
987.897179	0.010421
988.070322	0.007429
988.243447	0.007674
988.416554	0.008128
988.589642	0.009785
988.762712	0.008543
988.935764	0.010337
989.108798	0.010393
989.281813	0.008321
989.454811	0.006639
989.627790	0.010252
989.800751	0.008496
989.973693	0.006267
990.146617	0.005664
990.319524	0.006455
990.492412	0.003860
990.665281	0.003369
990.838133	0.001752
991.010966	0.002447
991.183781	0.003465
991.356578	0.004770
991.529356	0.007544
991.702117	0.009033
991.874859	0.007910
992.047583	0.008845
992.220288	0.008166
992.392976	0.009589
992.565645	0.009980
992.738296	0.008056
992.910929	0.007455
993.083543	0.006611
993.256139	0.006503
993.428718	0.008529
993.601277	0.008264
993.773819	0.006958
993.946342	0.007372
994.118848	0.009849
994.291335	0.009932
994.463803	0.009642
994.636254	0.008880
994.808686	0.007813
994.981100	0.007318
995.153496	0.005553
995.325874	0.007631
995.498233	0.006468
995.670574	0.004746
995.842897	0.004877
996.015202	0.004156
996.187488	0.003308
996.359757	0.002939
996.532007	0.003415
996.704239	0.006626
996.876452	0.006930
997.048648	0.007692
997.220825	0.006447
997.392984	0.006699
997.565124	0.008943
997.737247	0.010257
997.909351	0.010813
998.081437	0.010259
998.253505	0.008663
998.425554	0.006816
998.597586	0.007298
998.769599	0.007995
998.941594	0.008491
999.113571	0.007503
999.285529	0.007584
999.457469	0.008619
999.629391	0.008185
999.801295	0.008327
999.973181	0.009083
1000.145048	0.009902
1000.316897	0.010524
1000.488728	0.008752
1000.660541	0.009832
1000.832335	0.007953
1001.004111	0.006369
1001.175869	0.007705
1001.347609	0.006802
1001.519331	0.008774
1001.691034	0.009576
1001.862719	0.008639
1002.034386	0.009340
1002.206035	0.007572
1002.377665	0.007129
1002.549277	0.008513
1002.720871	0.007073
1002.892447	0.007060
1003.064004	0.004588
1003.235544	0.003976
1003.407065	0.004356
1003.578568	0.005071
1003.750052	0.005085
1003.921519	0.006708
1004.092967	0.005868
1004.264397	0.006124
1004.435809	0.008456
1004.607202	0.009802
1004.778577	0.008281
1004.949934	0.009289
1005.121273	0.009605
1005.292594	0.009860
1005.463896	0.009017
1005.635180	0.009335
1005.806446	0.009670
1005.977694	0.007220
1006.148923	0.006630
1006.320135	0.006759
1006.491328	0.005812
1006.662503	0.003923
1006.833659	0.005057
1007.004798	0.006340
1007.175918	0.006829
1007.347020	0.004797
1007.518103	0.005498
1007.689169	0.005591
1007.860216	0.005874
1008.031245	0.005914
1008.202256	0.008482
1008.373248	0.007275
1008.544223	0.006663
1008.715179	0.005747
1008.886117	0.006881
1009.057036	0.007724
1009.227938	0.008420
1009.398821	0.008668
1009.569686	0.008424
1009.740533	0.006593
1009.911361	0.007457
1010.082172	0.007220
1010.252964	0.007195
1010.423738	0.008567
1010.594493	0.007569
1010.765231	0.008032
1010.935950	0.007087
1011.106651	0.008599
1011.277334	0.009457
1011.447998	0.010450
1011.618645	0.010615
1011.789273	0.012222
1011.959882	0.013604
1012.130474	0.014876
1012.301048	0.013655
1012.471603	0.013814
1012.642140	0.013530
1012.812658	0.012875
1012.983159	0.009014
1013.153641	0.009276
1013.324105	0.007203
1013.494551	0.006451
1013.664979	0.006375
1013.835388	0.007001
1014.005779	0.008021
1014.176152	0.009153
1014.346507	0.008151
1014.516843	0.010248
1014.687162	0.011187
1014.857462	0.012671
1015.027744	0.010625
1015.198007	0.009947
1015.368252	0.008203
1015.538480	0.009037
1015.708689	0.006719
1015.878879	0.006426
1016.049052	0.006920
1016.219206	0.005775
1016.389342	0.004641
1016.559460	0.006337
1016.729559	0.006601
1016.899641	0.006406
1017.069704	0.005710
1017.239749	0.007007
1017.409775	0.008352
1017.579784	0.008483
1017.749774	0.008117
1017.919746	0.009215
1018.089700	0.008189
1018.259635	0.008309
1018.429553	0.010804
1018.599452	0.010550
1018.769333	0.009632
1018.939195	0.008995
1019.109040	0.009781
1019.278866	0.009828
1019.448674	0.006859
1019.618464	0.007922
1019.788235	0.007543
1019.957989	0.005776
1020.127724	0.004159
1020.297441	0.003017
1020.467139	0.003493
1020.636820	0.001636
1020.806482	0.002200
1020.976126	0.003544
1021.145752	0.001361
1021.315359	0.001729
1021.484948	0.002228
1021.654519	0.004035
1021.824072	0.005056
1021.993607	0.003739
1022.163123	0.004593
1022.332621	0.003237
1022.502101	0.004351
1022.671563	0.004983
1022.841007	0.005130
1023.010432	0.005704
1023.179839	0.005927
1023.349228	0.005890
1023.518598	0.008448
1023.687951	0.009129
1023.857285	0.011016
1024.026601	0.010002
1024.195899	0.011357
1024.365178	0.010192
1024.534439	0.009520
1024.703682	0.008903
1024.872907	0.009315
1025.042114	0.007872
1025.211302	0.006941
1025.380472	0.006537
1025.549624	0.007035
1025.718758	0.007353
1025.887873	0.007876
1026.056970	0.008422
1026.226049	0.006636
1026.395110	0.006471
1026.564153	0.005578
1026.733177	0.006844
1026.902183	0.006280
1027.071171	0.006977
1027.240141	0.006353
1027.409092	0.006108
1027.578026	0.005375
1027.746940	0.007527
1027.915837	0.006604
1028.084716	0.008055
1028.253576	0.005999
1028.422418	0.007188
1028.591242	0.005825
1028.760048	0.004935
1028.928835	0.005348
1029.097604	0.005944
1029.266355	0.004805
1029.435088	0.005776
1029.603803	0.004671
1029.772499	0.004953
1029.941177	0.004088
1030.109837	0.005315
1030.278478	0.006043
1030.447102	0.005909
1030.615707	0.005431
1030.784294	0.005636
1030.952863	0.005978
1031.121413	0.005857
1031.289945	0.004897
1031.458460	0.003889
1031.626955	0.003795
1031.795433	0.003924
1031.963892	0.001675
1032.132334	0.002694
1032.300756	0.003953
1032.469161	0.002733
1032.637548	0.005282
1032.805916	0.005942
1032.974266	0.006958
1033.142598	0.004767
1033.310911	0.004995
1033.479207	0.005746
1033.647484	0.004773
1033.815743	0.004372
1033.983983	0.006382
1034.152206	0.002885
1034.320410	0.002881
1034.488596	0.000871
1034.656764	0.004405
1034.824914	0.003131
1034.993045	0.005598
1035.161158	0.006593
1035.329253	0.005162
1035.497330	0.002834
1035.665388	0.003622
1035.833428	0.003634
1036.001450	0.003371
1036.169454	0.000809
1036.337440	-0.000382
1036.505407	-0.002786
1036.673356	-0.002211
1036.841287	-0.003771
1037.009200	-0.002716
1037.177094	-0.003569
1037.344970	-0.002975
1037.512828	-0.001369
1037.680668	-0.000810
1037.848489	0.000554
1038.016293	0.000107
1038.184078	-0.001223
1038.351845	0.002031
1038.519593	0.003624
1038.687324	0.005353
1038.855036	0.003626
1039.022730	0.004884
1039.190406	0.005463
1039.358063	0.004632
1039.525702	0.006431
1039.693323	0.004830
1039.860926	0.003148
1040.028511	0.002644
1040.196077	0.000989
1040.363625	0.000630
1040.531155	-0.001029
1040.698667	-0.001063
1040.866161	0.000336
1041.033636	0.001433
1041.201093	0.001571
1041.368532	0.001337
1041.535952	-0.000472
1041.703355	0.002880
1041.870739	0.004212
1042.038105	0.005349
1042.205452	0.004259
1042.372782	0.003790
1042.540093	0.002469
1042.707386	0.004217
1042.874661	0.005305
1043.041918	0.005679
1043.209156	0.004707
1043.376376	0.005370
1043.543578	0.004981
1043.710762	0.006563
1043.877927	0.007176
1044.045074	0.007500
1044.212203	0.006473
1044.379314	0.006221
1044.546407	0.006806
1044.713481	0.004851
1044.880537	0.006261
1045.047575	0.006757
1045.214595	0.005225
1045.381596	0.002537
1045.548579	0.001865
1045.715544	0.002881
1045.882491	0.001962
1046.049420	0.001853
1046.216330	0.003621
1046.383222	0.002434
1046.550096	0.004528
1046.716951	0.003985
1046.883789	0.006458
1047.050608	0.007343
1047.217409	0.005223
1047.384192	0.005716
1047.550956	0.005502
1047.717703	0.005799
1047.884431	0.005888
1048.051140	0.003577
1048.217832	0.003927
1048.384505	0.003270
1048.551161	0.001884
1048.717798	0.001154
1048.884416	0.002659
1049.051017	0.001190
1049.217599	0.000653
1049.384163	-0.000397
1049.550709	-0.002301
1049.717237	-0.000354
1049.883746	-0.001053
1050.050237	0.002054
1050.216710	0.004521
1050.383165	0.003304
1050.549601	0.002214
1050.716019	0.001767
1050.882420	0.000985
1051.048801	0.002394
1051.215165	-0.000022
1051.381510	0.001426
1051.547837	-0.001746
1051.714146	-0.000723
1051.880437	-0.001159
1052.046709	0.001939
1052.212964	0.002581
1052.379200	0.003719
1052.545417	0.003377
1052.711617	0.005096
1052.877798	0.003857
1053.043961	0.004618
1053.210106	0.002267
1053.376233	0.001681
1053.542341	-0.000018
1053.708432	-0.000640
1053.874504	-0.001503
1054.040557	-0.003404
1054.206593	-0.002411
1054.372610	-0.003098
1054.538609	-0.003672
1054.704590	-0.001735
1054.870553	-0.000867
1055.036497	0.001718
1055.202424	0.002297
1055.368331	0.004128
1055.534221	0.006840
1055.700093	0.004739
1055.865946	0.008149
1056.031781	0.010430
1056.197598	0.007918
1056.363397	0.007358
1056.529177	0.007633
1056.694939	0.005568
1056.860683	0.004601
1057.026409	0.005409
1057.192116	0.005032
1057.357806	0.003264
1057.523477	0.000629
1057.689130	0.000211
1057.854764	-0.000581
1058.020381	-0.003385
1058.185979	-0.001979
1058.351559	-0.000521
1058.517120	-0.002359
1058.682664	-0.001706
1058.848189	-0.002039
1059.013696	-0.001470
1059.179185	-0.001125
1059.344656	0.001072
1059.510108	0.002248
1059.675542	0.002536
1059.840958	0.000273
1060.006356	0.000126
1060.171735	0.000189
1060.337096	-0.001683
1060.502439	-0.002719
1060.667764	-0.000249
1060.833071	0.000341
1060.998359	-0.001109
1061.163629	-0.001944
1061.328881	-0.000379
1061.494115	-0.000505
1061.659330	-0.000131
1061.824527	0.002354
1061.989706	0.001841
1062.154867	-0.000555
1062.320010	-0.000390
1062.485134	-0.000255
1062.650240	0.000605
1062.815328	0.000675
1062.980398	0.001193
1063.145449	0.000134
1063.310482	-0.001625
1063.475497	-0.000175
1063.640494	0.001531
1063.805473	0.000892
1063.970433	0.002865
1064.135375	0.002797
1064.300299	0.002030
1064.465204	0.000726
1064.630092	0.001023
1064.794961	0.002824
1064.959812	0.002842
1065.124645	0.003698
1065.289459	0.002947
1065.454256	-0.000318
1065.619034	-0.000180
1065.783793	-0.000766
1065.948535	0.000850
1066.113258	-0.000681
1066.277964	0.000119
1066.442651	-0.000571
1066.607319	-0.000651
1066.771970	-0.000311
1066.936602	0.001195
1067.101216	-0.000272
1067.265812	0.001660
1067.430389	0.000207
1067.594949	0.000729
1067.759490	-0.001118
1067.924013	0.000190
1068.088518	-0.000719
1068.253004	-0.002346
1068.417472	-0.001887
1068.581922	0.001666
1068.746354	0.001327
1068.910768	0.002351
1069.075163	0.003233
1069.239540	0.005095
1069.403899	0.005852
1069.568240	0.001888
1069.732562	0.000513
1069.896866	-0.000479
1070.061152	-0.005205
1070.225420	-0.004574
1070.389670	-0.005520
1070.553901	-0.006595
1070.718114	-0.008978
1070.882309	-0.010676
1071.046486	-0.006594
1071.210644	-0.004522
1071.374784	-0.004030
1071.538906	-0.004256
1071.703010	-0.006923
1071.867096	-0.005815
1072.031163	-0.004872
1072.195212	-0.004268
1072.359243	-0.004118
1072.523256	-0.005759
1072.687250	-0.006028
1072.851226	-0.004639
1073.015184	-0.003823
1073.179124	-0.003351
1073.343045	-0.002737
1073.506949	-0.002114
1073.670834	-0.000481
1073.834701	-0.000012
1073.998549	-0.000290
1074.162380	-0.000754
1074.326192	-0.000961
1074.489986	-0.001074
1074.653761	-0.001417
1074.817519	-0.002473
1074.981258	-0.002602
1075.144979	-0.003407
1075.308682	-0.003803
1075.472367	-0.004328
1075.636033	-0.004927
1075.799681	-0.005655
1075.963311	-0.004578
1076.126923	-0.005490
1076.290516	-0.006176
1076.454092	-0.004910
1076.617649	-0.005334
1076.781187	-0.007189
1076.944708	-0.006345
1077.108210	-0.004309
1077.271695	-0.005450
1077.435160	-0.004662
1077.598608	-0.004258
1077.762038	-0.003637
1077.925449	-0.006180
1078.088842	-0.008079
1078.252217	-0.005742
1078.415573	-0.004483
1078.578912	-0.004045
1078.742232	-0.003682
1078.905534	-0.003564
1079.068817	-0.002245
1079.232083	-0.002836
1079.395330	-0.001902
1079.558559	-0.003498
1079.721770	-0.002575
1079.884962	-0.003804
1080.048136	-0.004932
1080.211293	-0.004634
1080.374430	-0.004416
1080.537550	-0.004118
1080.700651	-0.002551
1080.863735	-0.001138
1081.026800	0.001491
1081.189846	-0.000547
1081.352875	-0.002023
1081.515885	-0.003027
1081.678877	-0.002635
1081.841851	-0.003232
1082.004807	-0.005221
1082.167744	-0.006242
1082.330663	-0.008026
1082.493564	-0.008755
1082.656447	-0.008734
1082.819312	-0.006363
1082.982158	-0.006112
1083.144986	-0.008036
1083.307796	-0.009897
1083.470587	-0.007442
1083.633361	-0.005832
1083.796116	-0.007516
1083.958853	-0.007984
1084.121571	-0.006458
1084.284272	-0.008792
1084.446954	-0.008580
1084.609618	-0.004873
1084.772264	-0.002678
1084.934892	-0.006327
1085.097501	-0.009355
1085.260092	-0.008249
1085.422665	-0.006518
1085.585220	-0.007246
1085.747756	-0.006668
1085.910274	-0.005630
1086.072774	-0.008036
1086.235256	-0.009918
1086.397720	-0.007886
1086.560165	-0.007951
1086.722592	-0.008117
1086.885001	-0.010106
1087.047392	-0.010258
1087.209764	-0.008956
1087.372119	-0.009747
1087.534455	-0.011029
1087.696772	-0.008609
1087.859072	-0.009149
1088.021353	-0.008058
1088.183616	-0.007385
1088.345861	-0.006334
1088.508088	-0.008259
1088.670296	-0.008247
1088.832486	-0.007657
1088.994658	-0.007517
1089.156812	-0.010166
1089.318948	-0.011814
1089.481065	-0.012730
1089.643164	-0.014570
1089.805245	-0.015306
1089.967308	-0.014744
1090.129352	-0.015470
1090.291378	-0.015183
1090.453386	-0.012633
1090.615376	-0.013114
1090.777347	-0.009605
1090.939301	-0.008396
1091.101236	-0.003977
1091.263153	-0.003973
1091.425051	-0.001771
1091.586932	-0.003780
1091.748794	-0.007026
1091.910638	-0.012186
1092.072463	-0.011736
1092.234271	-0.013604
1092.396060	-0.015442
1092.557831	-0.018035
1092.719584	-0.016522
1092.881319	-0.019028
1093.043035	-0.017250
1093.204733	-0.015589
1093.366413	-0.012617
1093.528075	-0.013804
1093.689718	-0.011528
1093.851343	-0.008053
1094.012950	-0.007473
1094.174539	-0.008744
1094.336110	-0.009569
1094.497662	-0.006306
1094.659196	-0.007256
1094.820712	-0.008748
1094.982210	-0.009442
1095.143689	-0.012851
1095.305151	-0.014141
1095.466594	-0.015675
1095.628018	-0.016210
1095.789425	-0.013787
1095.950813	-0.015851
1096.112183	-0.018696
1096.273535	-0.016328
1096.434869	-0.013530
1096.596184	-0.012910
1096.757482	-0.012818
1096.918761	-0.012395
1097.080021	-0.010090
1097.241264	-0.007778
1097.402488	-0.009682
1097.563694	-0.006926
1097.724882	-0.007665
1097.886052	-0.006620
1098.047203	-0.006224
1098.208336	-0.006428
1098.369451	-0.007702
1098.530548	-0.011833
1098.691627	-0.014241
1098.852687	-0.014420
1099.013729	-0.012312
1099.174753	-0.011283
1099.335758	-0.011761
1099.496746	-0.012681
1099.657715	-0.013095
1099.818666	-0.011370
1099.979599	-0.011395
1100.140513	-0.014635
1100.301409	-0.013212
1100.462287	-0.014824
1100.623147	-0.017141
1100.783989	-0.019574
1100.944812	-0.020797
1101.105617	-0.022348
1101.266404	-0.022186
1101.427173	-0.017813
1101.587923	-0.015350
1101.748656	-0.016503
1101.909370	-0.015561
1102.070066	-0.015142
1102.230743	-0.014500
1102.391403	-0.008913
1102.552044	-0.008396
1102.712667	-0.011855
1102.873271	-0.013055
1103.033858	-0.015577
1103.194426	-0.016896
1103.354976	-0.015851
1103.515508	-0.013390
1103.676021	-0.015814
1103.836517	-0.020879
1103.996994	-0.018037
1104.157453	-0.017872
1104.317893	-0.022504
1104.478316	-0.021258
1104.638720	-0.020537
1104.799106	-0.019116
1104.959474	-0.023567
1105.119823	-0.017106
1105.280155	-0.013885
1105.440468	-0.016592
1105.600763	-0.013389
1105.761039	-0.009338
1105.921298	-0.011219
1106.081538	-0.010987
1106.241760	-0.012883
1106.401964	-0.009864
1106.562149	-0.012864
1106.722316	-0.014122
1106.882465	-0.014129
1107.042596	-0.019258
1107.202709	-0.023076
1107.362803	-0.018378
1107.522879	-0.017466
1107.682937	-0.018835
1107.842977	-0.019165
1108.002999	-0.020764
1108.163002	-0.020840
1108.322987	-0.021700
1108.482954	-0.018287
1108.642902	-0.017906
1108.802833	-0.021408
1108.962745	-0.019518
1109.122639	-0.019674
1109.282515	-0.019038
1109.442372	-0.020390
1109.602211	-0.021664
1109.762032	-0.017437
1109.921835	-0.014480
1110.081620	-0.011882
1110.241386	-0.011573
1110.401134	-0.014610
1110.560864	-0.015562
1110.720576	-0.019236
1110.880269	-0.017630
1111.039945	-0.015747
1111.199602	-0.021112
1111.359240	-0.025532
1111.518861	-0.023150
1111.678463	-0.024038
1111.838047	-0.021996
1111.997613	-0.023123
1112.157161	-0.017898
1112.316690	-0.019606
1112.476202	-0.020966
1112.635695	-0.018557
1112.795169	-0.014051
1112.954626	-0.014065
1113.114064	-0.008093
1113.273484	-0.013502
1113.432886	-0.009125
1113.592270	-0.015717
1113.751635	-0.014322
1113.910983	-0.013624
1114.070312	-0.009862
1114.229622	-0.014169
1114.388915	-0.014264
1114.548189	-0.020333
1114.707445	-0.016839
1114.866683	-0.016914
1115.025903	-0.012002
1115.185104	-0.012262
1115.344287	-0.013721
1115.503452	-0.016888
1115.662599	-0.012814
1115.821727	-0.015695
1115.980838	-0.015630
1116.139930	-0.012794
1116.299004	-0.013029
1116.458059	-0.014579
1116.617097	-0.011371
1116.776116	-0.011967
1116.935117	-0.010431
1117.094099	-0.014177
1117.253064	-0.015490
1117.412010	-0.014677
1117.570938	-0.019469
1117.729848	-0.020362
1117.888740	-0.019573
1118.047613	-0.023876
1118.206468	-0.021422
1118.365305	-0.026691
1118.524124	-0.021377
1118.682924	-0.015358
1118.841707	-0.015240
1119.000471	-0.011588
1119.159216	-0.011030
1119.317944	-0.012806
1119.476653	-0.012344
1119.635344	-0.015519
1119.794017	-0.012781
1119.952672	-0.014745
1120.111308	-0.023889
1120.269927	-0.026816
1120.428527	-0.026761
1120.587108	-0.031601
1120.745672	-0.031252
1120.904217	-0.030728
1121.062744	-0.033173
1121.221253	-0.034983
1121.379744	-0.036319
1121.538216	-0.033831
1121.696671	-0.031829
1121.855107	-0.036977
1122.013524	-0.030449
1122.171924	-0.031130
1122.330305	-0.030576
1122.488668	-0.023769
1122.647013	-0.024051
1122.805340	-0.021888
1122.963648	-0.020112
1123.121938	-0.018958
1123.280210	-0.015324
1123.438464	-0.020249
1123.596700	-0.017282
1123.754917	-0.019202
1123.913116	-0.021763
1124.071297	-0.022081
1124.229459	-0.030072
1124.387604	-0.028327
1124.545730	-0.027393
1124.703838	-0.025300
1124.861928	-0.025984
1125.019999	-0.026797
1125.178052	-0.023617
1125.336088	-0.026397
1125.494104	-0.020733
1125.652103	-0.017345
1125.810083	-0.024998
1125.968045	-0.023494
1126.125989	-0.019141
1126.283915	-0.018418
1126.441823	-0.016199
1126.599712	-0.016604
1126.757583	-0.014941
1126.915436	-0.013740
1127.073270	-0.011663
1127.231087	-0.005488
1127.388885	-0.005238
1127.546665	-0.011907
1127.704426	-0.014927
1127.862170	-0.016229
1128.019895	-0.014224
1128.177602	-0.007595
1128.335291	-0.016635
1128.492961	-0.012438
1128.650614	-0.008454
1128.808248	-0.010415
1128.965864	-0.007473
1129.123461	-0.004698
1129.281041	-0.010228
1129.438602	-0.014934
1129.596145	-0.022415
1129.753670	-0.019356
1129.911176	-0.022829
1130.068665	-0.022796
1130.226135	-0.022388
1130.383587	-0.017312
1130.541020	-0.014751
1130.698436	-0.011389
1130.855833	-0.006712
1131.013212	-0.001425
1131.170573	-0.000965
1131.327915	0.000115
1131.485239	-0.006334
1131.642545	-0.006235
1131.799833	-0.020981
1131.957103	-0.022208
1132.114354	-0.018500
1132.271588	-0.025344
1132.428803	-0.032854
1132.585999	-0.028374
1132.743178	-0.026820
1132.900338	-0.024263
1133.057480	-0.024518
1133.214604	-0.022279
1133.371710	-0.022479
1133.528797	-0.028485
1133.685866	-0.019463
1133.842917	-0.011937
1133.999950	-0.014857
1134.156964	-0.019644
1134.313960	-0.022448
1134.470938	-0.022598
1134.627898	-0.018133
1134.784840	-0.018051
1134.941763	-0.017564
1135.098668	-0.018936
1135.255555	-0.021027
1135.412424	-0.020140
1135.569274	-0.020957
1135.726107	-0.016196
1135.882921	-0.015042
1136.039716	-0.008241
1136.196494	-0.011139
1136.353253	-0.009502
1136.509995	-0.016555
1136.666717	-0.015061
1136.823422	-0.014693
1136.980109	-0.015200
1137.136777	-0.022180
1137.293427	-0.022389
1137.450059	-0.032346
1137.606672	-0.033332
1137.763267	-0.031920
1137.919844	-0.029625
1138.076403	-0.037629
1138.232944	-0.038974
1138.389466	-0.032455
1138.545971	-0.025484
1138.702457	-0.026812
1138.858924	-0.025183
1139.015374	-0.025903
1139.171805	-0.027571
1139.328218	-0.027574
1139.484613	-0.020433
1139.640990	-0.018443
1139.797348	-0.016957
1139.953688	-0.018956
1140.110010	-0.023418
1140.266314	-0.017608
1140.422600	-0.008851
1140.578867	-0.009508
1140.735116	-0.011382
1140.891347	-0.017750
1141.047559	-0.017117
1141.203754	-0.022347
1141.359930	-0.013588
1141.516088	-0.014012
1141.672228	-0.014650
1141.828349	-0.022808
1141.984452	-0.021616
1142.140537	-0.013762
1142.296604	-0.002211
1142.452653	-0.010076
1142.608683	-0.010698
1142.764695	-0.018504
1142.920689	-0.011818
1143.076665	-0.016503
1143.232622	-0.014883
1143.388562	-0.017414
1143.544483	-0.020114
1143.700385	-0.032670
1143.856270	-0.027608
1144.012136	-0.024611
1144.167985	-0.026480
1144.323814	-0.025353
1144.479626	-0.019256
1144.635420	-0.026644
1144.791195	-0.026029
1144.946952	-0.032818
1145.102691	-0.030050
1145.258411	-0.037692
1145.414113	-0.048635
1145.569798	-0.044623
1145.725463	-0.033387
1145.881111	-0.034199
1146.036741	-0.017991
1146.192352	-0.014760
1146.347945	-0.011639
1146.503519	-0.004817
1146.659076	0.003122
1146.814614	0.011379
1146.970134	0.007998
1147.125636	-0.012179
1147.281120	-0.020968
1147.436585	-0.023827
1147.592032	-0.022922
1147.747461	-0.019224
1147.902872	-0.026067
1148.058265	-0.034738
1148.213639	-0.033128
1148.368995	-0.040068
1148.524333	-0.030210
1148.679653	-0.029292
1148.834954	-0.030285
1148.990237	-0.020416
1149.145502	-0.026688
1149.300749	-0.018300
1149.455977	-0.005210
1149.611188	-0.011675
1149.766380	-0.012284
1149.921553	-0.018381
1150.076709	-0.018103
1150.231846	-0.019642
1150.386966	-0.023610
1150.542066	-0.016246
1150.697149	-0.020550
1150.852214	-0.024610
1151.007260	-0.025647
1151.162288	-0.016062
1151.317298	-0.021452
1151.472289	-0.019198
1151.627263	-0.016328
1151.782218	-0.020061
1151.937155	-0.021500
1152.092073	-0.020606
1152.246974	-0.021512
1152.401856	-0.003366
1152.556720	-0.009037
1152.711566	0.006367
1152.866393	0.004549
1153.021203	-0.000423
1153.175994	-0.005953
1153.330767	0.009298
1153.485521	0.003263
1153.640258	0.000685
1153.794976	-0.003230
1153.949676	-0.003990
1154.104358	-0.017672
1154.259021	-0.019253
1154.413667	-0.027112
1154.568294	-0.027980
1154.722903	-0.042249
1154.877493	-0.039210
1155.032066	-0.047279
1155.186620	-0.058990
1155.341156	-0.056595
1155.495674	-0.056319
1155.650173	-0.050222
1155.804654	-0.046052
1155.959118	-0.046551
1156.113562	-0.053714
1156.267989	-0.050672
1156.422397	-0.040217
1156.576788	-0.041301
1156.731160	-0.034305
1156.885513	-0.021711
1157.039849	-0.018123
1157.194166	-0.011121
1157.348465	-0.005270
1157.502746	0.007435
1157.657009	-0.002395
1157.811253	-0.011591
1157.965479	-0.018681
1158.119687	-0.030078
1158.273877	-0.041511
1158.428048	-0.047475
1158.582201	-0.051551
1158.736337	-0.052953
1158.890453	-0.052260
1159.044552	-0.046352
1159.198632	-0.043153
1159.352694	-0.034384
1159.506738	-0.026970
1159.660764	-0.018854
1159.814771	-0.019543
1159.968761	-0.017797
1160.122732	-0.024516
1160.276685	-0.033027
1160.430619	-0.032928
1160.584535	-0.036127
1160.738434	-0.033000
1160.892313	-0.045256
1161.046175	-0.055401
1161.200019	-0.044112
1161.353844	-0.046169
1161.507651	-0.044481
1161.661440	-0.040319
1161.815210	-0.029888
1161.968962	-0.029481
1162.122697	-0.014764
1162.276412	-0.006982
1162.430110	-0.002906
1162.583789	-0.009637
1162.737451	-0.012046
1162.891094	-0.007333
1163.044718	-0.007424
1163.198325	-0.027146
1163.351913	-0.026281
1163.505483	-0.040266
1163.659035	-0.047863
1163.812569	-0.035548
1163.966084	-0.037607
1164.119581	-0.028927
1164.273060	-0.036583
1164.426521	-0.036872
1164.579964	-0.030459
1164.733388	-0.031623
1164.886794	-0.025886
1165.040182	-0.029866
1165.193551	-0.049539
1165.346903	-0.054868
1165.500236	-0.050455
1165.653551	-0.039655
1165.806848	-0.033723
1165.960126	-0.025664
1166.113386	-0.013714
1166.266628	-0.032014
1166.419852	-0.017112
1166.573058	-0.025090
1166.726245	-0.022772
1166.879414	-0.018784
1167.032565	-0.024705
1167.185698	-0.032550
1167.338812	-0.047712
1167.491909	-0.054202
1167.644987	-0.035846
1167.798046	-0.014815
1167.951088	0.001840
1168.104111	-0.008683
1168.257117	-0.011103
1168.410103	-0.021067
1168.563072	-0.018644
1168.716023	-0.021697
1168.868955	-0.013646
1169.021869	-0.046396
1169.174765	-0.058168
1169.327642	-0.052099
1169.480501	-0.039323
1169.633343	-0.049218
1169.786165	-0.044359
1169.938970	-0.044641
1170.091757	-0.048298
1170.244525	-0.041537
1170.397275	-0.026087
1170.550007	-0.037272
1170.702720	-0.024728
1170.855415	-0.032684
1171.008092	-0.031396
1171.160751	-0.021392
1171.313392	-0.021954
1171.466014	-0.097121
1171.618619	0.013291
1171.771205	0.013291
1171.923772	0.013291
