sample name	sample
index	678
start time	 03-22-2021  11:48:55 AM
880	0.006962
Peak Time (s)	91.535
Peak Height 	0.006962
calc peak height	90,93
Baseline Time (s)	9.034
Baseline Value 	-0.0048
subtract baseline	10,4
Abs	-0.001764
Peak Time (s)	91.035
Peak Height 	-0.001764
calc peak height	90,93
Baseline Time (s)	9.537
Baseline Value 	0.001601
subtract baseline	10,3
PK_550	-0.002788
Peak Time (s)	91.035
Peak Height 	-0.002788
calc peak height	90,93
Baseline Time (s)	9.537
Baseline Value 	2.5421E-4
subtract baseline	10,2
PK_880	-0.007240
Peak Time (s)	91.035
Peak Height 	-0.00724
calc peak height	90,93
Baseline Time (s)	11.036
Baseline Value 	0.002289
subtract baseline	10,1


Time (s)	A880-A510	A880-A775	A880-A975	A880	I510	I775	I975	I880	
0.037000	-0.000132	0.000547	-0.001867	0.003902	7359.134229	45661.878296	3950.608321	24093.384112
0.536000	-0.003889	-0.000550	-0.004822	0.007193	7286.592690	45231.856463	3934.553916	23933.008374
1.035000	-0.002226	0.000161	-0.004417	0.004270	7333.656760	45587.767802	3943.080120	24075.391386
1.535500	0.000393	0.000503	-0.001124	0.001059	7394.216107	45938.487351	3959.932212	24232.896321
2.036000	-0.001098	-0.000207	-0.002853	0.000210	7387.494680	45952.249510	3957.636153	24274.726111
2.539000	-0.003344	-0.000606	-0.000408	0.006195	7302.366190	45323.796119	3948.450748	23981.506467
3.036500	-0.001553	0.000017	-0.002371	0.000009	7384.851970	45994.428030	3959.417020	24284.644959
3.536500	-0.001002	-0.000571	0.001217	0.000509	7385.393437	45886.612173	3967.505340	24260.019003
4.037500	0.000296	-0.000467	-0.001068	0.000231	7401.867994	45924.422131	3962.244262	24273.726773
4.537000	-0.001195	0.000050	0.002407	0.001155	7376.631738	45884.128806	3968.935564	24228.169543
5.037500	0.000383	0.000266	-0.001998	0.000801	7396.805851	45940.511962	3958.323688	24245.585170
5.535000	-0.001551	-0.000111	-0.002745	0.000249	7382.363958	45957.887441	3957.815348	24272.810578
6.035000	0.000688	0.000384	-0.002707	0.000395	7404.260005	45992.574147	3957.535779	24265.634481
6.539000	0.000390	0.000669	0.002913	0.000784	7397.057389	45982.164673	3971.244240	24246.423728
7.039000	-0.000252	-0.000495	0.003030	-0.000272	7401.393080	45971.545413	3974.343459	24298.555653
7.536000	0.000169	0.000085	-0.003345	0.000107	7401.833754	45991.424987	3956.624121	24279.821077
8.036500	-0.001507	0.000691	0.002466	0.000853	7376.534156	45977.602604	3969.885161	24243.048925
8.536500	0.000433	-0.000862	-0.001109	-0.000669	7412.743980	45974.506048	3964.492001	24318.175744
9.033500	-0.001211	0.000193	0.001485	0.000000	7388.520350	46012.791553	3969.549923	24285.108526
9.537000	-0.000367	0.000000	0.000000	-0.000283	7400.309849	46021.774387	3966.389544	24299.096626
10.035000	0.001033	0.000497	-0.000734	0.000141	7410.530086	46028.993537	3963.351262	24278.146427
10.537500	0.000744	-0.000131	-0.001345	0.000192	7406.971591	45961.646276	3961.621106	24275.637251
11.035500	0.000000	0.000855	0.005195	0.000413	7396.864252	46037.545118	3978.264996	24264.756367
11.538500	-0.000196	-0.000262	0.002528	-0.000624	7405.676546	46029.641277	3973.948334	24315.953537
12.035500	-0.000940	0.000466	0.001782	-0.000247	7393.931613	46064.440703	3970.982178	24297.286882
12.536500	0.001094	0.000747	0.005292	0.000478	7407.643694	46020.334197	3978.348931	24261.529017
13.037000	0.000564	0.000330	0.005417	-0.000982	7417.402456	46124.136078	3982.561984	24333.648075
13.536500	-0.002857	0.000992	0.000096	0.004634	7323.396156	45633.591978	3953.800564	24057.589791
14.037500	-0.000606	-0.000147	0.001710	0.002666	7367.046745	45715.305596	3963.141564	24153.929079
14.540000	-0.001546	-0.000745	0.001307	-0.000535	7390.605090	45972.766186	3970.487058	24311.509726
15.035000	0.001494	0.000188	0.001106	-0.001019	7427.584500	46113.671086	3971.236201	24335.479503
15.535500	-0.002262	0.000903	0.001898	0.003820	7337.931826	45705.087377	3960.613205	24097.389347
16.038500	-0.001461	0.000553	0.002707	-0.000343	7389.495080	46082.672462	3973.677630	24302.052917
16.535000	0.001028	0.000352	-0.002654	-0.001140	7423.946803	46141.996167	3961.678359	24341.440040
17.036000	0.000328	0.000037	0.003700	-0.003097	7437.189750	46305.848174	3983.621509	24438.514107
17.536500	-0.000076	0.001194	0.000726	0.003254	7366.432944	45789.586726	3959.029934	24125.074144
18.037000	0.000475	0.000473	0.000518	0.001359	7391.931756	45905.751227	3963.441497	24218.135635
18.537000	0.000291	0.000010	0.001345	0.000868	7395.137229	45908.475819	3966.897522	24242.287973
19.037500	-0.000762	0.000870	0.004662	0.001501	7377.540409	45930.987480	3973.968922	24211.137288
19.534500	-0.000634	0.000352	0.003391	0.002634	7367.088446	45767.764261	3967.634564	24155.510145
20.035000	0.000014	0.001041	0.001495	0.001375	7386.953064	45960.460385	3965.960990	24217.336120
20.538500	0.000614	0.000697	0.003179	0.001506	7391.843464	45913.386047	3970.043166	24210.876669
21.036000	-0.001989	0.000196	-0.000653	0.000998	7370.010610	45914.167437	3961.323738	24235.921319
21.536000	-0.002547	0.000149	0.000044	0.002612	7347.461679	45749.799179	3958.927908	24156.549490
22.036500	0.000864	0.001153	0.007123	0.002248	7386.710568	45885.134483	3978.511584	24174.451764
22.536500	-0.003997	-0.000277	0.005302	0.000814	7351.067706	45885.494929	3977.482648	24244.959884
23.037000	0.000589	0.000713	-0.001675	0.001311	7393.627998	45934.389549	3957.838260	24220.503492
23.537000	-0.002782	0.000851	0.002294	0.003211	7338.842227	45759.969515	3963.242918	24127.192181
24.034500	-0.003125	-0.000048	0.003086	0.000777	7360.500520	45911.894624	3971.720803	24246.805212
24.534500	0.001985	0.000884	0.003847	0.001760	7403.544126	45906.775563	3971.135449	24198.418927
25.038000	-0.001241	0.000680	0.000404	0.001581	7371.717968	45904.249898	3962.561099	24207.208337
25.535500	-0.000333	0.000903	0.002187	0.001548	7381.527522	45929.693666	3967.324647	24208.845204
26.035500	-0.000105	0.000318	0.002729	0.001344	7386.026162	45891.874992	3969.284108	24218.855436
26.536000	-0.001974	0.000753	0.001556	0.001240	7367.642561	45945.295462	3966.473771	24223.968059
27.036500	0.000519	0.001675	0.005689	0.002649	7378.937136	45897.156231	3973.650587	24154.773381
27.537500	0.001717	-0.000020	-0.000006	-0.001329	7433.203427	46123.842448	3969.124382	24350.818701
28.037000	-0.000008	0.000972	0.005049	0.000094	7400.119528	46080.846046	3978.722263	24280.469886
28.534500	0.000378	0.000761	0.001921	0.000206	7402.977856	46048.678230	3970.154728	24274.918145
29.035000	-0.000154	0.001216	0.003368	-0.000278	7402.481301	46142.204598	3975.253310	24298.816424
29.537500	0.000944	0.000481	0.001782	-0.000449	7415.787936	46086.000850	3971.515323	24307.265800
30.035500	0.001158	-0.000086	0.005584	-0.000547	7419.075377	46039.449886	3981.845822	24312.122257
30.536000	-0.000128	0.001186	0.002546	0.000634	7393.205309	46048.460772	3970.674137	24253.829581
31.036000	-0.002190	0.001380	-0.001369	0.003667	7340.251751	45767.266577	3952.509255	24104.871210
31.542500	-0.003574	-0.000308	0.000933	0.004822	7314.090272	45487.407853	3955.486308	24048.396489
32.036500	0.001029	0.001319	0.005642	0.000593	7405.753227	46065.768356	3978.972672	24255.871242
32.537000	0.004071	0.000707	0.007193	0.000573	7437.967291	46006.942097	3983.150798	24256.863417
33.037500	0.001122	0.000770	0.001511	-0.000144	7414.464234	46084.423732	3969.996586	24292.218511
33.537500	-0.001842	0.000128	-0.001357	0.003393	7346.683052	45670.759726	3953.248707	24118.270236
34.037500	-0.001033	0.000737	0.004008	0.002387	7365.505102	45830.147077	3969.906507	24167.613898
34.534500	-0.001423	0.000389	0.003940	0.002243	7362.945942	45809.956551	3970.106961	24174.678845
35.035500	-0.000725	0.001401	0.004984	0.002938	7362.979787	45841.295094	3971.024782	24140.555800
35.536000	-0.001213	0.001336	0.001390	0.004127	7345.592903	45717.497366	3958.485601	24082.359022
36.036000	-0.001008	0.000760	0.002123	0.002367	7365.973001	45834.374976	3965.004180	24168.573139
36.536500	-0.001268	0.001122	-0.000340	0.002657	7360.256986	45841.495650	3957.808962	24154.343169
37.037000	-0.000486	0.000625	0.001992	0.002599	7368.990869	45798.180221	3964.054806	24157.202843
37.536500	-0.002588	0.000323	-0.005181	0.003199	7340.974103	45709.088956	3943.866531	24127.763262
38.037000	0.000172	0.000406	0.001831	0.001953	7382.566928	45840.290203	3965.323340	24188.901506
38.537500	0.000663	0.000678	0.007226	0.002289	7384.179669	45833.983896	3978.673049	24172.420573
39.035000	-0.000455	0.000838	0.006742	0.002585	7369.451207	45820.533494	3976.605779	24157.884593
39.535500	-0.002116	0.000655	0.004450	0.003916	7338.451702	45671.185357	3967.050260	24092.702813
40.036000	0.000817	0.000987	0.002061	0.002663	7381.889686	45827.532971	3964.067355	24154.045309
40.535500	-0.000495	0.000884	0.006337	0.002208	7372.967607	45862.445978	3976.533119	24176.413413
41.036500	-0.000314	0.000416	0.001011	0.002291	7373.976676	45807.856334	3962.292495	24172.311951
41.536500	-0.003061	0.000821	0.003820	0.003821	7329.667868	45696.876832	3965.642432	24097.331110
42.037000	-0.000409	0.000821	0.003530	0.002483	7370.989688	45828.974150	3968.394535	24162.880048
42.537000	0.000917	0.000853	0.002510	0.002737	7382.162026	45807.096093	3965.051965	24150.456989
43.034000	-0.001398	0.000602	0.005749	0.002742	7358.021501	45781.741260	3973.562453	24150.166561
43.535000	-0.002969	0.000472	0.004283	0.003685	7332.018820	45675.882376	3967.215254	24103.968647
44.035000	-0.000349	-0.000004	-0.001276	-0.000030	7397.838982	45996.164999	3962.378822	24286.567649
44.535500	0.001436	0.001363	0.004937	0.000724	7408.651181	46057.181746	3976.755366	24249.416932
45.036000	-0.000613	-0.000212	0.002894	-0.000354	7398.477290	46007.787446	3974.202065	24302.606133
45.536500	0.000046	0.000570	0.002645	0.004127	7358.644097	45642.016318	3961.765444	24082.371655
46.036000	-0.001312	0.000280	0.003575	0.002256	7363.967709	45797.905652	3969.111230	24174.031205
46.536500	0.001111	0.000761	0.003784	0.000519	7407.387264	46017.701525	3974.246459	24259.524925
47.037000	-0.000727	0.000133	0.004234	0.002815	7364.230760	45728.245972	3969.374790	24146.592141
47.540000	-0.001323	-0.000119	0.006071	0.004894	7336.538014	45498.896156	3968.739619	24044.910237
48.037500	0.000387	0.002028	0.003018	0.003932	7364.207143	45805.058993	3963.252610	24091.924300
48.535000	0.002812	0.000996	0.002780	0.000721	7423.134676	46020.951615	3971.060690	24249.527990
49.035500	0.000765	0.001027	0.004220	0.000588	7403.040901	46037.327843	3975.217849	24256.123772
49.536000	-0.000997	0.000497	0.002741	0.004323	7345.803828	45615.541348	3961.501574	24072.785319
50.036000	-0.000039	0.001885	0.002770	0.003664	7362.560408	45817.397461	3963.302650	24105.013613
50.536000	-0.012261	-0.004282	0.005449	0.005685	7217.061015	45015.564613	3965.028451	24006.336882
51.036500	-0.063509	-0.017999	-0.006812	0.211222	5268.863963	28314.142232	3515.855994	16028.981817
51.536500	-0.052178	-0.025368	-0.016176	-0.094524	7867.043827	53435.241665	4190.937609	29497.516569
52.039500	-0.063004	-0.147801	-0.020006	-0.310152	10888.327287	65535.000000	5048.797612	46632.047490
52.537000	-0.049080	-0.178958	-0.001010	-0.341310	11767.294360	65535.000000	5320.887837	49888.623843
53.035000	-0.062729	-0.150322	0.000057	-0.312673	10940.214512	65535.000000	5167.435860	46886.928980
53.535000	-0.029443	-0.132923	0.000713	-0.295274	11241.546581	65535.000000	5078.893548	45157.482032
54.036000	-0.049228	-0.105869	-0.009738	-0.268220	10383.882408	65535.000000	4892.506602	42602.271428
54.536000	-0.024948	-0.114444	-0.006152	-0.276795	10975.735977	65535.000000	4951.184315	43394.992016
55.036000	-0.013813	-0.106625	-0.003989	-0.268977	11037.997297	65535.000000	4923.693752	42671.578242
55.552500	-0.019362	-0.064486	-0.003808	-0.221600	10098.867380	64783.895550	4707.691584	38555.838394
56.036500	-0.017199	-0.036836	-0.004139	-0.178528	9447.455380	62624.392420	4528.738784	35184.447230
56.539500	-0.012158	-0.021344	0.000651	-0.139400	8949.630146	59459.903659	4399.300376	32398.479833
57.037000	-0.018660	-0.015112	-0.002919	-0.096629	8295.688038	54894.798000	4240.080546	29627.016262
57.535000	-0.017883	-0.012925	-0.010071	-0.073047	8017.238060	52394.452212	4143.472310	28211.670438
58.035000	-0.015564	-0.009335	-0.007179	-0.054605	7829.023331	50729.925282	4097.139090	27157.211715
58.535500	-0.018664	-0.007868	-0.006413	-0.034670	7571.947598	48737.963853	4042.255343	26066.594547
59.035500	-0.019112	-0.007992	-0.007530	-0.016360	7372.447287	46832.383982	3989.052763	25108.037078
59.536000	-0.020167	-0.007887	-0.005755	-0.008008	7275.596394	46005.675602	3971.571439	24684.045638
60.036500	-0.009775	-0.003206	-0.007820	0.012438	7174.383081	44468.386372	3913.711088	23679.872403
60.535500	-0.013393	-0.004612	-0.007553	0.020547	7059.243156	43567.217673	3894.248374	23294.526022
61.039500	-0.017848	-0.005134	-0.005040	0.026555	6959.110258	42960.116546	3885.688293	23013.629750
61.537000	-0.010494	-0.002446	-0.003503	0.028566	7009.945083	43022.532412	3884.529376	22920.447905
62.037500	-0.017454	-0.005462	-0.008203	0.024351	6983.750154	43133.539472	3883.349872	23116.198344
62.538000	-0.015261	-0.004399	-0.013228	0.022832	7019.204079	43373.512394	3874.848386	23187.206676
63.035000	-0.011156	-0.003281	-0.007817	0.018694	7099.055153	43866.618139	3898.164661	23381.963787
63.535500	-0.012636	-0.004095	-0.010496	0.017115	7100.023213	43938.837927	3895.452976	23456.758369
64.041500	-0.015340	-0.004690	-0.006857	0.022013	7026.323491	43422.869761	3892.357889	23225.643341
64.536000	-0.013622	-0.003523	-0.005912	0.017213	7089.425347	43983.626743	3906.553672	23452.082603
65.039000	-0.012820	-0.003816	-0.009516	0.016312	7106.076588	44041.225381	3899.851990	23494.874345
65.539000	-0.017152	-0.004790	-0.011622	0.020982	7018.821756	43509.854840	3883.227550	23274.053686
66.037000	-0.015945	-0.004284	-0.013754	0.020252	7037.440046	43625.550440	3879.819241	23308.393312
66.537000	-0.011875	-0.003634	-0.008666	0.014540	7132.764563	44226.764666	3906.353062	23579.269637
67.037500	-0.011101	-0.003173	-0.009326	0.014057	7145.172706	44316.773149	3905.911804	23602.357694
67.537000	-0.012736	-0.003409	-0.005084	0.019149	7079.200811	43811.581440	3903.802085	23360.455956
68.035500	-0.014219	-0.004387	-0.014329	0.017095	7084.761189	43913.047996	3886.103851	23457.674503
68.535500	-0.009497	-0.003302	-0.005775	0.012118	7180.334478	44489.779763	3919.649271	23695.215926
69.036000	-0.010536	-0.003536	-0.009173	0.012299	7168.196204	44450.143645	3910.675577	23686.550360
69.536500	-0.014281	-0.004270	-0.009103	0.015785	7096.938297	44048.128012	3902.177260	23519.961828
70.039500	-0.013309	-0.002952	-0.007153	0.017452	7090.151206	44015.064878	3902.877654	23440.731348
70.537000	-0.008152	-0.003308	-0.006352	0.011456	7200.384674	44552.694705	3919.864597	23727.040120
71.037000	-0.009972	-0.002716	-0.002519	0.011287	7183.890157	44625.825449	3929.990064	23735.163933
71.537500	-0.012030	-0.002760	-0.012844	0.016884	7108.214492	44087.128677	3890.252301	23467.724832
72.034000	-0.006050	-0.002466	-0.010689	0.010873	7227.345632	44689.734037	3910.451540	23755.088621
72.538000	-0.009695	-0.002808	-0.009560	0.009764	7201.877699	44763.515873	3916.053125	23808.523786
73.035500	-0.007140	-0.002162	-0.010472	0.009935	7225.823703	44809.422757	3913.338427	23800.302089
73.535500	-0.011294	-0.002733	-0.013890	0.015196	7132.038753	44250.214492	3891.827533	23548.016073
74.036000	-0.010630	-0.002606	-0.011222	0.014674	7143.732202	44312.063313	3899.683088	23572.912997
74.538500	-0.007251	-0.002287	-0.006815	0.009122	7232.895535	44875.883929	3924.588486	23839.556195
75.036500	-0.006122	-0.002277	-0.007146	0.008979	7245.747711	44890.755788	3924.111700	23846.476607
75.537000	-0.008412	-0.002040	-0.010008	0.014415	7168.281928	44390.845007	3903.330393	23585.280529
76.037000	-0.009192	-0.002386	-0.009270	0.008472	7219.887673	44929.166391	3920.029592	23870.977123
76.535000	-0.007901	-0.002232	-0.008353	0.008466	7232.951712	44944.592168	3922.356980	23871.251794
77.035000	-0.005097	-0.001877	-0.009651	0.008454	7261.443442	44980.195139	3919.115231	23871.841283
77.538000	-0.009509	-0.002780	-0.008210	0.012871	7172.720734	44467.651986	3911.652011	23659.109456
78.035500	-0.006171	-0.001933	-0.008479	0.007701	7258.190290	45047.802815	3923.971872	23908.319156
78.535500	-0.005172	-0.001969	-0.011353	0.007277	7272.644041	45085.574412	3917.795830	23928.905163
79.039000	-0.004973	-0.002116	-0.005853	0.006939	7278.119387	45104.104691	3932.570047	23945.305366
79.536500	-0.008784	-0.002251	-0.010616	0.011740	7191.224644	44626.989623	3908.469392	23713.385531
80.036500	-0.009130	-0.002105	-0.015035	0.012023	7184.944978	44613.767464	3896.813037	23699.773140
80.536500	-0.006721	-0.001354	-0.008902	0.006269	7267.143596	45243.561985	3926.525552	23977.880669
81.037000	-0.004668	-0.002055	-0.006100	0.005824	7292.617062	45218.586293	3934.784581	23999.569855
81.538000	-0.005162	-0.001647	-0.004056	0.005680	7289.036778	45272.397861	3940.384513	24006.568355
82.035000	-0.009124	-0.002722	-0.012549	0.010346	7201.761540	44715.770943	3907.126769	23780.460758
82.535000	-0.004745	-0.001681	-0.006631	0.005426	7295.897388	45293.960845	3934.446330	24018.970296
83.035500	-0.003640	-0.001711	-0.006595	0.005138	7310.177024	45319.125412	3935.271438	24033.007027
83.535000	-0.005112	-0.002383	-0.008121	0.004429	7302.345537	45322.693706	3933.188314	24067.610189
84.035500	-0.008981	-0.002339	-0.014687	0.010115	7205.515545	44775.006409	3902.392139	23791.619797
84.536500	-0.005502	-0.001964	-0.002879	0.004447	7298.167509	45361.973480	3946.585205	24066.746992
85.036000	-0.004515	-0.001583	-0.007087	0.004774	7304.936121	45367.220936	3934.945065	24050.777520
85.537000	-0.006501	-0.001480	-0.004461	0.004488	7287.530314	45405.272155	3942.403998	24064.704009
86.034500	-0.008588	-0.002084	-0.010685	0.009163	7219.015465	44891.605348	3914.740265	23837.571778
86.534500	-0.007439	-0.002823	-0.007615	0.003585	7287.175314	45362.221571	3936.634114	24108.889115
87.035000	-0.004804	-0.002664	-0.008940	0.003296	7317.134376	45406.091192	3933.988100	24123.049270
87.535500	-0.011034	-0.002981	-0.013949	0.008589	7200.233238	44860.274826	3908.014019	23865.299559
88.038500	-0.010250	-0.003229	-0.010666	0.008114	7212.859567	44882.288290	3917.417987	23888.322429
88.536000	-0.006336	-0.002347	-0.009136	0.002850	7305.977305	45480.843713	3934.625749	24144.879562
89.036000	-0.007040	-0.002550	-0.011741	0.003327	7293.890516	45414.196597	3926.787322	24121.524600
89.536500	-0.005408	-0.001803	-0.008198	0.003216	7311.755179	45498.287692	3936.087078	24126.963717
90.037000	-0.009758	-0.003484	-0.008334	0.006528	7233.770410	45011.142603	3927.308968	23965.295417
90.537000	-0.007741	-0.003272	-0.007817	0.001798	7302.365103	45493.249179	3940.691882	24196.521082
91.034500	-0.007240	-0.002788	-0.001764	0.001958	7305.859367	45525.061694	3955.920956	24188.663808
91.535000	-0.011249	-0.003882	-0.010801	0.006962	7214.391625	44930.581404	3919.978277	23944.215033
92.035500	-0.012822	-0.003937	-0.010279	0.006310	7205.151355	44988.316786	3922.937823	23975.886536
92.538000	-0.007562	-0.003080	-0.002447	0.001735	7304.855091	45518.340375	3954.727766	24199.663426
93.036000	-0.007219	-0.003445	-0.005176	0.001211	7313.751034	45533.967349	3949.011830	24225.437501
93.536000	-0.011836	-0.003811	-0.015293	0.006020	7217.964054	45028.814568	3911.073044	23990.031920
94.036500	-0.010929	-0.004259	-0.010536	0.005679	7230.523386	45018.367832	3923.883669	24006.609415
94.537000	-0.008890	-0.003149	-0.007855	0.001335	7295.338529	45550.776625	3941.783476	24219.295394
95.034000	-0.007531	-0.003878	-0.005791	0.000186	7321.068771	45592.105236	3950.069479	24275.921065
95.537500	-0.010091	-0.004266	-0.008216	-0.000140	7298.148586	45586.009684	3944.651445	24292.035407
96.035000	-0.011967	-0.003660	-0.011233	0.004585	7231.095832	45182.925148	3924.888196	24060.003849
