sample name	sample
index	1026
start time	 04-19-2021  12:23:51 PM
880	0.259657
Peak Time (s)	100.038
Peak Height 	0.2597
calc peak height	100,103
Baseline Time (s)	11.536
Baseline Value 	-0.004193
subtract baseline	10,4
Abs	0.159300
Peak Time (s)	102.035
Peak Height 	0.1593
calc peak height	100,103
Baseline Time (s)	11.536
Baseline Value 	0.00203
subtract baseline	10,3
PK_550	0.100780
Peak Time (s)	101.038
Peak Height 	0.1008
calc peak height	100,103
Baseline Time (s)	10.035
Baseline Value 	2.1109E-4
subtract baseline	10,2
PK_880	0.146408
Peak Time (s)	100.038
Peak Height 	0.1464
calc peak height	100,103
Baseline Time (s)	9.537
Baseline Value 	-1.285E-5
subtract baseline	10,1


Time (s)	A880-A510	A880-A775	A880-A975	A880	I510	I775	I975	I880	
0.034500	-0.001397	-0.000333	-0.001075	0.002713	6573.017100	46056.640610	3981.535974	24366.611598
0.535000	-0.003163	-0.001123	-0.005728	0.007344	6517.590748	45520.178383	3955.659409	24137.630938
1.035500	-0.003107	-0.000058	0.001045	0.004773	6540.253614	45879.247453	3981.705323	24264.452282
1.540000	0.000264	0.000098	0.001935	0.002196	6592.066627	46151.082127	3991.511319	24392.312398
2.036000	-0.000508	0.000129	0.003947	0.001387	6592.393958	46235.048728	3999.548859	24432.628020
2.536500	-0.003268	-0.000759	-0.002487	0.006622	6522.895980	45627.155006	3966.637181	24173.167655
3.036500	0.000096	-0.000377	-0.003253	-0.001433	6622.553520	46467.010563	3987.090823	24573.687454
3.537000	-0.001044	-0.000356	-0.002549	0.000243	6597.726563	46300.914710	3984.342180	24489.722436
4.037500	-0.000823	0.000195	-0.002746	0.000762	6595.113745	46304.140539	3982.324038	24463.785924
4.534500	0.000042	0.000084	-0.005456	0.003578	6578.026919	46012.003388	3966.845072	24323.647680
5.035000	0.001644	0.000370	-0.005372	0.000623	6618.057598	46335.600299	3975.332803	24470.745227
5.535500	0.000383	0.000106	0.001693	0.000316	6609.648971	46339.954413	3996.172705	24486.096065
6.038500	0.000609	0.000016	-0.005826	0.000122	6613.348527	46350.281325	3975.465263	24495.778238
6.536000	-0.000783	-0.000126	-0.003278	0.000231	6600.128110	46325.210856	3982.320578	24490.337372
7.036500	0.000288	-0.000110	0.004549	0.000457	6607.566009	46304.216162	4003.937199	24479.060897
7.536000	0.000930	0.000542	-0.000730	0.001144	6607.164763	46300.593633	3986.937104	24444.713573
8.037000	0.002178	0.000157	-0.003842	0.000456	6624.254307	46330.952518	3980.099296	24479.075607
8.537000	0.001052	0.000558	-0.002957	0.000384	6614.942988	46378.459152	3982.794972	24482.696173
9.034500	-0.001653	-0.000170	-0.003976	-0.000148	6595.813073	46358.674830	3981.420573	24509.268617
9.537500	0.000000	0.000305	0.003287	0.000111	6608.078474	46380.402189	4001.312065	24496.346249
10.035000	-0.000397	0.000000	-0.001211	0.000104	6604.642660	46350.551132	3988.521270	24496.690370
10.538500	0.001111	0.000342	0.001016	-0.000013	6618.963255	46396.490611	3995.177646	24502.517921
11.035500	0.001159	-0.000634	0.001073	-0.000177	6620.841714	46315.106933	3995.809735	24510.734173
11.536000	-0.001372	-0.000177	0.000000	0.000000	6596.987660	46343.235870	3992.252218	24501.885503
12.036000	-0.000496	0.000815	-0.004900	0.000778	6597.844946	46364.618110	3976.221774	24462.984965
12.536500	0.001034	-0.000038	-0.001972	0.000088	6617.402639	46348.369159	3986.411706	24497.489702
13.037000	0.000541	0.000643	-0.004228	0.000010	6613.742609	46424.543979	3980.267888	24501.405569
13.537500	0.000219	0.000390	-0.003580	0.001630	6596.650398	46236.890764	3977.538249	24420.528056
14.037500	-0.000948	0.000486	-0.000711	0.002528	6578.551390	46156.708853	3983.082580	24375.818527
14.535000	-0.001200	0.000240	-0.001068	0.002457	6576.968047	46139.189049	3982.276476	24379.333900
15.038000	-0.000040	0.000282	-0.001586	0.000167	6607.230921	46372.522390	3987.279865	24493.538251
15.535500	0.000784	-0.000191	-0.004382	0.001228	6605.143019	46218.911014	3976.413208	24440.552522
16.038500	0.000120	0.000445	0.002732	0.000115	6609.093323	46394.008085	3999.709566	24496.124887
16.539500	-0.000410	-0.000189	0.000707	0.002917	6579.854489	46050.699839	3985.988625	24356.480776
17.036000	0.001334	0.000597	0.003473	-0.001002	6629.697932	46521.593908	4005.035421	24552.078913
17.540000	0.000533	-0.000613	-0.001640	0.001041	6604.587075	46195.417242	3984.657210	24449.892345
18.039500	-0.000805	0.000205	-0.005351	0.001965	6584.724433	46184.875730	3971.636508	24403.813305
18.537000	-0.001403	0.000187	-0.000345	0.001769	6581.212579	46202.628793	3986.260379	24413.589931
19.035000	0.000927	0.000011	-0.005058	0.001824	6601.161389	46179.581930	3972.849975	24410.853644
19.538000	0.000523	0.000539	-0.001051	0.001779	6597.998804	46236.769181	3984.235110	24413.071069
20.035500	0.000685	0.001081	-0.004094	0.001924	6598.153304	46276.509377	3975.268940	24405.860740
20.535500	-0.001572	-0.000051	-0.001643	0.001469	6582.358212	46208.845452	3983.441108	24428.548547
21.036000	-0.001960	0.000006	-0.001140	0.001154	6581.715754	46245.997891	3985.751213	24444.237695
21.536000	-0.001282	-0.000205	-0.002473	0.001371	6585.752079	46203.250477	3981.378348	24433.436677
22.036500	-0.000771	-0.000633	-0.001129	0.000524	6597.660010	46245.121103	3987.564460	24475.703088
22.537000	-0.000930	0.000360	-0.002234	0.001774	6585.306267	46219.491683	3980.917260	24413.352386
23.037500	-0.001253	0.000499	0.001520	0.001442	6585.381565	46266.431528	3992.471744	24429.857324
23.537500	-0.001307	0.000332	-0.001639	0.001212	6586.929828	46272.845374	3984.177031	24441.358560
24.037500	-0.001812	0.000148	-0.002577	0.001149	6583.055909	46260.718230	3981.710660	24444.493295
24.535500	-0.001312	-0.000346	-0.000932	0.001188	6587.089566	46207.417072	3986.243028	24442.543645
25.035500	-0.001924	-0.000112	-0.005320	0.001217	6581.476568	46227.917634	3973.816029	24441.090753
25.535500	-0.001469	-0.000156	-0.000608	0.000826	6588.890355	46262.638874	3988.185585	24460.612839
26.039000	-0.001443	0.000383	-0.002779	0.001623	6582.138888	46236.865752	3979.808073	24420.876539
26.536500	-0.001673	-0.000725	-0.001281	0.000644	6588.689510	46223.934000	3986.792406	24469.688103
27.036500	-0.000345	0.000665	0.002446	0.002018	6588.291723	46225.545889	3993.469661	24401.183806
27.537000	0.001470	0.000545	0.000622	-0.000339	6625.029377	46449.706331	3994.986212	24518.845536
28.037500	-0.000594	0.000761	-0.001527	0.000361	6600.649419	46401.049475	3986.898942	24483.818661
28.540000	0.002797	0.001166	0.003817	0.000853	6626.217008	46392.352964	4000.705073	24459.260657
29.038000	0.000628	0.001021	-0.000697	0.000519	6610.015532	46411.288495	3988.800547	24475.926704
29.535500	0.000915	0.000750	0.001735	0.001285	6605.791554	46307.333317	3993.532096	24437.690502
30.035500	-0.002176	0.000238	0.000129	-0.000073	6590.571429	46392.191794	3992.825625	24505.547190
30.536000	-0.000417	0.000620	-0.000445	0.000780	6598.524855	46344.942645	3988.775673	24462.916959
31.036500	0.001216	0.000784	0.002182	0.003011	6593.269229	46138.254124	3989.899284	24351.797311
31.536500	0.000157	0.000418	0.002237	0.000652	6604.698787	46337.497358	3996.763464	24469.294229
32.036500	0.000841	0.000653	0.001374	0.000231	6614.432253	46403.258823	3995.504553	24490.310511
32.536500	-0.000467	0.000494	-0.001878	0.001309	6593.435735	46279.359911	3983.230136	24436.519249
33.039500	-0.001147	0.000427	0.000794	-0.000009	6599.040581	46404.690590	3994.535641	24502.321435
33.534500	0.000116	0.000663	-0.004121	0.001350	6598.196141	46292.123973	3976.803220	24434.467208
34.035000	0.000295	0.000948	0.000473	0.001844	6595.436185	46271.299898	3988.362904	24409.869107
34.535500	0.000734	0.000521	-0.001458	0.002586	6592.771637	46154.431096	3980.814787	24372.936864
35.036000	0.001359	0.000256	0.000362	0.002485	6599.147451	46137.982650	3986.232889	24377.934280
35.536000	0.000775	0.000500	0.000498	0.002702	6592.113615	46140.740860	3986.004721	24367.139098
36.036500	-0.000925	-0.000119	-0.000678	0.002435	6579.568068	46105.695467	3983.437356	24380.437194
36.536500	0.000832	0.000328	-0.001024	0.003345	6586.975136	46059.486310	3979.898618	24335.205861
37.036500	-0.002308	-0.000308	-0.000350	0.002544	6566.541529	46075.974142	3984.056604	24375.030056
37.540000	0.000644	0.000399	-0.004342	0.002314	6594.373063	46169.416903	3973.482667	24386.471763
38.037500	-0.002907	0.000313	-0.000820	0.001742	6568.306745	46217.887008	3984.992000	24414.913236
38.537500	-0.002102	-0.000033	0.001138	0.000957	6582.195510	46261.815699	3992.766565	24454.088201
39.035000	-0.001099	0.000151	0.000233	0.000686	6593.358461	46307.335991	3990.966246	24467.606313
39.535500	-0.000638	-0.000212	-0.000114	0.000202	6601.665109	46319.511768	3991.355655	24491.789905
40.035500	-0.000485	0.000195	-0.001830	0.000514	6600.261859	46328.990748	3985.608838	24476.205194
40.536000	-0.000769	0.000128	-0.002201	0.000759	6595.607879	46297.722683	3983.868388	24463.931123
41.036500	-0.000956	-0.000055	0.000960	0.000518	6596.086993	46303.497047	3993.506550	24475.972399
41.537000	-0.000221	0.000032	-0.002209	0.001171	6596.808307	46246.874130	3982.684150	24443.387558
42.039500	0.001461	0.000726	-0.002202	0.001644	6607.436065	46268.952377	3981.371514	24419.789306
42.537500	0.000296	0.000621	-0.000732	0.001600	6597.577053	46262.871749	3985.641149	24421.979145
43.035000	-0.000325	0.000542	-0.000776	0.001340	6594.410960	46281.073753	3986.252651	24434.965434
43.535500	0.000211	0.000584	0.005237	0.001759	6595.445227	46243.327627	4002.176851	24414.103647
44.035500	-0.001098	0.000313	-0.001510	-0.002273	6619.418554	46621.025414	3994.421359	24615.861579
44.535500	0.000137	0.000378	0.001800	-0.000594	6615.497696	46458.531071	3999.073880	24531.596082
45.036000	-0.000747	0.001028	-0.001821	-0.000187	6604.129454	46482.945980	3987.620061	24511.258419
45.536000	-0.001344	-0.000286	-0.001619	0.003091	6570.170234	46023.609410	3978.939690	24347.808893
46.037000	-0.000374	0.000483	0.001260	-0.000357	6608.902854	46445.206097	3996.853562	24519.730569
46.539500	0.000442	0.000286	0.003206	0.000249	6610.753942	46364.655866	4000.684864	24489.439858
47.040000	0.001621	0.000046	0.000401	-0.000267	6625.722677	46392.360985	3994.152015	24515.247410
47.536500	-0.002543	0.000391	-0.005638	0.003734	6554.146431	46027.035283	3965.903513	24315.899570
48.035000	-0.001233	0.000112	0.001936	0.001897	6581.568418	46182.310257	3992.362059	24407.188893
48.535500	-0.000435	0.000712	0.000824	0.000261	6602.927741	46406.139148	3993.853511	24488.822662
49.035500	-0.000549	0.000452	0.003782	-0.000477	6608.417515	46454.145059	4004.414520	24525.746152
49.536000	-0.003237	0.000021	-0.002997	0.004622	6540.434696	45902.065800	3970.791191	24271.937154
50.035500	0.002357	0.000636	0.003856	-0.002165	6649.103843	46642.719284	4009.481238	24610.454129
50.536000	0.003285	0.000539	0.006729	0.014956	6507.588995	44939.169460	3969.093793	23766.536133
51.039500	0.020695	-0.009015	0.026101	0.142813	5671.126630	33513.755910	3701.424821	18414.154391
51.537000	0.011133	-0.012636	0.004658	0.249860	4990.930303	26608.203890	3459.841355	14998.486767
52.037000	-0.020511	-0.022202	-0.055785	-0.084481	7216.309513	53075.530694	4076.551559	29166.570222
52.540000	-0.014395	-0.136184	-0.050149	-0.294642	10077.969532	65535.000000	4925.086863	45590.700909
53.035000	-0.011271	-0.119787	-0.032627	-0.278245	9858.378756	65535.000000	4930.709190	44004.471462
53.534500	-0.012362	-0.105104	-0.034869	-0.263563	9605.995047	65535.000000	4847.670189	42634.018819
54.035500	-0.014384	-0.088103	-0.035024	-0.246561	9313.555461	65535.000000	4766.734435	41103.952615
54.540500	-0.013430	-0.089534	-0.032740	-0.247992	9349.520219	65535.000000	4783.987658	41230.412447
55.036000	-0.016394	-0.084557	-0.035767	-0.243015	9230.533945	65535.000000	4746.997867	40792.290808
55.539000	-0.014044	-0.071089	-0.025432	-0.227473	9037.605996	65236.111354	4723.287672	39455.896474
56.036500	-0.006812	-0.061396	-0.022205	-0.214871	8960.749469	64819.552063	4681.328541	38406.992915
56.536500	-0.005752	-0.031183	-0.014824	-0.167005	8329.509210	62349.513542	4510.143695	34688.800031
57.034500	0.000071	-0.014613	-0.011538	-0.126146	7899.590162	59111.353633	4364.941124	31823.549271
57.534000	0.004125	-0.007767	-0.010261	-0.096243	7603.913680	56200.477088	4262.446845	29891.000894
58.035500	0.010517	-0.002677	-0.004117	-0.071283	7402.129019	53813.016632	4198.664165	28376.721850
58.536000	0.016704	0.002244	0.006378	-0.042038	7163.252148	51035.241745	4137.794898	26709.714400
59.035500	0.016912	0.007869	0.008815	-0.019594	6944.611249	49203.575382	4075.680697	25504.424886
59.535500	0.021162	0.010982	0.016867	0.019101	6627.258538	45554.472910	3985.920115	23567.174905
60.038500	0.027336	0.013446	0.020105	0.035966	6533.763122	44160.434233	3947.992517	22775.348913
60.537000	0.032862	0.018582	0.031814	0.042378	6526.124477	44039.157226	3962.594975	22482.305995
61.039000	0.041596	0.022939	0.039384	0.051921	6519.149980	43549.758606	3957.134423	22054.042445
61.537000	0.049812	0.029162	0.047569	0.093117	6245.905034	40398.123648	3869.376783	20309.681845
62.040000	0.055252	0.033467	0.056524	0.116087	6108.892234	38817.104746	3834.088142	19406.555995
62.535000	0.066758	0.039458	0.067767	0.137732	6032.132153	37542.560513	3808.624966	18598.152690
63.035000	0.069644	0.043462	0.073468	0.156384	5916.281240	36390.771379	3777.760195	17933.108030
63.536000	0.079025	0.047209	0.081446	0.159148	5964.392127	36466.917855	3790.074806	17836.988813
64.036000	0.083707	0.051880	0.091697	0.164530	5959.275092	36411.879068	3801.711262	17651.537049
64.539000	0.089448	0.054423	0.100914	0.181330	5879.393631	35326.779439	3783.647287	17087.173815
65.039000	0.097790	0.056005	0.102788	0.198854	5814.608379	34154.983363	3747.348249	16521.309197
65.536500	0.106006	0.063380	0.109883	0.222000	5712.144539	33037.383323	3711.457506	15808.074920
66.037000	0.095461	0.061327	0.107822	0.234128	5563.130574	32066.444384	3680.815205	15449.260648
66.537500	0.102935	0.065180	0.112222	0.220842	5699.268844	33243.903166	3719.163989	15842.860881
67.035000	0.105046	0.066308	0.114929	0.217942	5733.116203	33527.401248	3731.651564	15930.374724
67.543500	0.107096	0.068138	0.117533	0.214976	5767.393564	33868.467516	3744.216583	16020.501036
68.046500	0.105658	0.068079	0.119371	0.218074	5736.387240	33643.588746	3741.363728	15926.402003
68.541500	0.106617	0.069129	0.119964	0.215407	5761.148879	33908.569220	3748.771123	16007.382303
69.039000	0.110792	0.071459	0.127335	0.217576	5774.937444	33920.053330	3760.706755	15941.477512
69.536500	0.111790	0.072419	0.122175	0.219227	5770.436433	33870.622262	3745.105777	15891.519754
70.036500	0.110110	0.072902	0.123027	0.222159	5738.874709	33695.974059	3740.389325	15803.291891
70.536500	0.110493	0.075225	0.126714	0.218000	5769.962112	34160.377542	3758.299512	15928.640394
71.037500	0.115380	0.076183	0.127885	0.217099	5810.039086	34294.812639	3763.081015	15955.933480
71.537000	0.114521	0.078516	0.127103	0.217763	5799.441319	34416.022939	3759.738980	15935.798108
72.035000	0.115427	0.080032	0.126258	0.220314	5788.038589	34340.844091	3751.938560	15858.750219
72.535000	0.120935	0.082630	0.132331	0.215651	5859.252078	34872.325283	3776.810598	15999.935543
73.035500	0.121795	0.083120	0.130384	0.212937	5884.680138	35109.644914	3778.611451	16082.820729
73.538500	0.124728	0.083255	0.134227	0.212684	5907.521220	35138.529680	3788.283041	16090.574820
74.036000	0.117498	0.083874	0.130272	0.218344	5816.132877	34765.539659	3765.728166	15918.230661
74.536500	0.121069	0.083929	0.134029	0.215769	5859.366063	34959.641841	3780.524555	15996.352638
75.037000	0.123647	0.084932	0.135556	0.216605	5871.730479	34971.959343	3782.153201	15970.933216
75.536500	0.123679	0.087039	0.138419	0.217611	5864.807811	35053.609496	3786.539665	15940.403150
76.037500	0.123535	0.087175	0.135434	0.214757	5884.111842	35276.377448	3786.232004	16027.204685
76.534500	0.126185	0.089220	0.133516	0.213916	5909.139397	35492.798662	3783.684021	16052.874139
77.035000	0.125674	0.088370	0.136948	0.212581	5915.070782	35529.228709	3795.002075	16093.724144
77.535500	0.126349	0.088653	0.132771	0.212207	5922.649841	35578.747760	3785.961592	16105.199663
78.038000	0.125539	0.089491	0.137152	0.218801	5869.573701	35147.387489	3780.737850	15904.392012
78.536000	0.127305	0.090432	0.143668	0.216205	5900.729386	35411.778396	3802.421640	15983.084193
79.036500	0.130443	0.090514	0.141210	0.216871	5918.532783	35368.020818	3794.937386	15962.861049
79.536500	0.131038	0.092938	0.143780	0.219368	5904.828756	35362.529464	3795.110332	15887.268969
80.037000	0.123620	0.092930	0.139042	0.224907	5813.048752	34949.487764	3770.858592	15721.138596
80.537000	0.128085	0.092477	0.142155	0.220073	5878.641486	35275.263573	3789.562851	15866.015532
81.037500	0.126464	0.093070	0.139210	0.221426	5857.516557	35218.528979	3779.405832	15825.311360
81.534500	0.127641	0.093628	0.137689	0.223108	5853.938841	35134.734700	3771.900008	15774.864884
82.035000	0.122533	0.091716	0.137209	0.228153	5782.967552	34621.104424	3759.083737	15624.760929
82.538000	0.125750	0.094660	0.145796	0.226498	5816.822372	34959.819217	3782.972301	15673.831455
83.036000	0.126389	0.093909	0.140993	0.227394	5815.022570	34838.067304	3769.611696	15647.248394
83.536000	0.124568	0.092880	0.140268	0.230231	5782.668582	34554.277314	3761.347641	15563.445538
84.037000	0.130244	0.093640	0.143803	0.231944	5810.172291	34484.672328	3765.567011	15513.120768
84.537000	0.130088	0.094076	0.149271	0.232823	5802.968193	34452.461903	3776.269035	15487.383301
85.037000	0.128469	0.094133	0.142251	0.232838	5791.625544	34455.532842	3759.909602	15486.948666
85.537500	0.131479	0.095005	0.143861	0.234097	5803.782395	34427.336137	3760.719080	15450.150975
86.037500	0.130342	0.095924	0.151890	0.234125	5795.684745	34492.213159	3779.359699	15449.322314
86.535000	0.133311	0.094142	0.146145	0.233534	5820.492531	34405.534217	3767.314518	15466.600387
87.038500	0.131665	0.096317	0.145426	0.236064	5791.416299	34379.670072	3759.790294	15392.893794
87.535500	0.133497	0.095672	0.143497	0.237380	5794.998362	34237.480550	3752.336611	15354.737750
88.036000	0.129024	0.095542	0.142852	0.243146	5724.799674	33813.797745	3737.765998	15188.865980
88.536500	0.135720	0.096689	0.149599	0.239565	5795.259931	34153.059569	3761.343802	15291.620863
89.036500	0.134884	0.097383	0.147712	0.240559	5782.588096	34131.409060	3754.707566	15262.999295
89.536500	0.135685	0.096775	0.149732	0.241340	5782.729008	34031.426677	3757.558098	15240.585557
90.037000	0.132938	0.096065	0.140109	0.246922	5725.731715	33582.397114	3723.171200	15081.418276
90.534500	0.137479	0.097990	0.148452	0.242871	5784.547239	34008.780176	3751.108115	15196.729235
91.034500	0.134787	0.097581	0.149581	0.243342	5762.758557	33945.605461	3752.614303	15183.256873
91.538000	0.136427	0.096827	0.153713	0.242912	5776.995899	33922.314662	3763.114531	15195.538375
92.035500	0.133294	0.097375	0.146722	0.249285	5712.168749	33507.923538	3732.661720	15014.671376
92.535500	0.139181	0.099518	0.153741	0.245848	5775.748088	33904.876561	3756.409922	15111.901203
93.036000	0.137312	0.098646	0.154944	0.245774	5763.400669	33847.736185	3759.349707	15113.994395
93.536500	0.139808	0.098906	0.151768	0.247105	5771.404097	33771.264584	3749.010498	15076.236227
94.036500	0.137037	0.099222	0.153726	0.253232	5710.789413	33359.863100	3739.545437	14903.957674
94.537000	0.139681	0.098298	0.151582	0.247782	5765.875242	33679.840246	3747.045545	15057.096045
95.034000	0.140269	0.100330	0.151950	0.249185	5760.276721	33724.577774	3744.690822	15017.476731
95.537000	0.138969	0.100502	0.150890	0.250586	5741.817773	33637.251109	3739.115386	14978.068612
96.034500	0.136569	0.099644	0.148134	0.255838	5690.138854	33206.704840	3721.193786	14831.439267
96.535500	0.143689	0.099940	0.152105	0.251255	5769.553652	33549.963867	3740.348460	14959.280129
97.035500	0.143033	0.101711	0.153648	0.252840	5754.174579	33563.124265	3740.253044	14914.905517
97.535500	0.144944	0.100374	0.155573	0.253274	5764.304696	33438.056050	3743.631521	14902.790247
98.036500	0.139870	0.100256	0.154785	0.259585	5687.156362	32988.083067	3727.654957	14727.901474
98.536500	0.143269	0.100021	0.154659	0.254093	5747.224144	33355.443579	3739.706300	14879.941210
99.036500	0.143513	0.100180	0.154461	0.254270	5747.683939	33354.263584	3738.859933	14875.020169
99.537000	0.142046	0.100070	0.154537	0.254479	5736.261051	33331.832637	3738.560379	14869.196680
100.037500	0.146408	0.100052	0.153493	0.259657	5730.725229	32968.875494	3724.614644	14725.911251
100.537500	0.145674	0.100232	0.157842	0.255063	5757.042542	33302.237454	3744.722599	14852.968514
101.038000	0.145679	0.100780	0.156436	0.255214	5756.040490	33330.079444	3741.192192	14848.751541
101.535000	0.143699	0.100495	0.154491	0.255933	5737.617017	33259.615559	3735.178803	14828.787718
102.035500	0.146045	0.099759	0.159300	0.254985	5760.116638	33274.435453	3748.216409	14855.118317
102.535500	0.144194	0.098936	0.155400	0.254040	5753.911875	33283.002178	3741.503314	14881.418892
103.036000	0.148116	0.100207	0.158586	0.254761	5775.897895	33321.662136	3747.101593	14861.356346
103.536500	0.147982	0.099912	0.151931	0.255202	5771.930347	33269.936135	3731.073199	14849.086428
104.037000	0.147819	0.101447	0.159529	0.256140	5764.364826	33311.855302	3746.109615	14823.051917
104.537500	0.145848	0.100362	0.168820	0.255800	5753.187497	33259.575898	3768.262395	14832.472326
105.040000	0.149268	0.100835	0.159848	0.256348	5772.900679	33254.344483	3746.362899	14817.297069
105.535000	0.145025	0.099130	0.158546	0.256258	5744.443585	33141.357984	3743.608610	14819.788770
106.035000	0.149453	0.099923	0.158496	0.256528	5772.930374	33177.861585	3742.881397	14812.287714
106.535500	0.149259	0.100590	0.158966	0.257291	5766.348278	33171.199098	3742.216928	14791.169547
107.034500	0.148106	0.100954	0.161554	0.257802	5754.937495	33160.899506	3746.935481	14777.046634
107.536000	0.149524	0.100097	0.159211	0.257844	5764.371101	33098.134016	3741.520528	14775.879657
108.036000	0.146074	0.099271	0.155503	0.263579	5701.969362	32644.109850	3720.368299	14618.504157
108.536500	0.151805	0.100584	0.159760	0.259791	5766.666222	32996.534873	3738.360751	14722.232662
109.037000	0.150965	0.100387	0.167293	0.259869	5760.366595	32977.438319	3755.330412	14720.079369
109.537000	0.151450	0.100597	0.163254	0.261781	5750.593603	32859.446394	3741.758921	14667.616918
110.037500	0.148564	0.099762	0.158061	0.264330	5713.683760	32626.240916	3724.380382	14598.048967
110.535000	0.152276	0.101041	0.166277	0.261467	5758.397717	32911.921008	3749.347388	14676.219015
