sample name	sample
index	391
start time	 03-08-2021  09:54:49 AM
880	0.051769
Peak Time (s)	92.538
Peak Height 	0.05177
calc peak height	90,93
Baseline Time (s)	11.539
Baseline Value 	-9.4736E-5
subtract baseline	10,4
Abs	0.043301
Peak Time (s)	90.537
Peak Height 	0.0433
calc peak height	90,93
Baseline Time (s)	8.537
Baseline Value 	0.002368
subtract baseline	10,3
PK_550	0.019735
Peak Time (s)	92.538
Peak Height 	0.01973
calc peak height	90,93
Baseline Time (s)	11.036
Baseline Value 	-1.1015E-4
subtract baseline	10,2
PK_880	0.036920
Peak Time (s)	90.037
Peak Height 	0.03692
calc peak height	90,93
Baseline Time (s)	11.539
Baseline Value 	-3.6105E-4
subtract baseline	10,1


Time (s)	A880-A510	A880-A775	A880-A975	A880	I510	I775	I975	I880	
0.037000	-0.003270	0.000241	-0.002550	0.006088	6917.689918	47689.652922	3881.091907	24863.226883
0.540000	-0.000474	0.000145	-0.004087	0.004061	6964.910811	47890.030429	3882.470592	24967.013984
1.038000	-0.001595	-0.000556	-0.003063	0.002318	6971.029207	47998.472328	3890.278001	25056.593792
1.536000	-0.002151	0.000228	-0.001684	0.001417	6974.442837	48174.492587	3896.751342	25103.071219
2.035500	-0.002439	0.000157	-0.001973	0.002431	6961.615168	48061.038946	3893.047076	25050.779446
2.536000	0.001572	0.000999	-0.002071	-0.001247	7037.923212	48535.206451	3903.250383	25241.002088
3.040500	0.002865	0.000438	0.001662	-0.001374	7052.157194	48489.407086	3914.342196	25247.578104
3.536500	-0.002914	0.000541	-0.003941	0.002858	6952.749464	48056.594084	3886.271771	25028.802992
4.036500	0.000756	0.000441	-0.000593	-0.000019	7017.502600	48347.350152	3903.966700	25177.328890
4.539500	-0.000500	-0.000241	-0.004818	-0.000251	7007.307067	48300.094758	3892.587572	25189.336020
5.037000	0.000630	0.000873	-0.005635	0.000871	7007.387405	48299.134510	3887.097258	25131.256014
5.534500	-0.001190	0.000051	-0.002869	0.000295	6995.035835	48273.388780	3896.571631	25161.047025
6.035000	-0.000307	0.000356	-0.001664	0.000356	7003.186748	48298.987988	3899.831557	25157.876797
6.535000	0.000109	0.000807	-0.000704	0.000489	7006.006142	48332.407795	3902.194250	25151.030087
7.036000	-0.000096	0.000100	-0.001341	-0.000152	7010.336744	48325.417932	3902.206110	25184.193800
7.541500	-0.000565	-0.000305	-0.007184	-0.000138	7005.538442	48281.478127	3885.571842	25183.456494
8.036500	-0.001464	0.000382	-0.001543	-0.000141	6996.645168	48353.853171	3901.594608	25183.622025
8.536500	0.000631	-0.000401	0.000000	-0.000701	7023.053936	48330.442291	3907.619410	25212.650014
9.036500	-0.000302	-0.000330	-0.002950	-0.000551	7012.257892	48322.149897	3898.751668	25204.879464
9.542500	-0.000369	0.000689	0.001946	0.000425	7001.897582	48326.741263	3909.978730	25154.348341
10.037500	0.001107	0.001475	-0.001134	0.000590	7014.926097	48391.905763	3900.675290	25145.772655
10.537500	-0.001382	0.000567	0.001396	0.000263	6993.450862	48330.931644	3908.862864	25162.722820
11.035500	0.000210	0.000000	-0.001084	-0.000214	7014.006408	48321.420766	3903.117252	25187.398498
11.538500	0.000000	-0.000100	0.001357	0.000000	7009.785098	48288.482456	3909.506366	25176.328078
12.035500	0.000218	0.001041	0.001664	0.000256	7009.406926	48381.469372	3909.651530	25163.078490
12.536000	-0.001197	0.000574	-0.003173	0.000173	6996.176874	48341.133841	3896.054339	25167.372260
13.036000	0.002424	0.000446	0.000376	-0.002174	7055.763714	48574.733804	3912.941288	25289.209995
13.539000	-0.000342	0.000390	0.005371	-0.002741	7033.710153	48628.613250	3929.079163	25318.709311
14.040000	-0.000414	0.000263	0.001290	-0.002475	7030.332937	48587.157050	3916.450350	25304.878087
14.537000	-0.001695	-0.000021	0.002653	0.001440	6978.714346	48145.992217	3909.089845	25101.880810
15.037500	0.001178	0.000564	-0.001183	-0.001219	7033.690340	48486.425760	3905.710903	25239.527505
15.540000	0.000694	-0.000146	0.000842	-0.002990	7046.592221	48598.320650	3916.642834	25331.723485
16.037500	-0.000170	0.000659	-0.002098	-0.002314	7031.167693	48611.962618	3906.227815	25296.492065
16.538000	0.001194	0.000243	0.000251	-0.001820	7039.866693	48515.907381	3911.558093	25270.771591
17.038500	0.000265	-0.000125	0.002740	-0.002988	7042.260137	48600.299393	3922.137435	25331.599824
17.538500	0.000089	0.000084	-0.000663	-0.002965	7040.264135	48619.926389	3912.223251	25330.384295
18.036500	0.002000	0.000112	0.003962	-0.003504	7064.892420	48680.003908	3927.197388	25358.549117
18.536500	-0.000526	0.000381	-0.000429	0.000161	7002.948846	48322.080317	3903.916505	25167.975740
19.037000	-0.001096	0.000211	0.000378	0.000317	6995.752060	48287.806132	3905.781599	25159.899181
19.543000	-0.000126	0.000902	0.002390	0.000672	7001.849706	48323.126186	3910.542825	25141.552764
20.037500	-0.002198	0.000730	0.002452	0.000199	6986.003575	48354.663363	3912.081684	25166.002328
20.535500	-0.000981	0.001428	-0.001975	0.000928	6990.842244	48351.505101	3897.316195	25128.329411
21.035000	-0.001131	0.000101	-0.000594	0.000253	6996.045843	48283.051399	3903.183663	25163.249108
21.535500	-0.000185	0.000149	0.002381	0.000376	7004.205253	48275.226989	3911.370722	25156.866093
22.036000	-0.000033	0.001372	0.000027	0.001184	6997.694405	48318.641352	3902.296431	25115.076278
22.536000	0.000506	0.001118	0.000365	0.001015	7004.729428	48309.848600	3903.746329	25123.824086
23.037000	-0.001674	0.001114	-0.002465	0.001096	6982.321410	48300.886951	3895.441925	25119.643269
23.540000	-0.001304	-0.000044	0.000334	-0.000043	6997.265046	48298.921227	3906.691605	25178.569563
24.040000	-0.000180	0.000849	0.002551	0.000541	7002.618205	48331.307562	3911.383494	25148.335645
24.537500	0.000292	0.000298	-0.002531	0.000492	7007.796112	48278.604925	3896.972384	25150.861273
25.035000	-0.000595	0.000650	0.003921	0.000436	6999.543319	48321.432961	3915.638841	25153.771248
25.535000	-0.000826	-0.000222	0.001552	0.000464	6996.969435	48227.039418	3908.730852	25152.302288
26.035000	-0.000785	-0.000070	0.002814	-0.000094	7002.917669	48301.475274	3913.973461	25181.185467
26.538500	0.000072	0.000368	-0.001295	0.000181	7008.701077	48318.664899	3901.384841	25166.955886
27.036000	-0.000893	0.000154	0.002559	-0.000014	7001.053390	48316.645762	3913.009128	25177.075398
27.539000	-0.001036	0.000147	0.001363	0.000419	6995.335498	48270.481466	3908.318152	25154.656275
28.036000	0.000178	-0.000261	0.004030	-0.000852	7020.033647	48361.040295	3919.682097	25220.471277
28.537500	0.002229	0.000549	0.002842	-0.002450	7056.579596	48614.753019	3920.872877	25303.576832
29.039500	0.002881	0.000695	0.000690	-0.001971	7058.317489	48579.546656	3913.258349	25278.622214
29.537500	0.002604	0.001292	0.001727	-0.001650	7052.313819	48608.757810	3915.328167	25261.953548
30.038000	0.001628	0.000601	0.001808	-0.002427	7050.308428	48617.731598	3917.809429	25302.370690
30.535500	-0.000087	0.000583	0.003540	-0.001463	7023.490953	48514.181032	3920.032897	25252.227306
31.036000	0.002405	0.000528	0.002869	-0.002080	7054.631421	48573.503345	3919.877370	25284.327816
31.541500	-0.000357	0.000107	0.001287	0.003722	6969.405102	47921.403891	3898.650468	24984.411052
32.036500	-0.000350	0.001159	-0.000911	0.003084	6975.765650	48097.452238	3894.211192	25017.184680
32.536500	0.000141	0.000180	0.000653	-0.000354	7014.715617	48355.068560	3908.498552	25194.665017
33.043500	-0.000071	0.000401	0.000940	-0.002218	7031.192693	48574.613503	3914.694356	25291.480480
33.537000	-0.002480	0.000398	-0.001163	0.003863	6947.145063	47936.877916	3891.283044	24977.149077
34.037500	0.003503	0.001155	0.005321	-0.001541	7060.259488	48582.710375	3925.435679	25256.291710
34.535000	0.001224	0.001403	0.000134	-0.001094	7032.904598	48561.733186	3909.135376	25233.070246
35.035000	0.001002	0.000221	0.001752	-0.002179	7041.549644	48551.466883	3916.930149	25289.476778
35.535500	-0.001873	-0.000424	-0.004073	0.001943	6971.991042	48051.308688	3888.482174	25075.913587
36.038500	-0.000761	-0.000048	0.001422	0.000797	6994.314571	48210.385471	3907.401312	25135.084980
36.536000	0.000041	0.000936	0.001935	0.001485	6995.450422	48241.449024	3906.899272	25099.569862
37.036000	-0.000927	0.000603	0.002446	0.001042	6990.246822	48252.969279	3909.639808	25122.435863
37.536500	0.000873	0.000258	-0.001938	0.001464	7003.906234	48172.641010	3895.895508	25100.638450
38.037000	-0.000248	0.000739	0.001860	0.001115	6996.248072	48259.513845	3907.743918	25118.639448
38.537000	0.000270	0.000382	0.000201	0.001424	6998.321646	48189.747195	3902.107165	25102.680623
39.035000	-0.001108	0.000023	0.000175	0.000713	6991.707929	48226.684667	3904.066471	25139.424110
39.535000	-0.000623	0.000502	-0.001641	0.001515	6988.574643	48192.869019	3896.595816	25098.015688
40.035500	-0.001035	0.001181	0.002731	0.001883	6980.856944	48225.483230	3908.042043	25079.041342
40.535000	-0.000851	0.000734	0.003733	0.001397	6987.477281	48229.525971	3912.324140	25104.089415
41.035500	-0.000132	0.000618	0.001140	0.001264	6995.926126	48231.321004	3905.254996	25110.972617
41.536500	-0.000632	0.000008	0.001751	0.000899	6994.576288	48205.650770	3908.052182	25129.809286
42.036500	0.001515	0.000843	-0.003224	0.001555	7009.381085	48224.342163	3891.982680	25095.924542
42.536500	-0.000359	-0.000055	0.002877	0.000866	6997.611449	48202.481044	3911.387694	25131.518168
43.037000	-0.000482	0.000284	0.001857	0.001263	6992.457949	48196.405580	3907.311972	25110.997706
43.537000	-0.001098	0.000508	-0.000083	0.001673	6982.311232	48176.998696	3900.585434	25089.857520
44.037000	0.001216	0.001278	0.004326	0.001841	7003.574011	48240.033389	3912.753899	25081.195024
44.535500	-0.000199	0.000032	0.002191	0.001257	6995.324282	48170.679351	3908.288096	25111.323512
45.035500	-0.000830	-0.000644	0.004379	0.000616	6995.423988	48167.048966	3916.442534	25144.448175
45.536000	-0.001188	-0.000007	0.002276	0.001848	6979.695104	48104.840908	3906.837664	25080.832849
46.036000	0.003727	0.000175	0.005611	-0.001849	7065.614722	48511.906168	3927.178453	25272.302875
46.560000	-0.000413	-0.000447	-0.002024	-0.001043	7016.056217	48361.502292	3902.798161	25230.398847
47.036500	0.001611	0.000508	0.002438	-0.001864	7044.495277	48548.527030	3918.002360	25273.076101
47.537000	-0.002516	-0.000667	-0.000820	0.002478	6960.389789	47970.310687	3896.191757	25048.371583
48.037000	0.004892	0.001137	-0.000388	-0.000982	7068.610653	48521.787617	3907.311301	25227.222241
48.537500	0.000483	0.000812	-0.000064	0.001535	6999.336248	48223.160960	3901.033526	25096.972311
49.035000	-0.000846	0.000487	-0.000253	0.000380	6997.607200	48310.251600	3903.797730	25156.667768
49.535000	-0.001478	0.000107	-0.002088	0.002574	6969.658568	48040.912946	3892.316266	25043.394834
50.038000	0.001257	0.000295	0.004550	-0.001129	7033.583865	48448.579566	3921.994457	25234.872285
50.535500	-0.001843	0.000261	0.002586	0.001150	6980.109987	48205.795350	3909.730421	25116.845200
51.036000	0.002310	0.000419	0.005799	-0.001494	7047.792748	48500.069101	3926.689943	25253.815444
51.536500	-0.001058	0.000557	-0.001002	0.001508	6984.334854	48199.308994	3898.433179	25098.354096
52.036500	0.001842	0.000507	0.005026	-0.001723	7045.398216	48533.541516	3925.106225	25265.757844
52.537000	-0.001934	0.000442	0.000316	0.001940	6971.419287	48142.200936	3900.964550	25076.104505
53.037000	-0.010085	-0.010421	0.007656	0.126807	5841.800222	35955.400923	3606.902704	19481.120486
53.535000	-0.021719	-0.019732	0.001813	0.061073	6259.964753	40563.812014	3746.818427	22225.815852
54.035000	-0.027660	-0.022276	0.001012	-0.046809	7204.532959	50946.783206	4050.522411	27735.951148
54.535500	-0.022023	-0.024688	-0.003759	-0.109438	7973.028168	58116.846269	4248.583597	31621.962864
55.035500	-0.027559	-0.024247	-0.005826	-0.103388	7833.955134	57406.154292	4219.179191	31221.664099
55.536000	-0.016764	-0.018629	-0.007083	-0.109074	8032.921241	58847.811115	4235.154550	31597.709846
56.036000	-0.003750	-0.023745	-0.006002	-0.134928	8533.182411	61592.163173	4335.895246	33371.199412
56.537000	0.000126	-0.024225	-0.001580	-0.139114	8642.660671	62096.368302	4369.428788	33668.369570
57.037000	0.004982	-0.013372	-0.001185	-0.108710	8302.564657	59483.392304	4255.342154	31573.453009
57.537000	0.000570	-0.011575	-0.001945	-0.097201	8100.517192	58228.522016	4210.925051	30817.957042
58.034500	0.000875	-0.012274	-0.001163	-0.093375	8056.830140	57653.363722	4200.096196	30571.210676
58.534500	0.000627	-0.008551	0.002004	-0.068651	7756.933139	55061.059582	4125.551226	29028.055969
59.035000	0.000024	-0.008537	-0.003082	-0.056106	7605.820056	53572.926650	4067.272838	28277.977166
59.540500	0.002422	-0.007123	0.003416	-0.045597	7514.860282	52519.524180	4054.345383	27666.149166
60.035500	-0.000332	-0.006561	0.000375	-0.036920	7389.521020	51597.920690	4017.243633	27171.992495
60.536000	0.001835	-0.005744	0.005928	-0.028332	7320.537087	50731.445599	4007.794358	26692.520342
61.036500	0.003808	-0.004710	0.005698	-0.022328	7277.752381	50185.302791	3988.597614	26362.898237
61.536500	0.002063	-0.004616	0.007906	-0.019542	7230.131577	49892.050134	3986.830947	26211.494946
62.036500	0.006248	-0.002398	0.007713	-0.013050	7206.086706	49430.319479	3966.575504	25862.437748
62.537500	0.003935	-0.002446	0.016075	-0.010869	7159.585497	49191.290876	3985.294257	25746.340754
63.037500	0.007777	-0.000338	0.013186	-0.007416	7163.593313	49047.647870	3966.091350	25563.703542
63.535000	0.010921	-0.000287	0.015505	-0.007725	7199.304754	49085.992061	3974.011594	25579.966933
64.035500	0.011282	0.000123	0.016667	-0.011768	7245.259407	49563.651339	3989.844734	25794.086410
64.549000	0.013108	0.000171	0.016295	-0.013036	7277.836623	49705.760112	3992.591879	25861.646146
65.035500	0.011485	0.001041	0.014662	-0.008750	7215.829312	49337.790805	3974.561643	25634.046187
65.558500	0.014568	0.002123	0.015343	-0.010128	7262.567435	49602.566658	3980.805543	25706.999113
66.042500	0.016486	0.003148	0.019422	-0.010789	7289.806808	49784.775175	3995.292599	25742.067225
66.536000	0.018904	0.004149	0.019635	-0.009168	7298.243351	49717.605931	3990.973303	25656.147088
67.037000	0.018687	0.004390	0.025076	-0.007978	7283.335438	49615.057965	4004.057110	25593.286787
67.536000	0.018116	0.004677	0.024258	-0.001921	7213.768238	48996.493603	3982.958314	25276.022043
68.035000	0.021806	0.005548	0.019994	-0.005787	7293.171376	49503.797046	3981.749804	25478.046698
68.538000	0.020231	0.005659	0.023488	-0.004581	7263.786292	49386.037594	3988.727663	25414.810572
69.041000	0.022680	0.006175	0.029305	-0.003580	7279.063978	49333.976929	4003.535998	25362.489233
69.536000	0.022457	0.007172	0.025607	0.000472	7234.105202	49007.282529	3979.785833	25151.898876
70.036000	0.024705	0.007437	0.026785	-0.001202	7275.329391	49214.340614	3988.475224	25238.644549
70.536000	0.024543	0.008190	0.027567	0.000534	7255.335223	49109.281412	3985.563910	25148.691711
71.037000	0.026159	0.008969	0.029116	0.001327	7263.995636	49107.863268	3987.873327	25107.722645
71.537000	0.026514	0.009751	0.028733	0.004272	7236.801273	48877.422374	3977.741405	24956.176864
72.037000	0.026997	0.010373	0.030054	0.004520	7239.255045	48917.157846	3980.996753	24943.458833
72.537500	0.026004	0.010495	0.031822	0.006296	7210.343936	48741.594182	3980.973755	24852.608390
73.035000	0.027965	0.011101	0.033729	0.007069	7222.732414	48723.966565	3984.427973	24813.223192
73.538000	0.027255	0.010737	0.033116	0.009394	7191.167874	48440.153852	3975.501102	24695.070277
74.035500	0.029288	0.011890	0.032279	0.010090	7205.038209	48488.283049	3970.867672	24659.821619
74.539000	0.029238	0.011328	0.034731	0.011428	7190.622059	48288.421628	3974.229934	24592.188724
75.036500	0.027143	0.012270	0.031483	0.012905	7153.766367	48232.433176	3960.021465	24517.858532
75.536500	0.027678	0.011246	0.031528	0.013785	7150.221706	48033.484432	3957.525864	24473.663955
76.036500	0.029979	0.012457	0.033621	0.016081	7150.266124	47920.351192	3956.915705	24358.737604
76.536500	0.028197	0.012424	0.032470	0.017581	7116.685867	47761.192156	3949.027684	24284.018559
77.037000	0.028927	0.012481	0.030629	0.018356	7116.230124	47686.750386	3941.290680	24245.507204
77.537500	0.031028	0.012906	0.035213	0.020422	7116.591102	47517.320452	3948.739250	24143.199046
78.035000	0.030215	0.013339	0.034005	0.022045	7091.830056	47394.759904	3940.371585	24063.168394
78.538500	0.029531	0.013366	0.030719	0.023529	7069.903178	47245.192917	3926.391147	23990.242817
79.035500	0.029159	0.014403	0.034326	0.025037	7050.977814	47196.883433	3932.521503	23916.355587
79.536000	0.031831	0.014392	0.033877	0.026563	7062.502336	47039.888940	3926.751706	23841.905913
80.036500	0.030824	0.014408	0.034450	0.027749	7040.488202	46920.697886	3924.967155	23784.231304
80.536500	0.031596	0.014749	0.035353	0.029996	7025.731281	46727.222277	3921.060111	23675.334887
81.036500	0.031418	0.016086	0.033862	0.031493	7009.039080	46710.996306	3912.417835	23603.113316
81.537500	0.029039	0.015007	0.035141	0.032356	6976.918053	46514.836443	3913.617927	23561.595553
82.059000	0.031668	0.015587	0.032373	0.034754	6979.203589	46331.974015	3898.802311	23446.635306
82.537500	0.033854	0.016647	0.036752	0.035684	6991.617314	46345.009131	3908.674201	23402.207087
83.037500	0.032621	0.015973	0.035818	0.035531	6980.932094	46292.729617	3906.431574	23409.502965
83.535000	0.031884	0.016473	0.040857	0.038109	6948.308632	46084.793223	3913.511770	23286.862529
84.035500	0.036278	0.017916	0.039613	0.038953	6983.257058	46144.602674	3907.501685	23246.838030
84.535500	0.033082	0.016948	0.038322	0.039862	6942.864413	45957.386754	3901.200396	23203.847908
85.036000	0.034381	0.017868	0.040733	0.040340	6950.912210	46001.457426	3906.736912	23181.302206
85.539000	0.033141	0.017223	0.037870	0.041421	6928.195192	45829.785843	3895.469588	23130.327939
86.034000	0.033956	0.017368	0.040857	0.041575	6934.661622	45828.970103	3903.551969	23123.098783
86.534000	0.033110	0.018212	0.039821	0.043213	6910.447528	45750.264032	3895.921345	23046.136260
87.034500	0.035387	0.017035	0.041201	0.042684	6937.804543	45686.136649	3901.364701	23070.979728
87.534500	0.034795	0.018337	0.039246	0.045301	6906.532748	45556.256333	3888.372178	22948.492075
88.040500	0.036462	0.018719	0.041887	0.045280	6922.958242	45596.072427	3895.921587	22949.481370
88.536000	0.034622	0.018448	0.034098	0.045902	6899.020885	45507.969646	3872.228141	22920.463608
89.036500	0.034390	0.018493	0.045108	0.046261	6893.297212	45477.118149	3902.307172	22903.750690
89.535500	0.037015	0.019509	0.043092	0.047928	6902.580862	45413.089918	3891.824004	22826.289137
90.036500	0.036920	0.018688	0.041898	0.047502	6905.787718	45374.209096	3889.648304	22846.040887
90.537000	0.033656	0.018760	0.043301	0.048272	6866.815961	45305.832885	3891.440739	22810.350852
91.037500	0.034787	0.019369	0.042624	0.049460	6866.264612	45249.019409	3886.167490	22755.358052
91.534500	0.035164	0.019024	0.041450	0.049326	6871.187325	45228.482720	3883.237242	22761.574153
92.035000	0.036382	0.019089	0.043103	0.050099	6875.470247	45159.171840	3885.713546	22725.843088
92.538000	0.036168	0.019735	0.043115	0.051769	6857.348363	45059.286522	3881.048339	22648.938145
93.035500	0.037576	0.020037	0.041003	0.051968	6868.960980	45069.318540	3874.570470	22639.780998
93.541500	0.034966	0.019123	0.043466	0.051718	6846.322176	45004.648464	3882.177872	22651.285937
94.041000	0.037221	0.019419	0.048252	0.052136	6863.935053	44992.776828	3894.525464	22632.076568
94.542000	0.034768	0.019200	0.043511	0.051876	6842.915562	44996.776520	3881.860364	22644.021465
95.037000	0.037935	0.020085	0.043776	0.053390	6858.751860	44935.640406	3878.354005	22574.577151
95.542500	0.036997	0.019938	0.046470	0.053440	6849.279617	44916.503092	3885.788374	22572.267585
96.056500	0.036813	0.019373	0.047131	0.054848	6834.051982	44725.296470	3883.681357	22507.894292
96.534500	0.036495	0.020049	0.042394	0.054585	6833.539320	44816.198386	3871.150817	22519.928740
97.043000	0.038136	0.020364	0.042617	0.054653	6848.569717	44840.119493	3871.582229	22516.820599
97.535500	0.037969	0.020345	0.044984	0.054713	6846.390903	44832.458214	3878.030403	22514.061695
98.036000	0.038355	0.019586	0.040812	0.054960	6847.722065	44735.063312	3865.705517	22502.772824
98.541500	0.039344	0.019597	0.048773	0.055331	6853.650190	44700.360420	3886.953677	22485.891336
99.036000	0.037777	0.020736	0.041580	0.056831	6824.347272	44665.449519	3862.649040	22417.595737
99.542000	0.037960	0.019487	0.041578	0.055946	6834.528329	44630.246361	3865.095736	22457.851496
