sample name	sample
index	164
start time	 02-18-2021  10:04:42 AM
880	-0.002909
Peak Time (s)	92.537
Peak Height 	-0.002909
calc peak height	90,93
Baseline Time (s)	9.044
Baseline Value 	-0.005028
subtract baseline	10,4
Abs	-0.010878
Peak Time (s)	92.537
Peak Height 	-0.01088
calc peak height	90,93
Baseline Time (s)	11.038
Baseline Value 	1.7534E-4
subtract baseline	10,3
PK_550	0.000964
Peak Time (s)	91.037
Peak Height 	9.64E-4
calc peak height	90,93
Baseline Time (s)	11.038
Baseline Value 	7.1115E-4
subtract baseline	10,2
PK_880	-0.011655
Peak Time (s)	91.037
Peak Height 	-0.01166
calc peak height	90,93
Baseline Time (s)	8.536
Baseline Value 	0.001779
subtract baseline	10,1


Time (s)	A880-A510	A880-A775	A880-A975	A880	I510	I775	I975	I880	
0.036500	-0.001247	-0.001180	-0.002612	-0.000259	6654.481706	43978.216341	3744.334239	23040.920338
0.536500	-0.002847	-0.001564	-0.002204	0.004158	6599.933392	43524.613357	3734.265647	22834.812239
1.037000	-0.001179	-0.000174	-0.005250	0.003427	6621.596775	43724.429074	3728.494869	22868.778469
1.564000	0.002600	0.000185	0.003347	-0.000882	6695.495069	44167.594166	3761.066488	23070.155070
2.035500	0.001760	0.000536	-0.000347	-0.000971	6688.571364	44209.529941	3751.870410	23074.311760
2.535500	-0.000653	-0.000554	-0.001875	0.002872	6631.392988	43740.906689	3738.311537	22894.614302
3.038500	0.001190	-0.000477	0.000245	-0.002588	6698.222416	44267.287625	3757.495440	23150.416623
3.538500	-0.001105	-0.000959	0.006495	-0.000546	6658.398611	44026.559736	3768.293190	23054.377930
4.036500	-0.001245	0.000372	0.002486	0.000550	6647.115696	44048.853903	3755.206972	23002.982410
4.541500	0.001116	-0.000237	-0.008042	-0.000020	6673.921709	44045.151666	3730.125167	23029.708416
5.036500	-0.001175	-0.000003	-0.002469	0.000361	6649.482213	44031.232804	3743.130842	23011.856918
5.538000	0.000673	0.000015	0.001398	0.000119	6668.584904	44055.917411	3753.535722	23023.186787
6.042000	-0.001378	-0.000406	0.001426	-0.000601	6656.408389	44084.420985	3755.440632	23056.948863
6.537500	0.002232	0.000059	0.002092	-0.000240	6686.187802	44094.271032	3756.217059	23039.991419
7.035500	-0.001171	-0.000696	0.000541	-0.000964	6661.622216	44091.401162	3754.110111	23073.995012
7.535500	0.001527	0.000893	0.003881	0.000903	6669.224595	44064.822920	3757.864709	22986.482009
8.038500	-0.000468	-0.000140	0.000400	-0.000546	6664.229253	44104.512396	3752.689510	23054.369085
8.536000	0.000000	0.000348	0.000363	0.000545	6658.524157	44047.037337	3749.824399	23003.215083
9.044500	0.000311	0.000157	-0.003454	0.000000	6666.357867	44080.766760	3741.560275	23028.761839
9.537000	-0.000027	-0.000326	-0.000100	0.000089	6662.450252	44026.355188	3749.806755	23024.609419
10.034500	0.001366	-0.000033	-0.003684	-0.000168	6677.564940	44078.637338	3741.401219	23036.620581
10.540500	0.000654	-0.000077	0.003163	-0.000357	6672.768663	44092.462578	3759.250762	23045.493286
11.038000	-0.000463	0.000000	0.000000	-0.000503	6663.874352	44113.758482	3751.562972	23052.356813
11.535500	-0.002145	0.000049	0.000570	0.002489	6621.348052	43834.209593	3745.428845	22912.460172
12.035500	-0.000024	-0.000091	0.001696	-0.000455	6667.459972	44100.548628	3755.754766	23050.100947
12.549500	0.001160	0.000555	0.000760	-0.000300	6676.892837	44147.316170	3752.978099	23042.847274
13.039000	0.001836	0.000175	0.007585	-0.002426	6702.698525	44314.202018	3775.974972	23142.782550
13.550500	-0.002542	-0.001007	0.002751	0.003109	6612.150471	43675.807485	3749.379164	22883.593451
14.068000	0.002396	0.000781	0.001005	-0.001659	6700.777030	44298.782120	3757.061842	23106.639954
14.537000	0.000150	-0.000394	0.001082	0.001145	6654.422614	43919.557789	3750.124934	22975.169499
15.034500	0.000491	0.000281	0.003967	-0.000156	6669.436212	44107.455160	3760.796318	23036.093599
15.550000	-0.002084	-0.000352	0.004224	0.004144	6606.937188	43640.000001	3750.488954	22835.481502
16.038000	0.002059	0.000488	0.008524	-0.002172	6702.409140	44319.818160	3777.753206	23130.807751
16.538000	0.001196	0.000162	0.002014	-0.002268	6695.332367	44297.858566	3761.203837	23135.355220
17.035000	-0.000908	0.000075	0.003695	-0.002391	6677.098178	44301.210647	3765.830726	23141.107991
17.535500	-0.000942	0.000536	0.001764	0.003625	6621.943474	43772.804257	3745.574233	22859.576085
18.036000	0.002644	0.001051	-0.000212	-0.003075	6716.184859	44460.530047	3757.571628	23173.396807
18.536000	-0.000083	0.000606	0.000651	0.001904	6645.369256	43942.416273	3747.111440	22939.719148
19.039500	0.000960	-0.000423	0.008587	0.000135	6671.059675	44012.653691	3771.935537	23022.417655
19.549000	-0.000487	0.000479	-0.000004	0.001903	6641.698307	43930.383282	3745.458006	22939.749981
20.036500	0.001089	0.000544	0.003328	0.000944	6664.839842	44027.756339	3756.351172	22984.577007
20.546500	-0.002427	-0.001003	0.001151	-0.000536	6646.248035	44021.382905	3754.571801	23053.887373
21.035000	0.000033	0.000208	0.002423	0.000483	6659.393203	44039.615085	3755.217800	23006.131429
21.535000	-0.000181	-0.000054	0.004675	0.001004	6652.680472	43965.182086	3759.636643	22981.758545
22.038500	-0.000799	-0.000341	0.002988	0.000173	6654.630524	44016.927239	3757.449978	23020.662030
22.535500	0.000528	-0.000412	0.002110	0.000365	6665.007337	43991.971231	3754.722749	23011.675982
23.036000	-0.000545	-0.000232	0.004613	0.000280	6655.971964	44017.114118	3761.332010	23015.635644
23.539500	0.001932	0.000175	0.005803	0.000619	6675.537711	44023.564640	3763.513855	22999.770732
24.036500	0.000365	0.000361	0.009022	0.000658	6660.832372	44037.525306	3771.707972	22997.931032
24.534000	0.002198	0.000555	0.002776	0.001052	6674.005456	44018.522996	3754.667372	22979.499426
25.034500	0.002585	0.000348	0.001990	0.001019	6677.863416	44001.997353	3752.749621	22981.043343
25.535000	0.001738	-0.000368	0.008762	0.000111	6678.422325	44020.246874	3772.448921	23023.546581
26.061000	0.000406	0.000294	0.004880	0.000682	6660.987465	44028.877832	3760.985566	22996.806949
26.535500	0.000776	0.000172	0.005133	0.000666	6664.515278	44018.791120	3761.675063	22997.549487
27.035000	0.000164	0.000370	0.005544	0.000749	6658.164365	44029.735156	3762.514820	22993.679041
27.536000	0.000540	0.000025	0.004572	0.000745	6661.638125	43997.318919	3760.035521	22993.865331
28.036000	0.000456	0.001103	-0.000561	0.000535	6662.789441	44120.003010	3747.510472	23003.713698
28.536500	0.001627	0.000390	0.002626	0.002364	6656.774160	43878.332267	3750.950644	22918.276565
29.045000	0.001976	0.000241	0.002374	-0.002164	6701.572062	44295.452268	3761.857788	23130.456802
29.567500	0.001364	0.000426	0.005685	-0.002001	6694.417076	44297.487866	3769.956023	23122.745994
30.037000	0.001863	0.000542	0.003636	-0.002114	6700.062683	44319.426842	3764.966319	23128.059013
30.535000	-0.001866	0.000183	0.002278	0.004051	6609.744230	43699.150945	3745.796773	22839.784926
31.035500	0.001832	0.001162	0.006297	-0.001220	6691.531227	44293.233674	3769.519051	23086.026542
31.542000	-0.002643	-0.000338	0.003774	0.003796	6605.035951	43674.085604	3750.231022	22851.625020
32.036500	0.000278	0.000902	0.007859	0.002121	6646.682977	43949.917352	3764.937469	22929.594703
32.535500	-0.000143	0.000451	0.002964	0.002914	6635.647007	43832.031483	3750.413592	22892.666370
33.064500	0.002243	0.000218	0.003962	-0.001763	6700.326425	44254.802452	3764.904487	23111.538372
33.536500	0.002974	0.000034	0.008129	-0.002100	6710.204953	44269.514900	3776.538689	23127.403108
34.037500	0.002104	0.000550	0.003864	-0.001763	6699.046647	44286.592170	3764.650085	23111.534821
34.534500	-0.002746	0.000000	0.000966	0.004357	6599.059554	43653.122916	3741.718125	22825.604379
35.035000	0.000965	0.000744	0.008848	-0.002049	6691.185713	44332.645578	3778.276505	23125.020359
35.534500	-0.001499	0.000009	0.005477	0.002598	6626.203520	43819.976758	3757.612201	22907.344723
36.038000	0.000663	0.000453	0.004916	0.001234	6658.287442	43991.531573	3759.663910	22970.996595
36.535500	-0.000127	-0.000097	0.006736	0.001312	6650.371269	43931.959319	3764.131967	22967.382200
37.035500	-0.000408	0.000255	0.005213	0.001164	6649.155277	43979.408530	3760.605021	22974.286635
37.536000	-0.003163	-0.000462	0.003760	0.001419	6621.815456	43887.096948	3756.241176	22962.375969
38.036000	0.000990	0.000459	0.005907	0.001233	6661.286238	43992.195793	3762.207451	22971.066021
38.537000	-0.000446	-0.000561	0.006055	0.001080	6649.576978	43909.912164	3762.976958	22978.204305
39.036500	-0.000852	0.000001	0.002862	0.001122	6645.495890	43959.198632	3754.707343	22976.245786
39.534500	-0.000200	-0.000657	0.004231	0.000950	6653.002170	43913.149381	3758.640603	22984.288625
40.034500	0.000273	0.000018	0.009417	0.001786	6649.692594	43897.804740	3769.814182	22945.233137
40.535000	-0.002038	-0.000237	0.004554	0.001001	6635.804521	43948.154491	3759.336039	22981.901996
41.035000	0.000289	0.000140	0.004627	0.001514	6652.316875	43935.236033	3758.210551	22957.936007
41.535500	0.001191	0.000191	0.006497	0.001289	6662.615721	43961.394852	3763.575240	22968.431016
42.035500	0.000170	0.000511	0.004745	0.001335	6652.870744	43987.448145	3758.971865	22966.312802
42.536500	0.000206	0.000548	0.005086	0.001738	6649.527669	43952.719801	3758.812138	22947.491446
43.036500	-0.000857	-0.000746	0.003667	0.000685	6649.428555	43929.828359	3757.876811	22996.680370
43.536500	0.001092	0.000628	0.001830	0.002721	6648.633524	43867.008047	3748.027006	22901.631117
44.034500	0.000889	0.000866	0.004167	0.001923	6654.057090	43965.302863	3755.993091	22938.830326
44.534500	-0.001421	0.000449	0.005158	0.001316	6638.553656	43983.377810	3760.077144	22967.201112
45.035000	0.000737	0.000463	0.001959	0.001299	6658.368175	43986.272856	3751.961179	22967.965944
45.535500	-0.001880	-0.000175	0.001152	0.003122	6618.014612	43753.157283	3745.302324	22882.990337
46.035000	0.002534	0.000103	0.008525	-0.001716	6702.584836	44239.384861	3776.573030	23109.363633
46.551000	0.001814	-0.000227	0.000033	0.000128	6678.967942	44032.018900	3750.044391	23022.769360
47.036000	0.001333	0.000420	0.005997	-0.001811	6692.376210	44278.785541	3770.270604	23113.815235
47.536000	-0.003500	0.000303	0.001162	0.004134	6594.278594	43702.717993	3742.774792	22835.951301
48.036500	0.004093	0.000370	0.005382	-0.001531	6715.304351	44247.223113	3767.962307	23100.657306
48.538000	-0.001973	-0.000220	0.006199	0.000632	6639.751466	43984.778247	3764.498397	22999.168787
49.072500	0.000460	0.000387	0.006186	-0.000640	6673.585089	44163.724699	3767.736462	23058.766903
49.534500	-0.001758	-0.000270	0.003912	0.003434	6616.298163	43714.661243	3751.499333	22868.470084
50.035000	0.000351	0.000050	0.004116	-0.001232	6678.015891	44188.075539	3763.935128	23086.569915
50.535500	-0.000232	-0.000350	0.005983	0.001816	6644.822403	43860.160183	3760.906830	22943.831142
51.035500	0.002225	0.000901	0.007629	-0.001257	6695.491858	44271.776122	3773.057273	23087.740534
51.536000	-0.000910	-0.000513	-0.000569	0.004176	6617.248534	43621.754802	3738.314171	22833.973139
52.038500	0.002445	0.000470	0.008276	-0.002090	6705.219147	44310.252844	3776.894893	23126.934631
52.536000	-0.001769	-0.000581	0.001895	0.002383	6625.703951	43784.618032	3749.047834	22917.390423
53.036500	0.001594	-0.000201	0.001967	-0.002963	6705.417867	44329.639440	3762.862538	23168.099337
53.534000	-0.014704	-0.009570	0.008954	0.122514	5587.105630	33222.548832	3496.810267	18025.745892
54.034500	-0.024835	-0.012327	-0.006258	0.090847	5734.383925	35322.320624	3529.563939	19186.903281
54.535000	-0.040603	-0.025100	-0.020343	-0.097362	7218.255959	51551.377820	3964.049022	28143.767184
55.038000	-0.016846	-0.023932	0.001162	-0.144117	8016.471933	57248.646514	4187.929968	31038.700271
55.535500	-0.031046	-0.020448	-0.012333	-0.113470	7493.912284	53942.401882	4039.162287	29106.119076
56.036000	-0.029597	-0.022680	-0.020441	-0.157880	8028.899393	59166.881809	4160.390054	31951.927914
56.539000	-0.016517	-0.027098	-0.015190	-0.183984	8532.986161	62057.404003	4273.573739	33765.702208
57.039000	-0.005793	-0.024067	-0.011731	-0.181718	8647.891840	62162.034277	4278.040231	33603.898271
57.536500	-0.007578	-0.013492	-0.012112	-0.142333	8109.062087	58346.518994	4135.474138	30922.430705
58.034000	-0.009749	-0.010398	-0.013932	-0.115802	7762.513379	55424.002827	4041.514308	29248.455436
58.537000	-0.006859	-0.006048	-0.013238	-0.078042	7371.171807	51521.227970	3927.566073	27035.568662
59.034500	-0.012749	-0.005548	-0.016606	-0.048500	7004.431248	48364.290568	3834.232170	25433.562952
59.535500	-0.011410	-0.004734	-0.007927	-0.040321	6937.016726	47596.718960	3835.598530	25008.970262
60.035000	-0.013404	-0.005404	-0.015859	-0.010653	6638.427368	44568.683022	3737.159833	23534.228047
60.535500	-0.016123	-0.005641	-0.015832	0.000247	6516.531035	43508.976349	3710.245088	23017.169006
61.035500	-0.014508	-0.004518	-0.014252	0.008262	6460.559757	42866.794233	3694.633059	22645.214043
61.536500	-0.016089	-0.005044	-0.014056	0.014985	6389.146066	42202.153411	3679.027727	22338.435286
62.036500	-0.018047	-0.004548	-0.015034	0.019595	6333.628011	41829.915171	3665.856990	22130.809736
62.540000	-0.018873	-0.006557	-0.012685	0.015948	6357.373318	41977.682236	3679.995502	22294.869631
63.034000	-0.018869	-0.005853	-0.016025	0.010732	6401.716168	42516.470305	3684.460342	22531.933318
63.535000	-0.018642	-0.005232	-0.010643	0.002941	6470.875847	43294.959436	3716.363206	22891.394620
64.040500	-0.015694	-0.004055	-0.009999	-0.007510	6589.337601	44396.040662	3743.990428	23383.775907
64.559000	-0.016111	-0.003783	-0.012767	-0.008935	6598.400000	44559.218873	3740.609093	23451.852787
65.035500	-0.018905	-0.003736	-0.018026	-0.003427	6524.390537	44036.327055	3713.867382	23189.985942
65.536000	-0.019290	-0.004436	-0.021237	-0.000234	6492.940229	43667.702831	3698.276991	23039.741331
66.052500	-0.016714	-0.003490	-0.010479	-0.000685	6519.543172	43799.702259	3725.722694	23060.913848
66.536000	-0.017907	-0.003418	-0.014438	-0.000489	6507.312308	43787.895644	3715.465749	23051.701268
67.047000	-0.018566	-0.003710	-0.011207	-0.000868	6504.853644	43796.213306	3724.370311	23069.504665
67.536500	-0.024588	-0.004801	-0.019401	0.003174	6417.471832	43313.502038	3694.485951	22880.556209
68.034500	-0.018980	-0.003843	-0.013882	-0.003522	6524.574978	44035.336594	3724.317034	23194.506939
68.537500	-0.016815	-0.003036	-0.010742	-0.003681	6545.153154	44127.301079	3732.520239	23202.028303
69.043500	-0.017352	-0.003575	-0.015039	-0.005685	6558.195305	44267.239321	3726.813393	23296.959784
69.538000	-0.021195	-0.003431	-0.017683	-0.001472	6487.104201	43879.706557	3709.922623	23097.878788
70.043000	-0.017373	-0.002549	-0.014973	-0.006528	6565.514772	44446.342934	3729.071202	23336.995808
70.535500	-0.019528	-0.002605	-0.014053	-0.006769	6548.484766	44464.237117	3731.964562	23348.511455
71.036000	-0.014548	-0.001593	-0.016218	-0.006617	6591.610587	44546.929258	3726.199343	23341.268636
71.536000	-0.020659	-0.002749	-0.021419	-0.002654	6502.153769	44056.737767	3703.700069	23153.524429
72.037000	-0.016642	-0.001929	-0.017161	-0.007507	6580.812864	44600.356613	3726.068983	23383.667614
72.533500	-0.017218	-0.002126	-0.015685	-0.007330	6574.068413	44564.245245	3729.296307	23375.211349
73.034000	-0.016059	-0.001309	-0.011487	-0.007354	6584.669342	44645.388376	3739.852582	23376.366564
73.539500	-0.018960	-0.002094	-0.014220	-0.002257	6513.597260	44081.400895	3720.354322	23134.824749
74.035000	-0.014786	-0.001113	-0.010581	-0.007782	6599.948016	44705.689066	3743.208906	23396.766825
74.537500	-0.016568	-0.001306	-0.015437	-0.007255	6579.213562	44636.118705	3729.724482	23371.626039
75.036000	-0.015623	-0.001223	-0.012808	-0.007701	6591.689295	44687.244591	3737.408296	23392.906971
75.537000	-0.014880	-0.000604	-0.010240	-0.007319	6594.932219	44710.142296	3742.900711	23374.678411
76.045000	-0.015401	-0.001317	-0.012331	-0.008066	6596.968588	44713.421757	3739.519668	23410.329640
76.537500	-0.015473	-0.000835	-0.015488	-0.007305	6589.472634	44686.374156	3729.722227	23373.995041
77.036500	-0.014246	-0.000421	-0.016560	-0.007921	6606.057915	44786.089295	3728.588184	23403.385077
77.538000	-0.017464	-0.000831	-0.014090	-0.003592	6538.604657	44329.557976	3723.975944	23197.795115
78.038500	-0.015394	-0.000339	-0.013762	-0.007388	6590.937842	44742.463042	3734.237468	23377.987308
78.535500	-0.013241	-0.000293	-0.015336	-0.007205	6608.675081	44729.226253	3729.853569	23369.270303
79.035000	-0.014973	0.000084	-0.018260	-0.007209	6593.109492	44766.069754	3722.607776	23369.446305
79.536000	-0.014410	-0.000282	-0.017876	-0.007472	6600.541165	44756.089648	3724.209225	23381.981025
80.078000	-0.015169	-0.000622	-0.016537	-0.006952	6589.035913	44672.924157	3726.238177	23357.185354
80.549500	-0.013365	-0.000426	-0.017437	-0.007329	6608.675328	44728.301160	3724.942445	23375.178141
81.036500	-0.013761	0.000592	-0.012888	-0.006420	6596.908260	44738.878104	3733.999832	23331.868803
81.536500	-0.016666	-0.000061	-0.018339	-0.001419	6526.440246	44195.375274	3708.194119	23095.397138
82.036500	-0.012806	0.000753	-0.013306	-0.005516	6597.364597	44667.003546	3730.700606	23288.905994
82.549000	-0.012875	-0.000094	-0.016665	-0.006377	6604.505304	44668.366117	3724.496609	23329.840378
83.037000	-0.012748	0.000273	-0.013333	-0.006105	6603.199093	44677.627749	3732.104837	23316.925501
83.535000	-0.017068	-0.000739	-0.016916	-0.001277	6521.637794	44117.060868	3711.321741	23088.710636
84.035000	-0.013439	0.000348	-0.011620	-0.005129	6588.204220	44590.571002	3733.942200	23270.566679
84.537500	-0.016136	0.000698	-0.014810	-0.005048	6563.352905	44616.486343	3725.798211	23266.713203
85.035500	-0.016300	-0.000382	-0.015426	-0.005779	6568.415493	44582.883337	3726.085216	23301.414364
85.541500	-0.018464	-0.000965	-0.014125	-0.000762	6504.816785	44046.560399	3716.906335	23064.524754
86.041000	-0.012745	-0.000045	-0.015035	-0.004892	6592.310903	44529.905692	3724.855895	23259.339238
86.548000	-0.012811	0.000420	-0.015837	-0.004681	6589.819136	44554.381283	3722.348037	23249.334299
87.037000	-0.013417	-0.000855	-0.014273	-0.005736	6593.857832	44533.231333	3728.843861	23299.381425
87.537000	-0.017114	-0.000088	-0.014725	0.000877	6502.273238	43974.097225	3711.411596	22987.709184
88.037500	-0.012511	0.000234	-0.011285	-0.004451	6590.451119	44514.268996	3733.087124	23238.436177
88.549000	-0.015629	0.000670	-0.010331	-0.003890	6557.551760	44502.265320	3734.067000	23211.875135
89.035500	-0.013081	0.000806	-0.011054	-0.003857	6580.008099	44512.135618	3732.179441	23210.319304
89.541000	-0.014729	0.000387	-0.014275	-0.000725	6537.425326	44171.750159	3716.444575	23062.746933
90.039500	-0.013383	0.000706	-0.013359	-0.003412	6573.322246	44459.798316	3725.339825	23189.297425
90.536500	-0.014154	-0.000824	-0.015252	-0.004885	6579.605322	44454.251133	3724.299770	23258.983263
91.036500	-0.011655	0.000964	-0.013307	-0.002964	6584.787082	44441.533744	3724.361670	23168.163799
91.534000	-0.013844	0.000785	-0.010975	-0.003019	6565.695706	44429.566708	3730.287596	23170.730128
92.034500	-0.013170	0.000204	-0.015072	-0.003399	6575.119429	44410.302172	3721.072446	23188.704508
92.537000	-0.013137	0.000816	-0.010878	-0.002909	6571.025791	44421.982627	3730.255149	23165.555960
93.035000	-0.014231	0.000395	-0.010522	-0.003182	6563.701828	44407.856652	3731.825337	23178.451254
93.540000	-0.013436	-0.000160	-0.013711	-0.003293	6571.788312	44365.177373	3724.175193	23183.684895
94.044500	-0.013375	0.000002	-0.010828	-0.000117	6544.047788	44077.138151	3723.446259	23034.222616
94.536500	-0.010591	-0.000275	-0.016260	-0.002452	6589.746209	44273.595343	3715.811212	23144.015913
95.038500	-0.015019	-0.000148	-0.012630	-0.002695	6552.339416	44309.005833	3725.370260	23155.449563
95.540000	-0.017269	0.000303	-0.016833	0.003420	6478.668548	43770.056245	3700.090237	22869.095041
96.114000	-0.016388	0.000490	-0.017312	0.004047	6480.884023	43728.552090	3697.417696	22839.973743
96.537000	-0.013307	0.000047	-0.014158	-0.002017	6561.548410	44262.763350	3719.914648	23123.502249
97.093000	-0.011851	0.000527	-0.010671	-0.001905	6573.553527	44297.981120	3728.273603	23118.234139
97.535000	-0.015215	0.000183	-0.016596	0.002509	6504.617274	43844.974093	3702.874582	22911.509355
98.035000	-0.015280	-0.000188	-0.015863	0.001139	6516.100885	43939.700818	3707.992994	22975.462937
98.535500	-0.012737	0.000852	-0.012130	-0.001341	6560.606043	44275.140214	3723.253912	23091.690481
99.038500	-0.013267	0.000345	-0.012466	-0.001775	6559.755427	44268.216782	3723.498244	23112.135383
99.536000	-0.012167	-0.000300	-0.014979	-0.002658	6577.452546	44290.869874	3719.471445	23153.697124
