sample name	sample
index	679
start time	 03-22-2021  11:52:52 AM


Wavelength (nm)	Absorbance
494.344910	NaN
494.563924	NaN
494.782919	NaN
495.001897	NaN
495.220856	0.353869
495.439797	-0.181750
495.658719	-0.247812
495.877624	-0.063556
496.096510	0.869734
496.315378	-0.007955
496.534227	-0.021595
496.753059	0.115635
496.971872	-0.140504
497.190667	-0.004910
497.409444	0.005433
497.628203	0.006818
497.846943	0.005249
498.065665	0.007167
498.284369	0.008578
498.503055	0.008931
498.721723	0.008178
498.940372	0.008609
499.159003	0.009420
499.377616	0.010518
499.596210	0.010244
499.814787	0.010680
500.033345	0.010330
500.251885	0.010456
500.470406	0.009678
500.688910	0.010244
500.907395	0.011077
501.125862	0.011272
501.344311	0.010367
501.562742	0.010950
501.781154	0.010786
501.999548	0.010922
502.217924	0.010919
502.436282	0.011455
502.654621	0.011037
502.872942	0.010301
503.091245	0.009546
503.309530	0.009869
503.527797	0.009647
503.746045	0.010262
503.964275	0.009460
504.182487	0.009525
504.400681	0.009289
504.618856	0.009175
504.837013	0.009158
505.055152	0.009476
505.273273	0.008424
505.491376	0.008469
505.709460	0.007728
505.927526	0.007608
506.145574	0.006761
506.363604	0.006688
506.581615	0.006804
506.799608	0.007128
507.017583	0.007106
507.235540	0.007352
507.453478	0.007068
507.671399	0.006714
507.889301	0.007006
508.107185	0.007318
508.325050	0.007800
508.542898	0.008305
508.760727	0.007723
508.978538	0.007952
509.196330	0.007967
509.414105	0.008364
509.631861	0.008433
509.849599	0.008776
510.067319	0.008670
510.285021	0.008194
510.502704	0.008259
510.720369	0.008348
510.938016	0.008253
511.155645	0.008600
511.373255	0.007620
511.590848	0.008221
511.808422	0.008092
512.025977	0.008063
512.243515	0.007638
512.461034	0.007564
512.678536	0.007063
512.896018	0.006660
513.113483	0.006162
513.330930	0.006945
513.548358	0.006548
513.765768	0.006934
513.983160	0.007537
514.200533	0.007639
514.417889	0.007642
514.635226	0.007809
514.852545	0.008120
515.069845	0.008583
515.287128	0.007856
515.504392	0.008046
515.721638	0.007874
515.938866	0.007398
516.156075	0.006900
516.373267	0.006946
516.590440	0.006670
516.807594	0.006646
517.024731	0.006014
517.241850	0.006694
517.458950	0.006590
517.676032	0.006122
517.893095	0.006067
518.110141	0.006699
518.327168	0.006470
518.544177	0.007161
518.761168	0.007209
518.978141	0.007363
519.195095	0.006881
519.412031	0.006963
519.628949	0.007100
519.845849	0.006961
520.062731	0.007082
520.279594	0.007110
520.496439	0.006716
520.713266	0.006339
520.930074	0.006728
521.146865	0.007122
521.363637	0.007271
521.580391	0.007421
521.797127	0.007188
522.013844	0.006122
522.230543	0.006129
522.447224	0.006109
522.663887	0.006063
522.880532	0.005622
523.097158	0.005600
523.313766	0.004952
523.530356	0.004405
523.746928	0.004558
523.963481	0.005610
524.180017	0.005214
524.396534	0.005489
524.613032	0.005709
524.829513	0.005861
525.045975	0.005509
525.262420	0.005641
525.478845	0.005907
525.695253	0.006157
525.911643	0.005790
526.128014	0.006101
526.344367	0.006171
526.560702	0.006330
526.777018	0.005727
526.993316	0.005804
527.209597	0.006016
527.425858	0.005884
527.642102	0.005681
527.858328	0.005562
528.074535	0.005200
528.290724	0.004717
528.506894	0.004946
528.723047	0.005377
528.939181	0.005662
529.155297	0.005860
529.371395	0.005451
529.587475	0.005260
529.803536	0.005251
530.019579	0.005369
530.235604	0.005596
530.451611	0.005090
530.667600	0.005226
530.883570	0.004749
531.099522	0.004386
531.315456	0.004722
531.531372	0.004876
531.747269	0.005595
531.963148	0.005450
532.179009	0.005259
532.394852	0.005104
532.610676	0.004967
532.826482	0.004960
533.042271	0.004542
533.258040	0.004798
533.473792	0.005018
533.689525	0.004319
533.905240	0.004503
534.120937	0.004955
534.336616	0.005190
534.552277	0.004641
534.767919	0.004583
534.983543	0.005231
535.199149	0.005145
535.414736	0.004931
535.630306	0.005039
535.845857	0.004920
536.061390	0.004549
536.276904	0.004370
536.492401	0.004817
536.707879	0.004486
536.923339	0.004302
537.138781	0.004001
537.354204	0.003906
537.569610	0.003923
537.784997	0.003955
538.000366	0.004234
538.215716	0.004433
538.431049	0.004402
538.646363	0.004706
538.861659	0.004354
539.076937	0.004399
539.292196	0.004181
539.507438	0.003841
539.722661	0.004048
539.937866	0.003711
540.153052	0.003501
540.368221	0.003227
540.583371	0.003353
540.798503	0.003887
541.013617	0.004211
541.228712	0.004104
541.443789	0.004754
541.658848	0.004556
541.873889	0.004646
542.088912	0.004444
542.303916	0.004898
542.518902	0.005016
542.733870	0.005094
542.948820	0.004556
543.163752	0.004904
543.378665	0.004581
543.593560	0.004420
543.808437	0.004033
544.023295	0.004145
544.238136	0.003732
544.452958	0.003639
544.667762	0.003065
544.882548	0.003226
545.097315	0.003137
545.312064	0.003030
545.526795	0.003162
545.741508	0.003485
545.956203	0.003398
546.170879	0.003640
546.385537	0.003722
546.600177	0.003564
546.814799	0.003521
547.029402	0.003968
547.243988	0.003803
547.458555	0.003675
547.673103	0.003552
547.887634	0.003466
548.102146	0.003312
548.316640	0.003209
548.531116	0.003532
548.745574	0.003252
548.960013	0.002749
549.174435	0.002680
549.388838	0.002493
549.603222	0.002563
549.817589	0.002369
550.031937	0.002355
550.246267	0.002424
550.460579	0.002463
550.674873	0.002572
550.889148	0.002180
551.103405	0.002654
551.317644	0.002451
551.531865	0.002296
551.746068	0.002808
551.960252	0.002756
552.174418	0.002234
552.388566	0.002045
552.602696	0.002260
552.816807	0.002598
553.030900	0.002144
553.244975	0.002425
553.459032	0.002886
553.673070	0.002812
553.887091	0.003026
554.101093	0.003393
554.315077	0.003299
554.529042	0.003261
554.742990	0.003350
554.956919	0.003349
555.170830	0.003200
555.384722	0.002864
555.598597	0.002658
555.812453	0.002465
556.026291	0.002430
556.240111	0.002505
556.453913	0.002699
556.667696	0.002555
556.881461	0.002632
557.095208	0.002774
557.308937	0.002549
557.522647	0.002712
557.736339	0.002932
557.950013	0.003163
558.163669	0.003124
558.377307	0.003177
558.590926	0.003203
558.804527	0.003376
559.018110	0.003393
559.231675	0.003533
559.445221	0.003514
559.658749	0.003366
559.872259	0.003170
560.085751	0.003368
560.299225	0.003488
560.512680	0.003523
560.726117	0.003850
560.939536	0.003983
561.152937	0.004082
561.366319	0.003928
561.579683	0.003785
561.793029	0.004052
562.006357	0.004180
562.219667	0.003778
562.432958	0.003790
562.646231	0.003523
562.859486	0.003526
563.072723	0.003630
563.285941	0.003709
563.499141	0.003726
563.712323	0.003453
563.925487	0.003413
564.138632	0.003597
564.351760	0.003364
564.564869	0.003102
564.777960	0.003065
564.991032	0.002929
565.204087	0.002799
565.417123	0.002795
565.630141	0.002703
565.843140	0.002374
566.056122	0.002145
566.269085	0.002129
566.482030	0.002228
566.694957	0.001765
566.907866	0.001813
567.120756	0.001874
567.333628	0.001792
567.546482	0.001730
567.759318	0.001712
567.972135	0.001518
568.184935	0.001730
568.397716	0.001523
568.610478	0.001929
568.823223	0.001970
569.035949	0.001982
569.248657	0.002162
569.461347	0.002041
569.674019	0.002282
569.886672	0.002664
570.099308	0.002561
570.311925	0.002608
570.524523	0.002500
570.737104	0.002130
570.949666	0.002159
571.162210	0.002139
571.374736	0.002316
571.587244	0.002294
571.799733	0.002201
572.012205	0.002492
572.224658	0.002659
572.437092	0.002603
572.649509	0.002709
572.861907	0.003008
573.074287	0.002839
573.286649	0.003088
573.498993	0.003198
573.711318	0.003424
573.923625	0.003438
574.135914	0.003671
574.348185	0.003779
574.560438	0.003858
574.772672	0.003313
574.984888	0.003584
575.197086	0.003154
575.409266	0.002987
575.621427	0.003029
575.833570	0.002884
576.045695	0.002569
576.257802	0.002693
576.469890	0.002831
576.681961	0.002836
576.894013	0.002655
577.106046	0.002778
577.318062	0.002563
577.530059	0.002173
577.742039	0.002003
577.954000	0.002078
578.165942	0.002079
578.377867	0.002008
578.589773	0.002008
578.801661	0.002215
579.013531	0.002243
579.225382	0.002606
579.437216	0.002517
579.649031	0.002439
579.860828	0.002615
580.072606	0.002366
580.284367	0.002415
580.496109	0.002838
580.707833	0.002752
580.919539	0.002634
581.131227	0.002387
581.342896	0.002383
581.554547	0.002166
581.766180	0.001994
581.977795	0.001966
582.189391	0.001838
582.400969	0.001500
582.612529	0.001449
582.824071	0.001452
583.035595	0.001676
583.247100	0.001680
583.458587	0.001968
583.670056	0.002367
583.881506	0.002594
584.092939	0.002675
584.304353	0.002632
584.515749	0.002547
584.727127	0.002667
584.938486	0.002815
585.149828	0.002914
585.361151	0.002910
585.572456	0.002618
585.783742	0.002490
585.995011	0.002554
586.206261	0.002720
586.417493	0.002919
586.628706	0.002783
586.839902	0.002233
587.051079	0.002283
587.262238	0.002275
587.473379	0.002051
587.684502	0.002023
587.895606	0.002000
588.106692	0.001743
588.317760	0.001515
588.528810	0.001642
588.739841	0.001628
588.950855	0.001484
589.161850	0.001509
589.372827	0.001556
589.583785	0.001658
589.794726	0.001492
590.005648	0.001882
590.216552	0.002054
590.427437	0.001890
590.638305	0.001994
590.849154	0.002141
591.059985	0.002083
591.270798	0.002021
591.481592	0.001774
591.692369	0.001923
591.903127	0.001919
592.113867	0.001841
592.324588	0.001991
592.535292	0.002019
592.745977	0.001912
592.956644	0.001908
593.167293	0.002212
593.377923	0.002320
593.588536	0.002288
593.799130	0.002448
594.009706	0.002297
594.220263	0.002253
594.430803	0.002296
594.641324	0.002535
594.851827	0.002486
595.062312	0.002312
595.272778	0.002305
595.483227	0.002229
595.693657	0.001915
595.904069	0.002053
596.114462	0.002191
596.324838	0.002389
596.535195	0.002159
596.745534	0.002116
596.955855	0.001931
597.166157	0.002092
597.376441	0.002145
597.586707	0.002009
597.796955	0.002134
598.007185	0.002007
598.217396	0.001756
598.427589	0.001754
598.637764	0.001923
598.847921	0.001807
599.058060	0.001741
599.268180	0.001814
599.478282	0.001828
599.688366	0.001491
599.898431	0.001547
600.108479	0.001508
600.318508	0.001741
600.528519	0.001863
600.738511	0.001930
600.948486	0.001862
601.158442	0.001794
601.368380	0.001871
601.578300	0.002254
601.788202	0.002433
601.998085	0.002544
602.207950	0.002204
602.417797	0.001866
602.627626	0.001967
602.837436	0.002062
603.047228	0.001874
603.257002	0.001892
603.466758	0.001429
603.676496	0.001212
603.886215	0.001310
604.095916	0.001453
604.305599	0.001781
604.515264	0.001863
604.724910	0.001894
604.934538	0.002197
605.144148	0.002376
605.353740	0.002859
605.563314	0.002922
605.772869	0.002894
605.982406	0.002849
606.191925	0.002669
606.401425	0.002731
606.610908	0.002477
606.820372	0.002181
607.029818	0.002310
607.239246	0.002067
607.448655	0.001946
607.658047	0.001802
607.867420	0.001726
608.076775	0.001635
608.286111	0.001312
608.495430	0.001471
608.704730	0.001421
608.914012	0.000876
609.123275	0.000979
609.332521	0.000959
609.541748	0.000854
609.750957	0.000992
609.960148	0.001228
610.169321	0.001262
610.378475	0.001394
610.587611	0.001385
610.796729	0.001530
611.005829	0.001529
611.214910	0.001485
611.423974	0.001721
611.633019	0.001699
611.842045	0.001535
612.051054	0.001909
612.260044	0.001831
612.469017	0.002085
612.677970	0.002233
612.886906	0.002313
613.095824	0.002339
613.304723	0.002275
613.513604	0.002246
613.722467	0.002118
613.931311	0.001988
614.140138	0.001961
614.348946	0.001979
614.557736	0.001833
614.766507	0.001549
614.975261	0.001626
615.183996	0.001692
615.392713	0.001655
615.601412	0.001907
615.810092	0.001780
616.018754	0.001732
616.227399	0.001611
616.436024	0.001637
616.644632	0.001712
616.853222	0.001556
617.061793	0.001690
617.270346	0.001858
617.478880	0.001688
617.687397	0.001701
617.895895	0.001676
618.104375	0.001717
618.312837	0.001941
618.521281	0.002084
618.729706	0.002282
618.938113	0.002029
619.146502	0.001782
619.354873	0.001970
619.563226	0.002104
619.771560	0.002149
619.979876	0.002427
620.188174	0.002215
620.396453	0.002197
620.604715	0.002233
620.812958	0.002267
621.021183	0.002637
621.229390	0.002716
621.437578	0.002578
621.645748	0.002715
621.853900	0.002722
622.062034	0.002734
622.270150	0.002600
622.478247	0.002434
622.686326	0.002465
622.894387	0.002100
623.102430	0.001955
623.310454	0.002056
623.518461	0.002058
623.726449	0.001760
623.934418	0.001765
624.142370	0.001828
624.350303	0.001861
624.558218	0.002021
624.766115	0.002027
624.973994	0.002069
625.181855	0.002128
625.389697	0.001960
625.597521	0.002018
625.805327	0.002205
626.013114	0.002121
626.220883	0.002059
626.428634	0.001888
626.636367	0.002041
626.844082	0.002005
627.051778	0.001830
627.259457	0.001774
627.467117	0.001816
627.674758	0.001879
627.882382	0.002212
628.089987	0.002507
628.297574	0.002597
628.505143	0.002623
628.712694	0.002731
628.920226	0.002942
629.127740	0.003163
629.335236	0.003231
629.542714	0.002973
629.750174	0.002708
629.957615	0.002370
630.165038	0.002267
630.372443	0.002114
630.579829	0.002089
630.787198	0.001984
630.994548	0.001849
631.201880	0.001604
631.409194	0.001497
631.616489	0.001368
631.823766	0.001350
632.031025	0.001376
632.238266	0.001512
632.445489	0.001364
632.652693	0.001475
632.859879	0.001601
633.067047	0.001721
633.274197	0.001853
633.481329	0.002002
633.688442	0.002179
633.895537	0.002007
634.102614	0.001916
634.309672	0.001975
634.516713	0.001749
634.723735	0.001801
634.930739	0.001662
635.137724	0.001590
635.344692	0.001412
635.551641	0.001356
635.758572	0.001514
635.965485	0.001663
636.172379	0.001727
636.379256	0.001837
636.586114	0.001504
636.792954	0.001540
636.999775	0.001792
637.206579	0.001924
637.413364	0.001862
637.620131	0.001814
637.826880	0.001802
638.033610	0.001792
638.240323	0.001683
638.447017	0.001707
638.653692	0.001674
638.860350	0.001426
639.066990	0.001470
639.273611	0.001402
639.480214	0.001335
639.686798	0.001382
639.893365	0.001120
640.099913	0.001329
640.306443	0.001497
640.512955	0.001560
640.719449	0.001628
640.925924	0.001777
641.132381	0.001983
641.338820	0.002133
641.545241	0.002126
641.751644	0.002384
641.958028	0.002133
642.164394	0.001918
642.370742	0.002003
642.577071	0.001964
642.783383	0.001724
642.989676	0.001599
643.195951	0.001603
643.402207	0.001559
643.608446	0.001512
643.814666	0.001809
644.020868	0.002011
644.227052	0.002172
644.433218	0.002175
644.639365	0.002461
644.845494	0.002667
645.051605	0.002714
645.257698	0.002714
645.463772	0.002864
645.669828	0.002802
645.875866	0.003030
646.081886	0.002905
646.287888	0.003055
646.493871	0.003009
646.699836	0.002911
646.905783	0.002838
647.111712	0.002950
647.317622	0.002930
647.523514	0.002917
647.729388	0.002637
647.935244	0.002724
648.141082	0.002705
648.346901	0.002400
648.552702	0.002364
648.758485	0.002186
648.964250	0.001984
649.169996	0.001854
649.375724	0.001637
649.581434	0.001558
649.787126	0.001338
649.992800	0.001385
650.198455	0.001475
650.404092	0.001416
650.609711	0.001605
650.815311	0.001418
651.020894	0.001227
651.226458	0.001297
651.432004	0.001419
651.637532	0.001367
651.843041	0.001333
652.048532	0.001378
652.254006	0.001395
652.459460	0.001418
652.664897	0.001648
652.870315	0.001746
653.075716	0.001650
653.281097	0.001643
653.486461	0.001784
653.691807	0.001645
653.897134	0.001686
654.102443	0.001592
654.307734	0.001402
654.513006	0.001433
654.718261	0.001388
654.923497	0.001554
655.128715	0.001499
655.333915	0.001387
655.539096	0.001406
655.744259	0.001195
655.949404	0.001241
656.154531	0.001344
656.359640	0.001277
656.564730	0.001174
656.769802	0.001145
656.974856	0.001176
657.179892	0.001339
657.384909	0.001366
657.589908	0.001505
657.794889	0.001810
657.999852	0.001855
658.204797	0.001821
658.409723	0.002047
658.614631	0.002144
658.819521	0.002145
659.024393	0.001936
659.229246	0.001873
659.434081	0.001867
659.638898	0.001687
659.843697	0.001656
660.048478	0.001684
660.253240	0.001598
660.457984	0.001423
660.662710	0.001350
660.867417	0.001434
661.072107	0.001402
661.276778	0.001321
661.481431	0.001379
661.686066	0.001306
661.890682	0.001240
662.095281	0.001429
662.299861	0.001560
662.504422	0.001506
662.708966	0.001464
662.913491	0.001514
663.117999	0.001512
663.322488	0.001342
663.526958	0.001517
663.731411	0.001518
663.935845	0.001425
664.140261	0.001317
664.344659	0.001417
664.549038	0.001410
664.753400	0.001426
664.957743	0.001604
665.162068	0.001608
665.366375	0.001610
665.570663	0.001715
665.774933	0.001736
665.979185	0.001772
666.183419	0.001794
666.387635	0.001802
666.591832	0.001786
666.796011	0.001945
667.000172	0.001992
667.204315	0.001883
667.408439	0.001886
667.612545	0.001821
667.816634	0.001880
668.020703	0.001865
668.224755	0.001882
668.428788	0.001995
668.632803	0.001690
668.836800	0.001833
669.040779	0.001903
669.244739	0.001961
669.448681	0.001920
669.652605	0.001881
669.856511	0.001814
670.060399	0.001875
670.264268	0.001744
670.468119	0.001931
670.671952	0.001887
670.875767	0.001918
671.079563	0.001886
671.283341	0.002023
671.487101	0.002136
671.690843	0.002259
671.894567	0.002318
672.098272	0.002432
672.301959	0.002421
672.505628	0.002426
672.709278	0.002445
672.912911	0.002475
673.116525	0.002446
673.320121	0.002418
673.523699	0.002385
673.727258	0.002257
673.930799	0.002192
674.134322	0.002103
674.337827	0.002053
674.541314	0.002006
674.744782	0.001984
674.948232	0.001942
675.151664	0.001836
675.355078	0.001924
675.558474	0.002032
675.761851	0.001989
675.965210	0.002075
676.168551	0.001893
676.371873	0.001809
676.575178	0.001658
676.778464	0.001662
676.981732	0.001538
677.184981	0.001483
677.388213	0.001310
677.591426	0.001307
677.794621	0.001172
677.997798	0.001412
678.200956	0.001482
678.404097	0.001603
678.607219	0.001613
678.810323	0.001703
679.013408	0.001613
679.216476	0.001742
679.419525	0.001673
679.622556	0.001663
679.825569	0.001537
680.028563	0.001458
680.231540	0.001295
680.434498	0.001122
680.637438	0.001066
680.840359	0.000948
681.043263	0.000857
681.246148	0.000931
681.449015	0.000902
681.651864	0.000882
681.854694	0.000998
682.057506	0.001120
682.260301	0.001239
682.463076	0.001252
682.665834	0.001398
682.868573	0.001404
683.071295	0.001460
683.273998	0.001454
683.476682	0.001471
683.679349	0.001320
683.881997	0.001417
684.084627	0.001493
684.287239	0.001577
684.489833	0.001526
684.692408	0.001583
684.894965	0.001674
685.097504	0.001783
685.300025	0.001832
685.502527	0.001868
685.705012	0.001684
685.907478	0.001566
686.109925	0.001429
686.312355	0.001522
686.514766	0.001437
686.717159	0.001352
686.919534	0.001491
687.121891	0.001374
687.324230	0.001273
687.526550	0.001353
687.728852	0.001430
687.931136	0.001648
688.133401	0.001599
688.335649	0.001707
688.537878	0.001636
688.740089	0.001360
688.942281	0.001365
689.144456	0.001387
689.346612	0.001345
689.548750	0.001160
689.750870	0.001017
689.952971	0.000928
690.155055	0.000887
690.357120	0.000746
690.559167	0.000750
690.761195	0.000758
690.963206	0.000765
691.165198	0.000669
691.367172	0.000812
691.569128	0.000852
691.771065	0.000968
691.972984	0.001021
692.174885	0.001179
692.376768	0.001279
692.578633	0.001416
692.780479	0.001667
692.982308	0.001821
693.184118	0.001805
693.385909	0.001853
693.587683	0.001831
693.789438	0.001792
693.991175	0.001852
694.192894	0.001800
694.394595	0.001712
694.596277	0.001449
694.797941	0.001456
694.999587	0.001422
695.201215	0.001380
695.402824	0.001466
695.604416	0.001459
695.805989	0.001477
696.007543	0.001534
696.209080	0.001451
696.410598	0.001538
696.612099	0.001521
696.813580	0.001470
697.015044	0.001423
697.216490	0.001284
697.417917	0.001252
697.619326	0.001087
697.820717	0.001211
698.022089	0.001248
698.223444	0.001311
698.424780	0.001254
698.626098	0.001294
698.827397	0.001353
699.028679	0.001394
699.229942	0.001336
699.431187	0.001345
699.632414	0.001165
699.833622	0.001301
700.034813	0.001174
700.235985	0.001174
700.437139	0.001115
700.638274	0.000987
700.839392	0.000895
701.040491	0.000851
701.241572	0.000823
701.442635	0.000859
701.643679	0.000795
701.844706	0.000739
702.045714	0.000828
702.246704	0.000807
702.447675	0.000828
702.648629	0.000908
702.849564	0.000917
703.050481	0.000892
703.251380	0.000851
703.452260	0.000698
703.653122	0.000787
703.853966	0.000476
704.054792	0.000455
704.255600	0.000559
704.456389	0.000547
704.657160	0.000480
704.857913	0.000687
705.058648	0.000759
705.259365	0.000829
705.460063	0.000833
705.660743	0.001141
705.861405	0.001363
706.062048	0.001239
706.262674	0.001320
706.463281	0.001505
706.663870	0.001297
706.864441	0.001364
707.064993	0.001530
707.265527	0.001553
707.466043	0.001485
707.666541	0.001547
707.867021	0.001671
708.067482	0.001482
708.267925	0.001496
708.468350	0.001623
708.668757	0.001517
708.869145	0.001363
709.069516	0.001372
709.269868	0.001211
709.470201	0.000961
709.670517	0.000716
709.870814	0.000887
710.071093	0.000713
710.271354	0.000559
710.471597	0.000459
710.671821	0.000449
710.872028	0.000504
711.072216	0.000709
711.272385	0.000963
711.472537	0.001084
711.672670	0.000901
711.872785	0.001111
712.072882	0.001278
712.272961	0.001346
712.473021	0.001482
712.673063	0.001420
712.873087	0.001396
713.073093	0.001207
713.273081	0.001110
713.473050	0.001012
713.673001	0.000831
713.872934	0.000614
714.072849	0.000564
714.272745	0.000366
714.472623	0.000339
714.672483	0.000088
714.872325	0.000039
715.072148	0.000137
715.271954	0.000257
715.471741	0.000228
715.671509	0.000234
715.871260	0.000240
716.070992	0.000234
716.270707	0.000090
716.470403	0.000260
716.670080	0.000188
716.869740	0.000257
717.069381	0.000290
717.269004	0.000365
717.468609	0.000518
717.668195	0.000483
717.867764	0.000594
718.067314	0.000758
718.266846	0.000720
718.466360	0.000865
718.665855	0.000846
718.865332	0.000953
719.064791	0.000963
719.264232	0.000945
719.463655	0.001044
719.663059	0.001135
719.862445	0.001228
720.061813	0.001218
720.261163	0.001392
720.460494	0.001226
720.659807	0.001204
720.859102	0.001156
721.058379	0.001081
721.257638	0.001047
721.456878	0.001072
721.656100	0.000835
721.855304	0.000837
722.054490	0.000664
722.253657	0.000817
722.452806	0.000734
722.651937	0.000702
722.851050	0.000824
723.050145	0.000744
723.249221	0.000621
723.448279	0.000657
723.647319	0.000752
723.846340	0.000668
724.045344	0.000611
724.244329	0.000648
724.443296	0.000639
724.642245	0.000489
724.841175	0.000538
725.040088	0.000490
725.238982	0.000559
725.437857	0.000621
725.636715	0.000731
725.835554	0.000725
726.034376	0.000789
726.233179	0.000621
726.431963	0.000683
726.630730	0.000596
726.829478	0.000417
727.028208	0.000221
727.226920	0.000008
727.425614	0.000012
727.624289	-0.000051
727.822946	-0.000220
728.021585	-0.000086
728.220206	-0.000046
728.418808	-0.000034
728.617392	0.000145
728.815958	0.000352
729.014506	0.000289
729.213036	0.000114
729.411547	0.000202
729.610040	0.000124
729.808515	0.000202
730.006972	0.000091
730.205410	0.000002
730.403831	-0.000022
730.602233	-0.000078
730.800616	0.000086
730.998982	0.000061
731.197329	-0.000141
731.395658	-0.000173
731.593969	-0.000290
731.792262	-0.000283
731.990536	-0.000262
732.188793	-0.000426
732.387031	-0.000537
732.585250	-0.000727
732.783452	-0.000795
732.981635	-0.000810
733.179800	-0.000709
733.377947	-0.000774
733.576076	-0.000994
733.774186	-0.001033
733.972278	-0.000800
734.170352	-0.000774
734.368408	-0.000714
734.566446	-0.000537
734.764465	-0.000436
734.962466	-0.000393
735.160449	-0.000375
735.358413	-0.000191
735.556360	0.000044
735.754288	-0.000085
735.952198	-0.000169
736.150090	-0.000191
736.347963	-0.000271
736.545818	-0.000381
736.743655	-0.000563
736.941474	-0.000413
737.139275	-0.000378
737.337057	-0.000485
737.534821	-0.000619
737.732567	-0.000501
737.930295	-0.000442
738.128005	-0.000526
738.325696	-0.000414
738.523369	-0.000324
738.721024	-0.000560
738.918660	-0.000556
739.116279	-0.000520
739.313879	-0.000337
739.511461	-0.000345
739.709024	-0.000454
739.906570	-0.000283
740.104097	-0.000357
740.301606	-0.000411
740.499097	-0.000202
740.696569	-0.000243
740.894024	-0.000321
741.091460	-0.000468
741.288878	-0.000537
741.486277	-0.000319
741.683659	-0.000416
741.881022	-0.000259
742.078367	-0.000291
742.275694	-0.000301
742.473002	-0.000422
742.670293	-0.000371
742.867565	-0.000311
743.064819	-0.000260
743.262054	-0.000408
743.459272	-0.000436
743.656471	-0.000498
743.853652	-0.000317
744.050815	-0.000218
744.247959	0.000137
744.445085	0.000029
744.642194	0.000138
744.839283	0.000021
745.036355	0.000131
745.233408	0.000131
745.430444	0.000040
745.627461	-0.000084
745.824459	-0.000150
746.021440	-0.000202
746.218402	-0.000225
746.415346	-0.000222
746.612272	-0.000102
746.809180	-0.000199
747.006069	-0.000157
747.202940	0.000021
747.399793	0.000095
747.596628	0.000055
747.793444	0.000026
747.990243	0.000177
748.187023	0.000093
748.383784	0.000052
748.580528	0.000222
748.777253	0.000288
748.973960	0.000422
749.170649	0.000598
749.367320	0.000795
749.563973	0.000729
749.760607	0.000701
749.957223	0.000921
750.153821	0.001103
750.350400	0.001045
750.546962	0.001064
750.743505	0.001000
750.940030	0.001090
751.136536	0.001157
751.333025	0.001323
751.529495	0.001370
751.725947	0.001313
751.922381	0.001267
752.118796	0.001326
752.315194	0.001419
752.511573	0.001489
752.707934	0.001441
752.904276	0.001423
753.100601	0.001448
753.296907	0.001403
753.493195	0.001353
753.689465	0.001428
753.885716	0.001257
754.081949	0.001127
754.278164	0.000892
754.474361	0.000828
754.670540	0.000601
754.866700	0.000455
755.062843	0.000564
755.258967	0.000533
755.455072	0.000512
755.651160	0.000756
755.847229	0.000869
756.043280	0.000996
756.239313	0.000956
756.435328	0.001026
756.631324	0.000966
756.827302	0.000980
757.023262	0.001071
757.219204	0.001181
757.415127	0.001056
757.611033	0.001188
757.806920	0.001135
758.002788	0.001158
758.198639	0.001203
758.394471	0.001272
758.590286	0.001240
758.786081	0.001052
758.981859	0.000823
759.177619	0.000770
759.373360	0.000706
759.569083	0.000622
759.764788	0.000439
759.960474	0.000454
760.156143	0.000436
760.351793	0.000485
760.547425	0.000541
760.743038	0.000619
760.938634	0.000557
761.134211	0.000450
761.329770	0.000671
761.525311	0.000893
761.720833	0.000942
761.916338	0.001023
762.111824	0.000985
762.307292	0.001134
762.502741	0.001143
762.698173	0.001391
762.893586	0.001484
763.088981	0.001501
763.284358	0.001430
763.479716	0.001340
763.675057	0.001103
763.870379	0.001150
764.065683	0.001142
764.260968	0.001105
764.456236	0.001176
764.651485	0.001135
764.846716	0.001058
765.041929	0.001114
765.237123	0.001251
765.432299	0.001483
765.627457	0.001591
765.822597	0.001549
766.017719	0.001536
766.212822	0.001470
766.407907	0.001432
766.602974	0.001550
766.798023	0.001689
766.993054	0.001731
767.188066	0.001752
767.383060	0.001769
767.578036	0.001784
767.772993	0.002018
767.967933	0.002108
768.162854	0.002136
768.357757	0.002222
768.552642	0.002133
768.747508	0.002182
768.942356	0.002263
769.137186	0.002135
769.331998	0.002179
769.526792	0.002080
769.721567	0.001960
769.916324	0.002025
770.111063	0.002003
770.305784	0.001928
770.500486	0.001813
770.695171	0.001846
770.889837	0.001929
771.084484	0.001845
771.279114	0.001873
771.473725	0.001867
771.668318	0.001907
771.862893	0.002078
772.057450	0.002114
772.251988	0.002099
772.446509	0.002042
772.641011	0.002062
772.835494	0.002397
773.029960	0.002331
773.224407	0.002507
773.418836	0.002514
773.613247	0.002309
773.807640	0.002377
774.002014	0.002475
774.196370	0.002496
774.390708	0.002455
774.585028	0.002199
774.779330	0.002304
774.973613	0.002210
775.167878	0.002316
775.362125	0.002303
775.556354	0.002426
775.750564	0.002393
775.944756	0.002385
776.138930	0.002390
776.333086	0.002581
776.527223	0.002586
776.721343	0.002497
776.915444	0.002261
777.109526	0.002255
777.303591	0.002169
777.497637	0.002282
777.691666	0.002183
777.885676	0.002272
778.079667	0.002216
778.273641	0.002222
778.467596	0.002275
778.661533	0.002493
778.855452	0.002515
779.049352	0.002478
779.243235	0.002350
779.437099	0.002413
779.630945	0.002331
779.824773	0.002302
780.018582	0.002321
780.212373	0.002507
780.406146	0.002511
780.599901	0.002517
780.793638	0.002760
780.987356	0.002706
781.181056	0.002864
781.374738	0.003012
781.568402	0.002997
781.762047	0.002994
781.955674	0.002796
782.149283	0.002836
782.342874	0.002958
782.536447	0.002789
782.730001	0.003033
782.923537	0.003058
783.117055	0.002949
783.310555	0.002925
783.504036	0.002937
783.697499	0.003308
783.890944	0.003000
784.084371	0.002845
784.277780	0.002812
784.471170	0.002792
784.664542	0.002667
784.857896	0.002626
785.051231	0.002642
785.244549	0.002725
785.437848	0.002433
785.631129	0.002527
785.824392	0.002580
786.017636	0.002614
786.210863	0.002469
786.404071	0.002580
786.597260	0.002695
786.790432	0.002779
786.983585	0.002589
787.176721	0.002465
787.369838	0.002583
787.562936	0.002501
787.756017	0.002425
787.949079	0.002157
788.142123	0.002125
788.335149	0.002032
788.528156	0.002012
788.721146	0.001945
788.914117	0.001947
789.107070	0.001828
789.300005	0.001818
789.492921	0.001754
789.685819	0.001889
789.878699	0.001770
790.071561	0.001832
790.264405	0.001797
790.457230	0.001820
790.650037	0.001789
790.842826	0.001816
791.035597	0.001891
791.228349	0.002022
791.421084	0.002241
791.613800	0.002069
791.806497	0.002031
791.999177	0.001959
792.191838	0.002088
792.384481	0.002188
792.577106	0.002322
792.769713	0.002557
792.962301	0.002494
793.154871	0.002430
793.347423	0.002647
793.539957	0.002845
793.732473	0.003060
793.924970	0.003164
794.117449	0.003221
794.309910	0.003112
794.502353	0.002915
794.694777	0.002973
794.887183	0.003052
795.079571	0.003352
795.271941	0.003129
795.464293	0.003039
795.656626	0.003171
795.848941	0.003320
796.041238	0.003311
796.233516	0.003278
796.425777	0.003361
796.618019	0.003346
796.810243	0.003151
797.002449	0.003188
797.194636	0.003082
797.386805	0.002738
797.578956	0.002529
797.771089	0.002662
797.963204	0.002824
798.155300	0.002719
798.347378	0.002691
798.539438	0.002523
798.731480	0.002665
798.923503	0.002806
799.115509	0.003060
799.307496	0.003126
799.499465	0.003151
799.691415	0.003038
799.883348	0.003030
800.075262	0.002893
800.267158	0.002916
800.459035	0.002585
800.650895	0.002466
800.842736	0.002127
801.034559	0.002015
801.226364	0.001962
801.418150	0.001824
801.609919	0.001895
801.801669	0.002109
801.993401	0.002101
802.185114	0.002232
802.376810	0.002097
802.568487	0.002134
802.760146	0.002230
802.951787	0.002097
803.143409	0.002118
803.335014	0.001902
803.526600	0.001738
803.718168	0.001723
803.909717	0.001677
804.101249	0.001643
804.292762	0.001836
804.484257	0.001780
804.675734	0.001865
804.867192	0.001864
805.058632	0.001856
805.250054	0.001853
805.441458	0.001715
805.632844	0.001623
805.824211	0.001687
806.015561	0.001441
806.206891	0.001289
806.398204	0.001188
806.589499	0.001261
806.780775	0.001223
806.972033	0.001147
807.163273	0.001248
807.354495	0.001325
807.545698	0.001126
807.736883	0.001218
807.928050	0.001276
808.119199	0.001209
808.310329	0.001050
808.501441	0.001176
808.692535	0.001182
808.883611	0.001223
809.074669	0.001212
809.265708	0.001202
809.456729	0.001130
809.647732	0.001224
809.838717	0.001114
810.029683	0.001124
810.220632	0.001154
810.411562	0.001210
810.602474	0.001199
810.793367	0.001056
810.984242	0.001093
811.175100	0.001123
811.365938	0.000903
811.556759	0.000973
811.747562	0.000823
811.938346	0.000770
812.129112	0.000625
812.319860	0.000666
812.510589	0.000805
812.701300	0.001061
812.891994	0.001063
813.082668	0.001190
813.273325	0.001249
813.463964	0.001449
813.654584	0.001297
813.845186	0.001469
814.035769	0.001355
814.226335	0.001354
814.416882	0.001342
814.607411	0.001448
814.797922	0.001285
814.988415	0.001366
815.178889	0.001315
815.369345	0.001460
815.559783	0.001186
815.750203	0.001249
815.940605	0.001208
816.130988	0.001081
816.321353	0.000967
816.511700	0.000983
816.702028	0.000769
816.892339	0.000872
817.082631	0.001017
817.272905	0.001007
817.463161	0.000952
817.653398	0.001004
817.843617	0.000963
818.033819	0.000926
818.224001	0.001097
818.414166	0.001291
818.604312	0.001299
818.794440	0.000839
818.984550	0.001020
819.174642	0.000934
819.364716	0.000850
819.554771	0.000733
819.744808	0.000728
819.934827	0.000699
820.124827	0.000550
820.314810	0.000412
820.504774	0.000605
820.694720	0.000782
820.884647	0.000794
821.074557	0.000696
821.264448	0.000737
821.454321	0.000903
821.644176	0.000748
821.834012	0.000724
822.023831	0.000637
822.213631	0.000439
822.403413	-0.000034
822.593176	-0.000171
822.782922	-0.000365
822.972649	-0.000529
823.162358	-0.000848
823.352049	-0.001038
823.541721	-0.001373
823.731376	-0.001552
823.921012	-0.001653
824.110629	-0.001573
824.300229	-0.001553
824.489811	-0.001555
824.679374	-0.001363
824.868919	-0.001517
825.058445	-0.001360
825.247954	-0.001287
825.437444	-0.001221
825.626916	-0.001145
825.816370	-0.001134
826.005806	-0.001174
826.195223	-0.001009
826.384622	-0.001188
826.574003	-0.001039
826.763366	-0.000991
826.952711	-0.000827
827.142037	-0.000697
827.331345	-0.000501
827.520635	-0.000549
827.709906	-0.000517
827.899160	-0.000586
828.088395	-0.000571
828.277612	-0.000737
828.466810	-0.000745
828.655991	-0.000698
828.845153	-0.000997
829.034297	-0.000990
829.223423	-0.000936
829.412531	-0.001038
829.601620	-0.001085
829.790691	-0.001135
829.979744	-0.001044
830.168779	-0.001097
830.357795	-0.001101
830.546793	-0.000993
830.735773	-0.001105
830.924735	-0.001377
831.113679	-0.001053
831.302604	-0.000905
831.491511	-0.000900
831.680400	-0.000829
831.869271	-0.000844
832.058123	-0.000921
832.246957	-0.000918
832.435773	-0.000974
832.624571	-0.000627
832.813351	-0.001010
833.002112	-0.001221
833.190855	-0.001059
833.379580	-0.001105
833.568287	-0.001240
833.756975	-0.001173
833.945645	-0.001193
834.134297	-0.000988
834.322931	-0.001162
834.511547	-0.001007
834.700144	-0.001012
834.888723	-0.001359
835.077284	-0.001466
835.265826	-0.001401
835.454351	-0.001574
835.642857	-0.001615
835.831345	-0.002024
836.019815	-0.002167
836.208266	-0.002321
836.396699	-0.002131
836.585114	-0.001858
836.773511	-0.001851
836.961890	-0.002022
837.150250	-0.001839
837.338592	-0.001739
837.526916	-0.001675
837.715222	-0.001630
837.903510	-0.001591
838.091779	-0.001919
838.280030	-0.001948
838.468263	-0.001871
838.656477	-0.001627
838.844674	-0.001768
839.032852	-0.001704
839.221012	-0.001600
839.409153	-0.001364
839.597277	-0.001118
839.785382	-0.000718
839.973469	-0.000527
840.161538	-0.000466
840.349589	-0.000723
840.537621	-0.000742
840.725635	-0.000664
840.913631	-0.000541
841.101609	-0.000705
841.289568	-0.000873
841.477509	-0.000858
841.665432	-0.001013
841.853337	-0.001034
842.041224	-0.000623
842.229092	-0.000670
842.416942	-0.000756
842.604774	-0.000674
842.792588	-0.000646
842.980383	-0.000775
843.168160	-0.001042
843.355919	-0.001177
843.543660	-0.001316
843.731382	-0.001421
843.919087	-0.001338
844.106773	-0.001447
844.294441	-0.001695
844.482090	-0.001826
844.669722	-0.001707
844.857335	-0.001812
845.044930	-0.001731
845.232507	-0.001741
845.420065	-0.001800
845.607605	-0.002107
845.795127	-0.002107
845.982631	-0.002041
846.170117	-0.001985
846.357584	-0.002077
846.545033	-0.002017
846.732464	-0.001925
846.919877	-0.001807
847.107272	-0.001930
847.294648	-0.001830
847.482006	-0.001647
847.669346	-0.001934
847.856667	-0.002057
848.043971	-0.001967
848.231256	-0.001816
848.418523	-0.001997
848.605771	-0.001909
848.793002	-0.001882
848.980214	-0.001854
849.167408	-0.002061
849.354584	-0.001846
849.541742	-0.001553
849.728881	-0.001695
849.916002	-0.001759
850.103105	-0.001859
850.290190	-0.001868
850.477256	-0.001861
850.664304	-0.001592
850.851334	-0.001431
851.038346	-0.001345
851.225340	-0.001526
851.412315	-0.001370
851.599272	-0.001308
851.786211	-0.000978
851.973132	-0.001194
852.160034	-0.001086
852.346918	-0.001067
852.533784	-0.001263
852.720632	-0.001184
852.907462	-0.001146
853.094273	-0.001224
853.281066	-0.001220
853.467841	-0.001418
853.654598	-0.001147
853.841336	-0.001255
854.028056	-0.001255
854.214758	-0.001001
854.401442	-0.001037
854.588107	-0.000941
854.774755	-0.000555
854.961384	-0.000533
855.147995	-0.000429
855.334587	-0.000253
855.521162	-0.000315
855.707718	-0.000300
855.894256	-0.000354
856.080775	-0.000365
856.267277	-0.000528
856.453760	-0.000895
856.640225	-0.000824
856.826672	-0.000763
857.013101	-0.001147
857.199511	-0.000937
857.385903	-0.000927
857.572277	-0.000744
857.758633	-0.000681
857.944970	-0.000406
858.131290	-0.000123
858.317591	0.000068
858.503873	-0.000022
858.690138	0.000245
858.876384	0.000069
859.062612	-0.000090
859.248822	-0.000284
859.435014	-0.000189
859.621188	-0.000336
859.807343	-0.000419
859.993480	-0.000948
860.179599	-0.001106
860.365699	-0.001309
860.551781	-0.001262
860.737846	-0.001344
860.923891	-0.001502
861.109919	-0.001782
861.295929	-0.001788
861.481920	-0.001830
861.667893	-0.001712
861.853848	-0.001468
862.039784	-0.001535
862.225702	-0.001324
862.411603	-0.001407
862.597484	-0.001492
862.783348	-0.001553
862.969193	-0.001348
863.155021	-0.001641
863.340830	-0.001740
863.526620	-0.001785
863.712393	-0.001710
863.898147	-0.002002
864.083883	-0.001847
864.269601	-0.001692
864.455301	-0.001436
864.640982	-0.001556
864.826645	-0.001242
865.012290	-0.001067
865.197917	-0.000926
865.383526	-0.000952
865.569116	-0.000719
865.754688	-0.000562
865.940242	-0.000629
866.125777	-0.000330
866.311295	-0.000172
866.496794	-0.000255
866.682275	0.000022
866.867737	-0.000070
867.053182	0.000206
867.238608	0.000182
867.424016	0.000083
867.609406	0.000462
867.794778	-0.000022
867.980131	-0.000257
868.165466	-0.000099
868.350783	-0.000413
868.536082	-0.000439
868.721362	-0.000510
868.906625	-0.000791
869.091869	-0.000683
869.277094	-0.001093
869.462302	-0.000862
869.647491	-0.000916
869.832662	-0.001159
870.017815	-0.001257
870.202950	-0.001467
870.388066	-0.001372
870.573165	-0.001276
870.758245	-0.001178
870.943306	-0.000831
871.128350	-0.001001
871.313375	-0.000938
871.498382	-0.000867
871.683371	-0.000627
871.868342	-0.000617
872.053294	-0.000771
872.238229	-0.000659
872.423144	-0.000987
872.608042	-0.001006
872.792922	-0.000989
872.977783	-0.000915
873.162626	-0.000900
873.347451	-0.000803
873.532258	-0.000584
873.717046	-0.000529
873.901816	-0.000555
874.086568	-0.000528
874.271302	-0.000816
874.456017	-0.000585
874.640715	-0.000613
874.825394	-0.000524
875.010055	-0.000617
875.194697	-0.000736
875.379322	-0.000920
875.563928	-0.000818
875.748516	-0.000446
875.933085	-0.000239
876.117637	-0.000500
876.302170	-0.000304
876.486685	-0.000400
876.671182	-0.000306
876.855661	0.000024
877.040121	0.000302
877.224563	0.000366
877.408987	0.000199
877.593393	0.000106
877.777780	0.000236
877.962150	0.000020
878.146501	0.000076
878.330833	-0.000195
878.515148	-0.000508
878.699444	-0.000727
878.883722	-0.000693
879.067982	-0.001140
879.252224	-0.001318
879.436447	-0.001317
879.620653	-0.001302
879.804840	-0.001222
879.989008	-0.000961
880.173159	-0.001089
880.357291	-0.001042
880.541405	-0.001204
880.725501	-0.000666
880.909579	-0.000584
881.093638	-0.000693
881.277680	-0.000559
881.461703	-0.000787
881.645707	-0.000784
881.829694	-0.000684
882.013662	-0.000838
882.197612	-0.000839
882.381544	-0.001266
882.565458	-0.001132
882.749353	-0.001253
882.933230	-0.001550
883.117089	-0.001755
883.300930	-0.001983
883.484753	-0.001769
883.668557	-0.001733
883.852343	-0.001978
884.036111	-0.001665
884.219861	-0.001722
884.403592	-0.001555
884.587305	-0.001479
884.771000	-0.001293
884.954677	-0.001158
885.138335	-0.001338
885.321976	-0.001116
885.505598	-0.000779
885.689201	-0.000809
885.872787	-0.000689
886.056354	-0.000855
886.239904	-0.001033
886.423434	-0.000935
886.606947	-0.000949
886.790442	-0.000929
886.973918	-0.001090
887.157376	-0.001336
887.340816	-0.001350
887.524237	-0.001810
887.707641	-0.001715
887.891026	-0.001697
888.074393	-0.001883
888.257741	-0.001984
888.441072	-0.002282
888.624384	-0.002358
888.807678	-0.002556
888.990954	-0.002896
889.174211	-0.002470
889.357451	-0.002243
889.540672	-0.002053
889.723875	-0.001746
889.907059	-0.001808
890.090226	-0.001675
890.273374	-0.001623
890.456504	-0.001520
890.639616	-0.001329
890.822709	-0.001473
891.005785	-0.001710
891.188842	-0.001603
891.371881	-0.001936
891.554901	-0.001807
891.737904	-0.001473
891.920888	-0.001510
892.103854	-0.001316
892.286802	-0.001077
892.469731	-0.001234
892.652643	-0.001244
892.835536	-0.001414
893.018410	-0.001345
893.201267	-0.001427
893.384106	-0.001683
893.566926	-0.001775
893.749728	-0.002103
893.932511	-0.002300
894.115277	-0.002340
894.298024	-0.002456
894.480753	-0.002582
894.663464	-0.002607
894.846157	-0.002727
895.028831	-0.002533
895.211487	-0.002371
895.394125	-0.002115
895.576745	-0.002066
895.759346	-0.001838
895.941930	-0.001668
896.124495	-0.001909
896.307041	-0.001934
896.489570	-0.001592
896.672080	-0.001843
896.854573	-0.002084
897.037046	-0.002074
897.219502	-0.002067
897.401940	-0.002392
897.584359	-0.002479
897.766760	-0.002415
897.949143	-0.002685
898.131507	-0.002984
898.313854	-0.003233
898.496182	-0.003243
898.678492	-0.003502
898.860783	-0.003482
899.043057	-0.003304
899.225312	-0.003224
899.407549	-0.003150
899.589768	-0.002894
899.771968	-0.003011
899.954151	-0.002782
900.136315	-0.002894
900.318461	-0.002655
900.500588	-0.002846
900.682698	-0.002696
900.864789	-0.002794
901.046862	-0.002737
901.228917	-0.003067
901.410953	-0.003157
901.592971	-0.003067
901.774972	-0.003006
901.956953	-0.002986
902.138917	-0.003012
902.320862	-0.003384
902.502790	-0.003523
902.684699	-0.003436
902.866589	-0.002911
903.048462	-0.002859
903.230316	-0.002888
903.412152	-0.002828
903.593970	-0.003172
903.775770	-0.003102
903.957551	-0.002948
904.139314	-0.003010
904.321059	-0.003033
904.502786	-0.003234
904.684494	-0.003352
904.866185	-0.003402
905.047857	-0.003450
905.229510	-0.003340
905.411146	-0.003419
905.592763	-0.003352
905.774363	-0.003329
905.955943	-0.003377
906.137506	-0.003667
906.319051	-0.003613
906.500577	-0.003604
906.682085	-0.003649
906.863575	-0.003398
907.045046	-0.003274
907.226500	-0.003308
907.407935	-0.003403
907.589352	-0.003119
907.770750	-0.002718
907.952131	-0.002409
908.133493	-0.002299
908.314837	-0.002059
908.496163	-0.002120
908.677470	-0.002147
908.858760	-0.002282
909.040031	-0.001938
909.221284	-0.002335
909.402518	-0.002617
909.583735	-0.002750
909.764933	-0.002793
909.946113	-0.002838
910.127275	-0.002996
910.308418	-0.002958
910.489544	-0.002459
910.670651	-0.002824
910.851740	-0.002705
911.032810	-0.002827
911.213863	-0.002408
911.394897	-0.002635
911.575913	-0.002576
911.756911	-0.002532
911.937890	-0.002730
912.118851	-0.003432
912.299794	-0.003392
912.480719	-0.003476
912.661626	-0.003555
912.842514	-0.003945
913.023384	-0.004071
913.204236	-0.004595
913.385070	-0.005119
913.565886	-0.005310
913.746683	-0.005005
913.927462	-0.005119
914.108223	-0.005552
914.288965	-0.005375
914.469690	-0.005702
914.650396	-0.005885
914.831084	-0.005801
915.011754	-0.005472
915.192405	-0.005461
915.373038	-0.005530
915.553653	-0.005618
915.734250	-0.005625
915.914829	-0.005770
916.095389	-0.005633
916.275931	-0.005797
916.456455	-0.005915
916.636961	-0.006021
916.817448	-0.005756
916.997917	-0.006177
917.178368	-0.006199
917.358801	-0.006042
917.539216	-0.006002
917.719612	-0.005978
917.899990	-0.005229
918.080350	-0.005294
918.260692	-0.005191
918.441015	-0.005581
918.621320	-0.005921
918.801607	-0.006022
918.981876	-0.006092
919.162127	-0.006334
919.342359	-0.006704
919.522573	-0.007502
919.702769	-0.007789
919.882947	-0.008228
920.063106	-0.008179
920.243247	-0.007578
920.423370	-0.007798
920.603475	-0.007983
920.783562	-0.008240
920.963630	-0.008153
921.143680	-0.007805
921.323712	-0.007827
921.503725	-0.007909
921.683721	-0.008387
921.863698	-0.009014
922.043657	-0.009056
922.223598	-0.009045
922.403520	-0.009173
922.583424	-0.009592
922.763311	-0.009885
922.943178	-0.009615
923.123028	-0.009796
923.302859	-0.009514
923.482673	-0.009446
923.662467	-0.009348
923.842244	-0.009604
924.022003	-0.009031
924.201743	-0.009150
924.381465	-0.009534
924.561169	-0.009754
924.740854	-0.009519
924.920522	-0.009486
925.100171	-0.009738
925.279802	-0.009685
925.459414	-0.009510
925.639009	-0.009990
925.818585	-0.009916
925.998143	-0.009098
926.177683	-0.009094
926.357205	-0.009460
926.536708	-0.010088
926.716193	-0.009704
926.895660	-0.009776
927.075109	-0.009906
927.254539	-0.009787
927.433951	-0.010501
927.613345	-0.011240
927.792721	-0.011413
927.972079	-0.011124
928.151418	-0.011087
928.330739	-0.011663
928.510042	-0.011550
928.689327	-0.011413
928.868593	-0.011465
929.047841	-0.010991
929.227071	-0.011262
929.406283	-0.011212
929.585476	-0.011778
929.764652	-0.012021
929.943809	-0.011557
930.122948	-0.012307
930.302068	-0.012849
930.481171	-0.013270
930.660255	-0.013229
930.839321	-0.013765
931.018369	-0.013638
931.197398	-0.013593
931.376409	-0.013060
931.555402	-0.013698
931.734377	-0.013535
931.913334	-0.013420
932.092272	-0.012979
932.271192	-0.013103
932.450094	-0.012613
932.628978	-0.013212
932.807844	-0.013163
932.986691	-0.013739
933.165520	-0.013392
933.344331	-0.013166
933.523123	-0.012774
933.701898	-0.013223
933.880654	-0.013061
934.059392	-0.013281
934.238111	-0.013450
934.416813	-0.013652
934.595496	-0.013567
934.774161	-0.013893
934.952808	-0.014049
935.131437	-0.014755
935.310047	-0.015011
935.488639	-0.014980
935.667213	-0.015721
935.845769	-0.016367
936.024306	-0.016270
936.202825	-0.015738
936.381326	-0.015928
936.559809	-0.015970
936.738274	-0.015612
936.916720	-0.015441
937.095148	-0.016009
937.273558	-0.015429
937.451950	-0.014304
937.630323	-0.014516
937.808678	-0.015600
937.987015	-0.015593
938.165334	-0.015387
938.343635	-0.016274
938.521917	-0.016251
938.700181	-0.016308
938.878427	-0.016060
939.056655	-0.016472
939.234864	-0.016462
939.413055	-0.016442
939.591228	-0.016655
939.769383	-0.017696
939.947519	-0.017417
940.125638	-0.017828
940.303738	-0.018053
940.481820	-0.018612
940.659883	-0.018774
940.837929	-0.018119
941.015956	-0.017649
941.193965	-0.017107
941.371955	-0.016894
941.549928	-0.017360
941.727882	-0.017891
941.905818	-0.018161
942.083736	-0.017884
942.261636	-0.018177
942.439517	-0.018619
942.617380	-0.018890
942.795225	-0.019638
942.973052	-0.019535
943.150860	-0.019276
943.328651	-0.019287
943.506423	-0.018831
943.684176	-0.018934
943.861912	-0.019099
944.039629	-0.019309
944.217328	-0.020013
944.395009	-0.019368
944.572672	-0.019718
944.750317	-0.019128
944.927943	-0.019517
945.105551	-0.019918
945.283141	-0.019543
945.460712	-0.018931
945.638265	-0.018787
945.815801	-0.018553
945.993317	-0.018442
946.170816	-0.018221
946.348297	-0.019047
946.525759	-0.018354
946.703203	-0.017935
946.880629	-0.018277
947.058036	-0.018668
947.235425	-0.018670
947.412797	-0.019145
947.590149	-0.019071
947.767484	-0.019145
947.944800	-0.018083
948.122099	-0.017678
948.299379	-0.017550
948.476640	-0.017736
948.653884	-0.018638
948.831109	-0.018542
949.008316	-0.018553
949.185505	-0.019581
949.362676	-0.020361
949.539828	-0.020482
949.716962	-0.021355
949.894078	-0.021975
950.071176	-0.020958
950.248256	-0.019267
950.425317	-0.019106
950.602360	-0.019466
950.779385	-0.019412
950.956391	-0.019284
951.133380	-0.019137
951.310350	-0.017782
951.487302	-0.017430
951.664235	-0.017381
951.841151	-0.017568
952.018048	-0.018071
952.194927	-0.016245
952.371788	-0.016442
952.548631	-0.014968
952.725455	-0.015645
952.902261	-0.015307
953.079049	-0.014481
953.255819	-0.015294
953.432570	-0.014657
953.609303	-0.014333
953.786018	-0.013270
953.962715	-0.013125
954.139394	-0.012805
954.316054	-0.013353
954.492696	-0.014000
954.669320	-0.014125
954.845926	-0.014610
955.022513	-0.015799
955.199083	-0.016215
955.375634	-0.017392
955.552166	-0.015721
955.728681	-0.016304
955.905177	-0.014740
956.081655	-0.015043
956.258115	-0.015466
956.434557	-0.013201
956.610980	-0.013341
956.787385	-0.013009
956.963772	-0.013267
957.140141	-0.013486
957.316492	-0.013215
957.492824	-0.013657
957.669138	-0.012551
957.845434	-0.011769
958.021712	-0.012728
958.197971	-0.012103
958.374212	-0.013268
958.550435	-0.012182
958.726640	-0.012082
958.902826	-0.012129
959.078995	-0.011392
959.255145	-0.012423
959.431277	-0.012134
959.607390	-0.012824
959.783486	-0.011100
959.959563	-0.008015
960.135622	-0.007030
960.311662	-0.006675
960.487685	-0.006677
960.663689	-0.008435
960.839675	-0.006802
961.015643	-0.007459
961.191593	-0.004606
961.367524	-0.004534
961.543437	-0.004837
961.719332	-0.006040
961.895209	-0.005142
962.071067	-0.004534
962.246907	-0.003130
962.422730	-0.002974
962.598533	-0.001882
962.774319	-0.004217
962.950086	-0.004009
963.125835	-0.004772
963.301566	-0.003326
963.477279	-0.003242
963.652973	-0.003005
963.828650	-0.001653
964.004308	-0.002837
964.179947	-0.003938
964.355569	-0.002377
964.531172	-0.003248
964.706757	-0.002841
964.882324	-0.002742
965.057873	-0.003773
965.233403	-0.003623
965.408916	-0.003816
965.584410	-0.003869
965.759885	-0.002922
965.935343	-0.002515
966.110782	-0.000459
966.286203	0.000748
966.461606	0.000280
966.636991	0.001843
966.812357	0.002645
966.987705	0.004036
967.163035	0.005083
967.338347	0.006768
967.513641	0.006682
967.688916	0.005546
967.864173	0.004615
968.039412	0.004709
968.214632	0.004346
968.389835	0.004778
968.565019	0.003633
968.740185	0.003967
968.915333	0.004408
969.090462	0.004544
969.265573	0.005353
969.440667	0.005312
969.615741	0.005857
969.790798	0.006666
969.965836	0.007611
970.140856	0.008271
970.315858	0.008102
970.490842	0.006947
970.665808	0.007004
970.840755	0.006359
971.015684	0.006163
971.190595	0.005680
971.365487	0.003995
971.540362	0.002916
971.715218	0.003453
971.890056	0.003574
972.064875	0.006046
972.239677	0.005105
972.414460	0.003402
972.589225	0.003353
972.763972	0.004226
972.938700	0.003057
973.113411	0.003293
973.288103	0.000975
973.462777	0.001770
973.637432	-0.001725
973.812070	-0.001639
973.986689	-0.001689
974.161290	-0.001708
974.335873	-0.003144
974.510437	-0.002619
974.684984	-0.003868
974.859512	-0.001727
975.034022	-0.001808
975.208513	-0.000168
975.382987	-0.000261
975.557442	0.001972
975.731879	0.002034
975.906298	0.003632
976.080698	0.004368
976.255080	0.006181
976.429445	0.004379
976.603790	0.003412
976.778118	0.002405
976.952427	0.002679
977.126719	0.003197
977.300992	0.005328
977.475246	0.004529
977.649483	0.004779
977.823701	0.002703
977.997901	0.004672
978.172083	0.003070
978.346247	0.004566
978.520392	0.004168
978.694519	0.003891
978.868628	0.002846
979.042719	0.004003
979.216791	0.004154
979.390845	0.005048
979.564882	0.004442
979.738899	0.007970
979.912899	0.006303
980.086880	0.007064
980.260843	0.007670
980.434788	0.006855
980.608715	0.004285
980.782623	0.003963
980.956514	0.004206
981.130386	0.003348
981.304240	0.002628
981.478075	0.004998
981.651892	0.005024
981.825692	0.002969
981.999472	0.003893
982.173235	0.006547
982.346980	0.005974
982.520706	0.005056
982.694414	0.005321
982.868104	0.005070
983.041775	0.004120
983.215428	0.004893
983.389064	0.006506
983.562680	0.008499
983.736279	0.008414
983.909860	0.010178
984.083422	0.012314
984.256966	0.012340
984.430491	0.011462
984.603999	0.011743
984.777488	0.011666
984.950959	0.011303
985.124412	0.009337
985.297847	0.009080
985.471263	0.008560
985.644661	0.006865
985.818041	0.006798
985.991403	0.007990
986.164747	0.008215
986.338072	0.007844
986.511379	0.008685
986.684668	0.007400
986.857938	0.006181
987.031191	0.006454
987.204425	0.007356
987.377641	0.008212
987.550839	0.006884
987.724018	0.006608
987.897179	0.006546
988.070322	0.005036
988.243447	0.007752
988.416554	0.009469
988.589642	0.009899
988.762712	0.010507
988.935764	0.009554
989.108798	0.010515
989.281813	0.009417
989.454811	0.009984
989.627790	0.010419
989.800751	0.008655
989.973693	0.007429
990.146617	0.008195
990.319524	0.007252
990.492412	0.009082
990.665281	0.009155
990.838133	0.008703
991.010966	0.007546
991.183781	0.008368
991.356578	0.008180
991.529356	0.009556
991.702117	0.008477
991.874859	0.008370
992.047583	0.007481
992.220288	0.006434
992.392976	0.006909
992.565645	0.007154
992.738296	0.006938
992.910929	0.006926
993.083543	0.005752
993.256139	0.005974
993.428718	0.006817
993.601277	0.006185
993.773819	0.006815
993.946342	0.006021
994.118848	0.006895
994.291335	0.005809
994.463803	0.005499
994.636254	0.005436
994.808686	0.005420
994.981100	0.006971
995.153496	0.007255
995.325874	0.006108
995.498233	0.008213
995.670574	0.007959
995.842897	0.008855
996.015202	0.010444
996.187488	0.010320
996.359757	0.009954
996.532007	0.007400
996.704239	0.007917
996.876452	0.008793
997.048648	0.009174
997.220825	0.008978
997.392984	0.008991
997.565124	0.007425
997.737247	0.006512
997.909351	0.006410
998.081437	0.007859
998.253505	0.007369
998.425554	0.007392
998.597586	0.005455
998.769599	0.005120
998.941594	0.004805
999.113571	0.005820
999.285529	0.007005
999.457469	0.006480
999.629391	0.005804
999.801295	0.006488
999.973181	0.007697
1000.145048	0.007897
1000.316897	0.007647
1000.488728	0.008281
1000.660541	0.007756
1000.832335	0.007813
1001.004111	0.008445
1001.175869	0.008126
1001.347609	0.006501
1001.519331	0.005245
1001.691034	0.007880
1001.862719	0.007769
1002.034386	0.007841
1002.206035	0.006311
1002.377665	0.004642
1002.549277	0.003752
1002.720871	0.003238
1002.892447	0.004030
1003.064004	0.003662
1003.235544	0.001756
1003.407065	0.001701
1003.578568	0.000130
1003.750052	0.001579
1003.921519	0.004209
1004.092967	0.003748
1004.264397	0.004816
1004.435809	0.005269
1004.607202	0.005304
1004.778577	0.005202
1004.949934	0.005396
1005.121273	0.006051
1005.292594	0.006390
1005.463896	0.005845
1005.635180	0.006297
1005.806446	0.006311
1005.977694	0.005577
1006.148923	0.005777
1006.320135	0.005897
1006.491328	0.006083
1006.662503	0.006811
1006.833659	0.007628
1007.004798	0.008517
1007.175918	0.008997
1007.347020	0.008275
1007.518103	0.007965
1007.689169	0.008472
1007.860216	0.007911
1008.031245	0.008335
1008.202256	0.007325
1008.373248	0.005312
1008.544223	0.003788
1008.715179	0.003551
1008.886117	0.004818
1009.057036	0.004556
1009.227938	0.005643
1009.398821	0.006920
1009.569686	0.007056
1009.740533	0.008514
1009.911361	0.009004
1010.082172	0.008908
1010.252964	0.009065
1010.423738	0.006671
1010.594493	0.006614
1010.765231	0.005080
1010.935950	0.003042
1011.106651	0.001882
1011.277334	0.001258
1011.447998	0.001696
1011.618645	0.001119
1011.789273	0.001653
1011.959882	0.002055
1012.130474	0.002065
1012.301048	0.003411
1012.471603	0.005446
1012.642140	0.005955
1012.812658	0.005151
1012.983159	0.005800
1013.153641	0.006968
1013.324105	0.006386
1013.494551	0.006982
1013.664979	0.008582
1013.835388	0.007424
1014.005779	0.005792
1014.176152	0.006480
1014.346507	0.006397
1014.516843	0.004775
1014.687162	0.003016
1014.857462	0.003906
1015.027744	0.004655
1015.198007	0.002809
1015.368252	0.004042
1015.538480	0.004797
1015.708689	0.004753
1015.878879	0.003968
1016.049052	0.003380
1016.219206	0.003974
1016.389342	0.002377
1016.559460	0.001984
1016.729559	0.003013
1016.899641	0.000626
1017.069704	0.001149
1017.239749	0.001145
1017.409775	0.000636
1017.579784	0.001859
1017.749774	0.003675
1017.919746	0.003198
1018.089700	0.003765
1018.259635	0.004258
1018.429553	0.006686
1018.599452	0.005382
1018.769333	0.005699
1018.939195	0.008104
1019.109040	0.008215
1019.278866	0.007259
1019.448674	0.008821
1019.618464	0.008562
1019.788235	0.008049
1019.957989	0.007338
1020.127724	0.008419
1020.297441	0.008124
1020.467139	0.007412
1020.636820	0.008125
1020.806482	0.007016
1020.976126	0.006603
1021.145752	0.005665
1021.315359	0.004764
1021.484948	0.004146
1021.654519	0.003976
1021.824072	0.003566
1021.993607	0.005647
1022.163123	0.006213
1022.332621	0.007883
1022.502101	0.008940
1022.671563	0.009761
1022.841007	0.009192
1023.010432	0.009997
1023.179839	0.010075
1023.349228	0.009743
1023.518598	0.006203
1023.687951	0.005356
1023.857285	0.004098
1024.026601	0.003462
1024.195899	0.003321
1024.365178	0.003717
1024.534439	0.003481
1024.703682	0.002883
1024.872907	0.002456
1025.042114	0.004627
1025.211302	0.002921
1025.380472	0.004335
1025.549624	0.003955
1025.718758	0.004586
1025.887873	0.003640
1026.056970	0.003436
1026.226049	0.003729
1026.395110	0.003326
1026.564153	0.003045
1026.733177	0.003666
1026.902183	0.003732
1027.071171	0.006048
1027.240141	0.006214
1027.409092	0.008578
1027.578026	0.007770
1027.746940	0.007546
1027.915837	0.008242
1028.084716	0.006926
1028.253576	0.007568
1028.422418	0.006575
1028.591242	0.003862
1028.760048	0.002347
1028.928835	0.001701
1029.097604	0.001699
1029.266355	0.001137
1029.435088	0.001387
1029.603803	0.001374
1029.772499	-0.000386
1029.941177	-0.000031
1030.109837	0.001264
1030.278478	0.002448
1030.447102	0.004164
1030.615707	0.003248
1030.784294	0.004342
1030.952863	0.003975
1031.121413	0.003484
1031.289945	0.005389
1031.458460	0.003768
1031.626955	0.001708
1031.795433	0.001447
1031.963892	0.000514
1032.132334	0.001305
1032.300756	0.000351
1032.469161	0.001239
1032.637548	0.002619
1032.805916	0.002063
1032.974266	0.001691
1033.142598	0.003352
1033.310911	0.002407
1033.479207	0.000842
1033.647484	0.001838
1033.815743	0.001708
1033.983983	0.000105
1034.152206	-0.000112
1034.320410	0.000399
1034.488596	0.002721
1034.656764	0.002535
1034.824914	0.001737
1034.993045	0.002178
1035.161158	0.001634
1035.329253	0.001867
1035.497330	0.003031
1035.665388	0.001551
1035.833428	0.001886
1036.001450	0.000246
1036.169454	0.000587
1036.337440	0.000536
1036.505407	0.001402
1036.673356	0.001346
1036.841287	0.001600
1037.009200	0.001367
1037.177094	0.002573
1037.344970	0.001955
1037.512828	0.001499
1037.680668	0.001966
1037.848489	0.001949
1038.016293	0.001533
1038.184078	0.001450
1038.351845	0.000297
1038.519593	0.000227
1038.687324	0.000895
1038.855036	0.000742
1039.022730	0.001997
1039.190406	0.000792
1039.358063	0.002087
1039.525702	0.001191
1039.693323	0.001608
1039.860926	0.002651
1040.028511	0.001147
1040.196077	0.000143
1040.363625	0.001000
1040.531155	0.000618
1040.698667	0.001099
1040.866161	0.000988
1041.033636	0.001603
1041.201093	0.001688
1041.368532	0.001107
1041.535952	0.001201
1041.703355	0.001521
1041.870739	0.000754
1042.038105	0.001255
1042.205452	0.000469
1042.372782	0.000705
1042.540093	0.001421
1042.707386	0.001224
1042.874661	0.001341
1043.041918	0.002330
1043.209156	0.002834
1043.376376	0.003928
1043.543578	0.002623
1043.710762	0.002425
1043.877927	0.002383
1044.045074	0.000762
1044.212203	0.000143
1044.379314	0.000000
1044.546407	0.000547
1044.713481	0.001509
1044.880537	0.000602
1045.047575	0.001321
1045.214595	0.002635
1045.381596	0.002841
1045.548579	0.002844
1045.715544	0.001782
1045.882491	0.003221
1046.049420	0.002279
1046.216330	-0.000106
1046.383222	-0.000213
1046.550096	0.000840
1046.716951	-0.000659
1046.883789	-0.000793
1047.050608	-0.000657
1047.217409	0.000139
1047.384192	-0.000222
1047.550956	0.000998
1047.717703	0.002473
1047.884431	0.002568
1048.051140	0.001305
1048.217832	0.002056
1048.384505	0.001181
1048.551161	0.003564
1048.717798	0.004042
1048.884416	0.004251
1049.051017	0.003143
1049.217599	0.003135
1049.384163	0.004395
1049.550709	0.004179
1049.717237	0.003353
1049.883746	0.003772
1050.050237	0.001420
1050.216710	0.001773
1050.383165	0.000576
1050.549601	-0.000066
1050.716019	0.000198
1050.882420	-0.002110
1051.048801	0.000156
1051.215165	0.000576
1051.381510	0.000612
1051.547837	0.001045
1051.714146	0.000740
1051.880437	0.001333
1052.046709	0.003897
1052.212964	0.004408
1052.379200	0.005561
1052.545417	0.005198
1052.711617	0.004333
1052.877798	0.003983
1053.043961	0.004319
1053.210106	0.004528
1053.376233	0.005009
1053.542341	0.003082
1053.708432	0.001664
1053.874504	0.002751
1054.040557	0.001610
1054.206593	0.003771
1054.372610	0.004329
1054.538609	0.005649
1054.704590	0.005542
1054.870553	0.005593
1055.036497	0.006590
1055.202424	0.007691
1055.368331	0.006373
1055.534221	0.006568
1055.700093	0.005511
1055.865946	0.006106
1056.031781	0.005132
1056.197598	0.004714
1056.363397	0.004369
1056.529177	0.003878
1056.694939	0.001980
1056.860683	0.001503
1057.026409	0.002461
1057.192116	0.002201
1057.357806	0.003364
1057.523477	0.002947
1057.689130	0.003517
1057.854764	0.002063
1058.020381	0.002796
1058.185979	0.004479
1058.351559	0.005995
1058.517120	0.004951
1058.682664	0.006595
1058.848189	0.006120
1059.013696	0.005145
1059.179185	0.004336
1059.344656	0.007351
1059.510108	0.006007
1059.675542	0.004671
1059.840958	0.004644
1060.006356	0.003333
1060.171735	0.002081
1060.337096	0.000861
1060.502439	0.002131
1060.667764	0.004002
1060.833071	0.003532
1060.998359	0.004800
1061.163629	0.004752
1061.328881	0.002976
1061.494115	0.005649
1061.659330	0.006072
1061.824527	0.005463
1061.989706	0.006990
1062.154867	0.004661
1062.320010	0.003688
1062.485134	0.003322
1062.650240	0.004823
1062.815328	0.005106
1062.980398	0.002933
1063.145449	0.002583
1063.310482	0.003644
1063.475497	0.001276
1063.640494	0.002017
1063.805473	0.000524
1063.970433	0.000287
1064.135375	0.000402
1064.300299	0.000490
1064.465204	0.001113
1064.630092	0.001217
1064.794961	0.001040
1064.959812	0.001979
1065.124645	0.002924
1065.289459	0.005109
1065.454256	0.005573
1065.619034	0.004856
1065.783793	0.005497
1065.948535	0.006520
1066.113258	0.005941
1066.277964	0.005237
1066.442651	0.003569
1066.607319	0.003365
1066.771970	0.003041
1066.936602	0.002303
1067.101216	0.001843
1067.265812	0.000979
1067.430389	-0.000806
1067.594949	0.000189
1067.759490	0.000834
1067.924013	0.001282
1068.088518	0.002092
1068.253004	0.000173
1068.417472	0.001226
1068.581922	0.000251
1068.746354	0.001971
1068.910768	0.002519
1069.075163	-0.000630
1069.239540	-0.000352
1069.403899	0.002000
1069.568240	0.000165
1069.732562	0.002053
1069.896866	0.002482
1070.061152	0.003912
1070.225420	0.004069
1070.389670	0.002267
1070.553901	0.004909
1070.718114	0.003336
1070.882309	0.002142
1071.046486	0.003014
1071.210644	0.002812
1071.374784	0.004190
1071.538906	0.002422
1071.703010	0.001322
1071.867096	0.003382
1072.031163	0.001932
1072.195212	0.002217
1072.359243	0.001336
1072.523256	0.000778
1072.687250	-0.000516
1072.851226	-0.002571
1073.015184	0.000437
1073.179124	-0.001124
1073.343045	-0.001363
1073.506949	-0.000565
1073.670834	-0.000557
1073.834701	-0.000046
1073.998549	0.000830
1074.162380	0.002542
1074.326192	0.001966
1074.489986	0.001216
1074.653761	0.003150
1074.817519	0.003031
1074.981258	0.003533
1075.144979	0.003660
1075.308682	0.003234
1075.472367	0.002295
1075.636033	0.001453
1075.799681	0.003133
1075.963311	0.003384
1076.126923	0.004074
1076.290516	0.004543
1076.454092	0.005048
1076.617649	0.005607
1076.781187	0.005432
1076.944708	0.007095
1077.108210	0.005593
1077.271695	0.003157
1077.435160	0.003048
1077.598608	0.004081
1077.762038	0.004667
1077.925449	0.003214
1078.088842	0.002953
1078.252217	0.004273
1078.415573	0.003099
1078.578912	0.005137
1078.742232	0.006721
1078.905534	0.008150
1079.068817	0.008181
1079.232083	0.006115
1079.395330	0.008217
1079.558559	0.008732
1079.721770	0.008413
1079.884962	0.008107
1080.048136	0.005861
1080.211293	0.006072
1080.374430	0.002958
1080.537550	0.001340
1080.700651	0.002084
1080.863735	0.001154
1081.026800	0.001904
1081.189846	0.001121
1081.352875	0.000577
1081.515885	-0.001028
1081.678877	0.000041
1081.841851	0.000864
1082.004807	0.001380
1082.167744	0.001982
1082.330663	0.003231
1082.493564	0.004562
1082.656447	0.006317
1082.819312	0.007617
1082.982158	0.009796
1083.144986	0.006938
1083.307796	0.008534
1083.470587	0.008059
1083.633361	0.008515
1083.796116	0.008493
1083.958853	0.006402
1084.121571	0.004165
1084.284272	0.003496
1084.446954	0.005351
1084.609618	0.006066
1084.772264	0.005352
1084.934892	0.002968
1085.097501	0.001477
1085.260092	-0.000571
1085.422665	-0.003268
1085.585220	-0.000969
1085.747756	-0.002655
1085.910274	-0.002560
1086.072774	-0.002346
1086.235256	-0.004654
1086.397720	-0.002715
1086.560165	-0.000205
1086.722592	-0.001017
1086.885001	0.000565
1087.047392	-0.001087
1087.209764	0.001779
1087.372119	-0.000882
1087.534455	-0.001047
1087.696772	0.000004
1087.859072	-0.000985
1088.021353	-0.001974
1088.183616	-0.000919
1088.345861	-0.001529
1088.508088	-0.001952
1088.670296	-0.004084
1088.832486	-0.001577
1088.994658	-0.002691
1089.156812	-0.003350
1089.318948	-0.004009
1089.481065	-0.004545
1089.643164	-0.004091
1089.805245	-0.001304
1089.967308	-0.000738
1090.129352	-0.000785
1090.291378	-0.002166
1090.453386	-0.001738
1090.615376	-0.001066
1090.777347	0.000904
1090.939301	0.000121
1091.101236	-0.001450
1091.263153	-0.003727
1091.425051	-0.004718
1091.586932	-0.003447
1091.748794	-0.003749
1091.910638	-0.001857
1092.072463	-0.002801
1092.234271	-0.002678
1092.396060	0.000193
1092.557831	0.001946
1092.719584	0.000699
1092.881319	0.002151
1093.043035	-0.000231
1093.204733	0.000462
1093.366413	-0.000607
1093.528075	0.000347
1093.689718	0.001918
1093.851343	-0.001379
1094.012950	-0.001479
1094.174539	0.001180
1094.336110	0.003368
1094.497662	0.005151
1094.659196	0.005919
1094.820712	0.005559
1094.982210	0.007357
1095.143689	0.004089
1095.305151	0.005203
1095.466594	0.003484
1095.628018	0.004020
1095.789425	-0.000095
1095.950813	0.001212
1096.112183	-0.000379
1096.273535	0.002611
1096.434869	-0.001579
1096.596184	-0.001968
1096.757482	-0.000855
1096.918761	-0.000645
1097.080021	-0.001480
1097.241264	-0.000407
1097.402488	-0.002375
1097.563694	-0.001123
1097.724882	-0.007615
1097.886052	-0.003678
1098.047203	-0.003363
1098.208336	-0.003136
1098.369451	-0.001011
1098.530548	-0.001566
1098.691627	-0.001612
1098.852687	-0.002497
1099.013729	-0.001810
1099.174753	0.001428
1099.335758	0.001650
1099.496746	0.004471
1099.657715	0.002714
1099.818666	0.004003
1099.979599	0.006509
1100.140513	0.008414
1100.301409	0.010224
1100.462287	0.008819
1100.623147	0.008979
1100.783989	0.007956
1100.944812	0.004401
1101.105617	0.005225
1101.266404	0.001913
1101.427173	0.002483
1101.587923	0.003564
1101.748656	0.005762
1101.909370	0.007612
1102.070066	0.006268
1102.230743	0.006062
1102.391403	0.006355
1102.552044	0.005162
1102.712667	0.006847
1102.873271	0.003538
1103.033858	-0.001601
1103.194426	-0.004942
1103.354976	-0.006350
1103.515508	-0.002743
1103.676021	-0.005399
1103.836517	-0.003373
1103.996994	-0.000976
1104.157453	-0.002441
1104.317893	-0.003383
1104.478316	-0.000116
1104.638720	0.000980
1104.799106	0.002067
1104.959474	-0.000339
1105.119823	0.000867
1105.280155	0.000870
1105.440468	-0.002442
1105.600763	-0.001217
1105.761039	-0.002053
1105.921298	-0.003825
1106.081538	-0.002937
1106.241760	-0.006030
1106.401964	-0.003387
1106.562149	-0.003164
1106.722316	-0.003996
1106.882465	-0.001782
1107.042596	-0.003569
1107.202709	-0.001796
1107.362803	-0.000056
1107.522879	-0.002022
1107.682937	0.000012
1107.842977	-0.002509
1108.002999	-0.002010
1108.163002	-0.002558
1108.322987	-0.004703
1108.482954	-0.004799
1108.642902	-0.005967
1108.802833	-0.001243
1108.962745	0.000071
1109.122639	0.000278
1109.282515	0.000233
1109.442372	0.002050
1109.602211	0.002936
1109.762032	0.007128
1109.921835	0.007272
1110.081620	0.010424
1110.241386	0.006513
1110.401134	0.008412
1110.560864	0.006900
1110.720576	0.008595
1110.880269	0.006566
1111.039945	0.004836
1111.199602	0.002198
1111.359240	0.004497
1111.518861	0.001937
1111.678463	-0.001039
1111.838047	-0.002472
1111.997613	0.001288
1112.157161	-0.001329
1112.316690	0.001161
1112.476202	0.003575
1112.635695	0.002459
1112.795169	0.000154
1112.954626	-0.000142
1113.114064	0.001159
1113.273484	-0.000262
1113.432886	0.000148
1113.592270	0.000410
1113.751635	0.001020
1113.910983	0.004400
1114.070312	0.003025
1114.229622	0.007303
1114.388915	0.009843
1114.548189	0.008487
1114.707445	0.008202
1114.866683	0.007563
1115.025903	0.006712
1115.185104	0.005185
1115.344287	0.001358
1115.503452	0.005686
1115.662599	0.002805
1115.821727	0.001799
1115.980838	0.003099
1116.139930	0.009002
1116.299004	0.008985
1116.458059	0.011424
1116.617097	0.012647
1116.776116	0.008418
1116.935117	0.005630
1117.094099	0.007616
1117.253064	0.008316
1117.412010	0.008504
1117.570938	0.004093
1117.729848	0.005975
1117.888740	0.007017
1118.047613	0.005881
1118.206468	0.010593
1118.365305	0.015117
1118.524124	0.013655
1118.682924	0.012514
1118.841707	0.010360
1119.000471	0.011908
1119.159216	0.008836
1119.317944	0.009138
1119.476653	0.008546
1119.635344	0.004952
1119.794017	-0.000193
1119.952672	-0.004131
1120.111308	-0.000514
1120.269927	0.000284
1120.428527	0.000489
1120.587108	-0.002000
1120.745672	-0.001127
1120.904217	-0.000385
1121.062744	0.002340
1121.221253	0.003107
1121.379744	0.007530
1121.538216	0.005872
1121.696671	0.007084
1121.855107	0.006143
1122.013524	0.006930
1122.171924	0.000571
1122.330305	0.002043
1122.488668	0.001576
1122.647013	0.006434
1122.805340	0.009980
1122.963648	0.009694
1123.121938	0.011984
1123.280210	0.007496
1123.438464	0.007865
1123.596700	0.011204
1123.754917	0.011314
1123.913116	0.012791
1124.071297	0.008594
1124.229459	0.000389
1124.387604	-0.002997
1124.545730	-0.006541
1124.703838	-0.001583
1124.861928	-0.001111
1125.019999	-0.000653
1125.178052	-0.001846
1125.336088	-0.003744
1125.494104	-0.002329
1125.652103	0.000958
1125.810083	0.000648
1125.968045	-0.000486
1126.125989	0.001519
1126.283915	0.002000
1126.441823	-0.002700
1126.599712	-0.003169
1126.757583	-0.000313
1126.915436	-0.008852
1127.073270	-0.008194
1127.231087	-0.001778
1127.388885	0.002385
1127.546665	0.000243
1127.704426	0.002349
1127.862170	0.005064
1128.019895	0.002616
1128.177602	-0.002558
1128.335291	0.002835
1128.492961	0.000171
1128.650614	-0.001480
1128.808248	-0.007932
1128.965864	-0.010692
1129.123461	-0.010908
1129.281041	-0.009153
1129.438602	-0.005489
1129.596145	-0.004070
1129.753670	0.003354
1129.911176	0.007215
1130.068665	0.003519
1130.226135	0.011138
1130.383587	0.016014
1130.541020	0.015515
1130.698436	0.015616
1130.855833	0.018142
1131.013212	0.023647
1131.170573	0.010512
1131.327915	0.005564
1131.485239	0.007873
1131.642545	0.000521
1131.799833	-0.003394
1131.957103	-0.004851
1132.114354	-0.008462
1132.271588	-0.011643
1132.428803	-0.015611
1132.585999	-0.007739
1132.743178	0.000332
1132.900338	0.003484
1133.057480	0.011675
1133.214604	0.014396
1133.371710	0.015857
1133.528797	0.013685
1133.685866	0.012086
1133.842917	0.017186
1133.999950	0.024337
1134.156964	0.022487
1134.313960	0.017493
1134.470938	0.013960
1134.627898	0.010827
1134.784840	0.007479
1134.941763	0.017866
1135.098668	0.019360
1135.255555	0.016547
1135.412424	0.009431
1135.569274	0.006625
1135.726107	0.005376
1135.882921	0.005325
1136.039716	0.010266
1136.196494	0.006118
1136.353253	0.005991
1136.509995	0.002921
1136.666717	0.001745
1136.823422	-0.000338
1136.980109	0.000739
1137.136777	0.007549
1137.293427	0.008626
1137.450059	0.008972
1137.606672	0.012311
1137.763267	0.012003
1137.919844	0.015492
1138.076403	0.015471
1138.232944	0.021025
1138.389466	0.024780
1138.545971	0.019805
1138.702457	0.012215
1138.858924	0.006080
1139.015374	0.008077
1139.171805	0.007741
1139.328218	0.007794
1139.484613	0.006264
1139.640990	0.004981
1139.797348	-0.000506
1139.953688	-0.000634
1140.110010	0.003828
1140.266314	0.011460
1140.422600	0.012164
1140.578867	0.006367
1140.735116	0.004770
1140.891347	0.004320
1141.047559	0.003361
1141.203754	0.006118
1141.359930	0.000257
1141.516088	0.003216
1141.672228	-0.001068
1141.828349	-0.002446
1141.984452	-0.005543
1142.140537	-0.004613
1142.296604	-0.001551
1142.452653	-0.005281
1142.608683	-0.009815
1142.764695	-0.001277
1142.920689	-0.004354
1143.076665	-0.013618
1143.232622	-0.017741
1143.388562	-0.009420
1143.544483	-0.012709
1143.700385	-0.013633
1143.856270	-0.015109
1144.012136	-0.014285
1144.167985	-0.015631
1144.323814	-0.012976
1144.479626	-0.003930
1144.635420	-0.000328
1144.791195	-0.007140
1144.946952	-0.001387
1145.102691	-0.003392
1145.258411	-0.001618
1145.414113	-0.009301
1145.569798	-0.008491
1145.725463	-0.005915
1145.881111	-0.009333
1146.036741	-0.006445
1146.192352	0.002285
1146.347945	-0.002176
1146.503519	-0.001256
1146.659076	-0.000451
1146.814614	0.007679
1146.970134	0.012214
1147.125636	0.003516
1147.281120	-0.001503
1147.436585	-0.005349
1147.592032	-0.006616
1147.747461	-0.006340
1147.902872	-0.007671
1148.058265	-0.005784
1148.213639	0.000510
1148.368995	-0.006509
1148.524333	-0.003481
1148.679653	0.003042
1148.834954	0.000683
1148.990237	-0.003813
1149.145502	-0.007139
1149.300749	-0.002897
1149.455977	-0.007792
1149.611188	-0.011589
1149.766380	-0.013524
1149.921553	-0.015750
1150.076709	-0.010593
1150.231846	-0.006607
1150.386966	-0.000845
1150.542066	-0.001838
1150.697149	-0.002777
1150.852214	0.006550
1151.007260	0.012969
1151.162288	0.006615
1151.317298	0.008061
1151.472289	-0.004128
1151.627263	-0.001279
1151.782218	-0.009311
1151.937155	-0.003241
1152.092073	-0.001179
1152.246974	-0.005812
1152.401856	-0.008959
1152.556720	-0.000383
1152.711566	0.006323
1152.866393	0.006086
1153.021203	0.008618
1153.175994	0.010581
1153.330767	0.010529
1153.485521	0.009214
1153.640258	0.006605
1153.794976	0.005117
1153.949676	0.002791
1154.104358	-0.005962
1154.259021	0.005237
1154.413667	0.000282
1154.568294	-0.005004
1154.722903	-0.004902
1154.877493	-0.009836
1155.032066	-0.005999
1155.186620	-0.008128
1155.341156	-0.008746
1155.495674	-0.007679
1155.650173	-0.015844
1155.804654	-0.021487
1155.959118	-0.017043
1156.113562	-0.019227
1156.267989	-0.018389
1156.422397	-0.023685
1156.576788	-0.019034
1156.731160	-0.019157
1156.885513	-0.013959
1157.039849	-0.012085
1157.194166	-0.000033
1157.348465	-0.007373
1157.502746	-0.005954
1157.657009	-0.005694
1157.811253	-0.000798
1157.965479	-0.013525
1158.119687	-0.017987
1158.273877	-0.015568
1158.428048	-0.011530
1158.582201	-0.012705
1158.736337	0.001517
1158.890453	-0.003041
1159.044552	-0.006342
1159.198632	-0.000792
1159.352694	0.003951
1159.506738	0.024905
1159.660764	0.023763
1159.814771	0.036838
1159.968761	0.035821
1160.122732	0.038575
1160.276685	0.049112
1160.430619	0.052089
1160.584535	0.038397
1160.738434	0.039344
1160.892313	0.029514
1161.046175	0.037174
1161.200019	0.026789
1161.353844	0.026297
1161.507651	0.013304
1161.661440	0.004223
1161.815210	0.010851
1161.968962	0.019350
1162.122697	0.019550
1162.276412	0.021358
1162.430110	0.014763
1162.583789	0.017524
1162.737451	0.019592
1162.891094	0.026980
1163.044718	0.029323
1163.198325	0.021358
1163.351913	0.010866
1163.505483	0.011988
1163.659035	0.008808
1163.812569	-0.005311
1163.966084	-0.020684
1164.119581	-0.024952
1164.273060	-0.026194
1164.426521	-0.026937
1164.579964	-0.016371
1164.733388	-0.009964
1164.886794	-0.008728
1165.040182	-0.019543
1165.193551	-0.001368
1165.346903	-0.002211
1165.500236	-0.004742
1165.653551	-0.007513
1165.806848	-0.005433
1165.960126	-0.007220
1166.113386	-0.003573
1166.266628	-0.009525
1166.419852	0.003286
1166.573058	-0.000406
1166.726245	0.008974
1166.879414	0.019090
1167.032565	0.016816
1167.185698	0.018573
1167.338812	0.021158
1167.491909	0.033633
1167.644987	0.030661
1167.798046	0.017540
1167.951088	0.018135
1168.104111	0.023412
1168.257117	0.005294
1168.410103	0.011662
1168.563072	0.005631
1168.716023	-0.012629
1168.868955	-0.022717
1169.021869	-0.011998
1169.174765	-0.009356
1169.327642	-0.019366
1169.480501	-0.024824
1169.633343	-0.016432
1169.786165	-0.014641
1169.938970	-0.012418
1170.091757	-0.019591
1170.244525	-0.024513
1170.397275	-0.023478
1170.550007	-0.023383
1170.702720	-0.014319
1170.855415	-0.018727
1171.008092	-0.023692
1171.160751	-0.033575
1171.313392	-0.039309
1171.466014	-0.059180
1171.618619	-0.050541
1171.771205	-0.050541
1171.923772	-0.050541
