sample name	sample
index	134
start time	 02-15-2021  01:30:06 PM
880	-0.011683
Peak Time (s)	92.035
Peak Height 	-0.01168
calc peak height	90,93
Baseline Time (s)	11.535
Baseline Value 	-0.003433
subtract baseline	10,4
Abs	-0.003234
Peak Time (s)	92.035
Peak Height 	-0.003234
calc peak height	90,93
Baseline Time (s)	10.535
Baseline Value 	-0.002057
subtract baseline	10,3
PK_550	0.001317
Peak Time (s)	90.537
Peak Height 	0.001317
calc peak height	90,93
Baseline Time (s)	8.536
Baseline Value 	-4.1483E-4
subtract baseline	10,2
PK_880	-0.004564
Peak Time (s)	90.037
Peak Height 	-0.004564
calc peak height	90,93
Baseline Time (s)	10.037
Baseline Value 	8.4815E-4
subtract baseline	10,1


Time (s)	A880-A510	A880-A775	A880-A975	A880	I510	I775	I975	I880	
0.034500	-0.002709	-0.000704	-0.000126	0.007633	4228.554084	15332.360293	3261.798347	8760.669863
0.534500	0.001185	-0.001570	0.006897	0.003369	4251.064278	15428.482273	3268.982445	8817.282810
1.035000	-0.005327	-0.001042	0.000451	0.002722	4234.835578	15461.852111	3265.267885	8825.912402
1.535000	-0.000580	-0.001439	-0.005954	0.000457	4254.262537	15515.175059	3262.646745	8856.257707
2.036000	-0.000631	-0.000323	0.006231	0.005293	4240.689146	15409.233942	3267.316909	8791.660342
2.535500	0.001460	0.001546	0.006950	0.003539	4251.355640	15512.382131	3268.907238	8815.011149
3.035500	0.007314	0.000443	0.001539	-0.000017	4277.855616	15582.704933	3267.713308	8862.623941
3.536000	0.001805	0.000120	0.010557	0.000552	4260.671851	15557.092706	3273.189713	8854.980634
4.039500	-0.002148	0.000003	-0.016209	0.001390	4247.296983	15529.725786	3255.686236	8843.736886
4.537500	0.000051	-0.001033	-0.004309	-0.001346	4261.078729	15578.506184	3264.828521	8880.531782
5.037500	0.006380	0.002600	0.003526	0.001940	4269.653961	15588.457013	3267.732914	8836.373659
5.535000	0.001328	-0.000200	0.003871	0.000015	4260.843792	15563.327730	3269.194243	8862.203925
6.035500	-0.000450	0.000842	-0.000425	0.000648	4254.092621	15575.062092	3266.031316	8853.695411
6.535500	0.001294	0.000495	0.000932	0.000653	4258.955253	15564.968001	3266.895413	8853.624840
7.036000	0.004107	0.000084	0.010625	-0.000077	4268.929139	15574.123542	3273.645999	8863.429711
7.536000	-0.001425	0.000635	0.002753	-0.000273	4253.939158	15595.591713	3268.658395	8866.067360
8.036000	-0.002156	0.000197	0.002033	-0.000086	4251.381135	15577.640584	3268.075296	8863.559749
8.535500	0.004252	0.000000	0.003762	-0.000562	4270.709276	15585.640793	3269.496052	8869.957809
9.037000	-0.002056	-0.000461	-0.005936	-0.000273	4252.178686	15564.098116	3263.118350	8866.067902
9.537000	0.001852	0.002189	-0.002413	0.000641	4260.555444	15614.050324	3264.770821	8853.793081
10.037500	0.000000	0.001574	-0.019895	0.001739	4252.303936	15564.761035	3253.219934	8839.070690
10.535000	-0.001461	-0.001136	0.000000	-0.002448	4259.928352	15607.245508	3268.286871	8895.407705
11.035000	-0.001690	-0.000509	0.000469	0.000012	4252.407546	15554.540582	3267.009161	8862.240233
11.535000	0.001401	0.000407	0.014921	0.000000	4261.087721	15581.188406	3276.425300	8862.399929
12.036000	0.000827	0.001866	0.001396	0.000895	4256.971009	15597.400369	3267.037564	8850.376372
12.536500	0.001165	-0.000614	0.013693	-0.000299	4261.267766	15560.465295	3275.811164	8866.426252
13.037000	0.001241	0.001168	0.011771	-0.000803	4262.893501	15626.207992	3274.875768	8873.199747
13.537000	-0.001091	0.000002	0.002223	-0.000635	4255.885555	15587.796436	3268.550586	8870.941085
14.037000	0.002125	0.001837	-0.013981	0.002927	4254.918582	15538.239776	3256.111038	8823.183545
14.537000	-0.003154	0.000509	-0.003879	0.001345	4244.633817	15545.516915	3263.395888	8844.348516
15.042500	0.000013	0.000792	-0.004401	-0.001259	4260.725706	15628.542603	3264.714463	8879.349041
15.535000	0.000690	0.000549	0.002574	-0.000591	4260.751744	15602.293477	3268.748251	8870.353729
16.035500	0.001400	0.000981	0.014995	-0.000026	4261.159512	15598.458763	3276.492244	8862.755331
16.536000	0.001806	-0.001089	-0.007909	-0.001126	4265.395200	15570.552538	3262.412104	8877.555152
17.036000	0.002314	0.001443	-0.019687	-0.003335	4273.076435	15707.448260	3256.453041	8907.408220
17.536000	0.001290	0.000684	-0.014187	0.000350	4259.794307	15579.086230	3257.573416	8857.699081
18.038500	0.001457	0.000787	-0.003864	0.000444	4259.999846	15579.378596	3263.975613	8856.439093
18.536500	-0.001612	-0.000390	-0.000856	0.000415	4251.501197	15546.396176	3265.905242	8856.824817
19.037500	-0.001089	-0.000263	0.002330	0.000416	4252.953904	15550.006804	3267.943439	8856.804783
19.537500	0.002685	0.000286	0.004599	0.000871	4262.248277	15552.685729	3269.110997	8850.694295
20.035000	-0.004188	0.000726	-0.000336	0.000749	4243.420297	15568.855907	3266.023948	8852.340488
20.538000	-0.002091	0.001736	0.010873	0.002187	4245.245494	15556.555599	3272.327648	8833.069032
21.035500	0.002410	0.001868	-0.008399	0.001145	4260.708017	15590.295771	3260.679245	8847.028729
21.535000	-0.002086	0.000639	-0.001662	0.001120	4248.220624	15555.690017	3264.943251	8847.360248
22.036500	-0.001611	-0.000659	0.001290	-0.000305	4253.509750	15559.342704	3267.739077	8866.503651
22.536000	-0.003610	0.001070	0.002641	-0.000086	4247.336608	15602.755016	3268.466737	8863.560773
23.036000	0.003436	-0.000150	0.002951	0.000107	4266.517167	15562.133947	3268.542099	8860.966949
23.536500	-0.000549	0.000199	0.001224	0.001318	4251.946812	15537.395745	3266.656864	8844.706506
24.037000	0.002787	-0.000406	-0.000359	-0.000270	4265.746691	15565.594226	3266.659498	8866.027835
24.534000	0.002867	-0.000130	-0.011511	0.000594	4263.539270	15548.715754	3259.081996	8854.418428
25.035000	0.001926	0.000449	0.000279	0.001307	4258.894283	15544.868516	3266.059719	8844.851041
25.535000	0.003820	-0.000310	0.004622	0.000720	4265.866754	15539.948327	3269.223025	8852.721247
26.035000	0.002713	0.000342	-0.003036	0.000922	4262.184441	15552.840711	3264.197034	8850.013721
26.535500	0.004627	0.001342	0.001036	0.001491	4265.969326	15565.226603	3266.426062	8842.386446
27.036500	0.001226	0.000354	-0.003922	-0.001989	4266.191911	15636.943250	3265.482920	8889.197317
27.539000	0.003209	-0.000439	0.002462	-0.002837	4274.203837	15638.560595	3270.126644	8900.667153
28.037000	0.005618	0.001085	-0.008003	-0.000635	4274.792193	15618.995599	3262.044332	8870.947913
28.539500	0.000018	-0.000438	0.008920	-0.001479	4261.358875	15599.421209	3273.448179	8882.320316
29.037500	0.000636	-0.000419	0.037459	-0.001571	4263.353692	15602.613694	3292.834412	8883.558705
29.534000	0.005145	0.001922	0.011967	0.000793	4269.405634	15601.964361	3273.955847	8851.751749
30.035000	0.003059	0.000932	-0.001215	-0.000762	4267.904013	15618.239551	3266.427112	8872.653755
30.535500	0.002443	0.001818	-0.005682	0.002920	4255.826067	15537.891946	3261.269109	8823.267109
31.035000	0.000925	0.000697	0.001561	0.001497	4255.561139	15546.535264	3266.757772	8842.308779
31.536000	0.001963	0.002589	-0.000907	0.001299	4259.020126	15606.579073	3265.309439	8844.957647
32.036500	0.003041	0.000015	0.001616	0.000271	4264.939802	15562.162860	3267.578145	8858.757978
32.536500	0.005836	0.000573	0.002698	-0.000228	4274.254432	15592.523741	3268.594619	8865.471823
33.037000	-0.000652	0.001066	0.005406	0.000254	4254.626282	15592.825336	3270.031365	8858.980844
33.536500	0.002473	0.000523	-0.002133	0.001131	4260.924476	15552.055585	3264.636932	8847.215981
34.037500	0.002614	0.002471	0.015713	0.002184	4258.363883	15577.725966	3275.505379	8833.104287
34.535000	0.003738	0.002526	-0.003208	0.002066	4261.850489	15582.725495	3263.364404	8834.693205
35.035000	0.001373	-0.000300	-0.000706	-0.000374	4262.060524	15571.640705	3266.504729	8867.432601
35.535500	0.002585	0.000266	0.004077	0.001063	4261.428986	15546.635441	3268.651114	8848.122491
36.035500	-0.000441	0.000463	0.003844	0.000341	4254.973673	15572.997050	3268.966298	8857.818289
36.536000	0.002814	0.001722	-0.009139	0.001401	4261.124679	15578.738858	3260.057002	8843.599325
37.039500	0.000503	0.000903	-0.003067	0.001207	4255.191317	15560.772622	3263.996804	8846.194562
37.537000	0.003257	0.000090	0.002680	-0.000116	4266.637427	15575.397709	3268.510615	8863.953324
38.037000	0.001077	-0.000551	0.006781	-0.000256	4260.897894	15561.031480	3271.254077	8865.839620
38.534500	0.002307	0.001191	0.002010	0.001044	4260.701347	15573.696830	3267.335242	8848.373754
39.035000	0.003105	0.000332	-0.001234	0.000737	4263.806471	15557.863769	3265.459027	8852.493027
39.535000	0.001520	0.001299	0.000045	0.001200	4258.057205	15572.355316	3265.979244	8846.288535
40.034500	0.004593	0.001315	0.008871	0.000630	4268.304122	15589.190978	3272.037562	8853.937769
40.535500	-0.001884	0.001290	-0.001171	0.001119	4248.783535	15574.416751	3265.255870	8847.371888
41.036000	-0.001383	0.000227	0.016778	0.000621	4251.565379	15558.178401	3277.244624	8854.056015
41.536000	0.002509	0.001790	-0.005488	0.001798	4259.152244	15569.286355	3262.096093	8838.279027
42.037000	0.001115	0.000198	0.006304	0.000182	4259.774395	15569.946565	3270.659634	8859.953802
42.537000	0.000579	0.000190	0.000639	0.000580	4257.157872	15558.302658	3266.754467	8854.603663
43.037000	0.000163	0.002424	0.011608	0.001888	4252.342080	15584.919042	3273.003392	8837.072884
43.534500	0.001502	0.001343	-0.004449	0.000331	4260.444473	15598.586864	3263.676507	8857.953773
44.038000	-0.000135	-0.000209	0.000907	-0.000575	4258.392342	15580.006433	3267.666125	8870.129869
44.535500	0.002309	0.000097	0.022710	-0.000942	4266.294532	15599.377812	3282.263557	8875.081713
45.035500	-0.000833	0.000870	0.008409	-0.001068	4257.821477	15625.291689	3272.844716	8876.783645
45.535500	0.001634	0.001816	-0.013416	-0.000335	4262.685146	15631.443326	3258.475384	8866.910730
46.036500	0.005669	0.000851	-0.000241	0.000014	4273.093086	15593.565472	3266.553633	8862.209279
46.536000	-0.001148	0.001463	0.004148	-0.000660	4255.796076	15630.620700	3269.808981	8871.277714
47.037000	-0.002296	-0.001192	0.013169	-0.000698	4252.695745	15555.331768	3275.728452	8871.792276
47.537500	-0.000355	0.000606	-0.006169	0.003179	4247.309483	15495.833471	3260.802169	8819.812439
48.037500	0.001030	0.000825	0.006259	0.000537	4258.541753	15577.774782	3270.400498	8855.183077
48.534500	0.003759	-0.000869	0.008499	-0.002402	4274.529044	15613.600907	3273.776807	8894.780312
49.035000	0.003720	0.001557	-0.006621	0.000024	4267.550545	15613.614164	3262.499257	8862.079843
49.535000	0.004453	-0.000547	0.004100	0.001349	4265.879452	15515.158103	3268.481610	8844.288354
50.035500	-0.004620	-0.001869	-0.002236	-0.002272	4250.604829	15581.071730	3266.739663	8893.021319
50.536000	-0.036477	-0.029601	0.022255	0.296758	3605.881004	8980.249005	3136.585472	5971.664202
51.039000	0.000679	-0.005767	-0.030462	0.058244	4106.250230	13860.311041	3215.403227	8129.541894
51.536500	-0.016318	-0.011697	-0.010247	0.014661	4173.464549	14835.063984	3251.234928	8668.572035
52.036500	-0.005355	-0.011480	-0.004686	-0.125682	4645.267439	19320.758117	3355.955997	10822.142515
52.537000	-0.017600	-0.010332	-0.008661	-0.104216	4525.485343	18579.224091	3335.074765	10446.023310
53.037500	-0.017684	-0.005915	-0.011608	-0.050887	4353.749666	16930.231703	3293.009545	9588.289609
53.535000	-0.021356	-0.006138	-0.009066	-0.066046	4388.920332	17414.214593	3305.657362	9821.486335
54.034500	-0.014830	-0.009152	-0.018041	-0.077322	4445.298735	17689.195261	3307.339578	10000.299576
54.536000	-0.012169	-0.007122	-0.003658	-0.054786	4382.503261	17016.226706	3301.418385	9647.484374
55.035500	-0.015904	-0.010991	-0.009481	-0.049491	4354.906516	16725.613351	3293.521276	9567.209646
55.535500	-0.009561	-0.007716	-0.000596	-0.034791	4329.876342	16371.755425	3289.470273	9349.414527
56.036500	-0.008111	-0.008803	-0.005319	-0.032775	4328.197048	16277.255516	3284.842937	9320.116028
56.536500	-0.011902	-0.006521	-0.003995	-0.024189	4292.044538	16087.344282	3279.936703	9196.852652
57.037000	-0.009237	-0.008098	-0.004102	-0.017827	4281.445239	15852.041517	3275.634981	9107.075847
57.537000	-0.011267	-0.007884	-0.012632	-0.011084	4256.648026	15661.728346	3265.728078	9013.340220
58.037500	-0.009562	-0.003975	-0.009583	-0.014855	4272.068948	15885.883460	3270.109361	9065.586359
58.535500	-0.007570	-0.002351	-0.006115	-0.015598	4279.842923	15955.782039	3272.848468	9075.930576
59.035500	-0.008969	-0.006555	-0.011558	-0.015523	4275.647108	15829.711059	3269.264716	9074.889605
59.536000	-0.007409	-0.005490	-0.018746	-0.014899	4278.308247	15842.643543	3264.267129	9066.195192
60.036000	-0.006598	-0.002455	0.004914	-0.015252	4281.630175	15942.473838	3279.918817	9071.115149
60.539000	-0.011017	-0.007138	-0.005625	-0.010721	4256.334036	15672.829634	3269.995010	9008.341421
61.036500	-0.006497	-0.004915	0.000213	-0.004789	4252.388425	15565.879159	3269.934452	8927.147519
61.537000	-0.005744	-0.004240	-0.002138	-0.010669	4271.024996	15755.498520	3272.227120	9007.628028
62.037500	-0.008311	-0.002487	-0.013308	-0.028563	4315.193089	16341.275452	3276.646876	9259.350875
62.537500	-0.006989	-0.001470	-0.031739	-0.036814	4343.581654	16626.943697	3269.982083	9378.962219
63.036000	-0.006845	-0.002056	-0.019509	-0.042955	4362.559589	16801.093758	3282.123884	9469.461261
63.535000	-0.006961	-0.003105	-0.019290	-0.046610	4373.372530	16883.583748	3284.751273	9523.953673
64.038500	-0.005313	-0.001627	-0.006051	-0.045211	4374.131542	16886.067427	3292.925697	9503.033649
64.536000	-0.004062	-0.001026	-0.015681	-0.045191	4377.918502	16904.546307	3286.246565	9502.749025
65.037000	-0.005396	0.000956	-0.002927	-0.042113	4364.408898	16869.752594	3292.944029	9456.981019
65.536500	-0.002660	-0.002440	-0.015816	-0.043555	4377.194767	16807.914906	3285.035800	9478.374301
66.036500	-0.007038	-0.000959	-0.004028	-0.040479	4354.467275	16757.677638	3291.035659	9432.826847
66.537000	-0.011838	-0.001828	-0.021731	-0.040139	4339.020315	16719.696383	3278.742773	9427.808557
67.037000	-0.003024	-0.001147	-0.006103	-0.037981	4359.058802	16673.452728	3287.871527	9396.059806
67.537500	-0.012343	-0.003303	-0.008968	-0.031748	4312.709326	16413.701821	3281.674742	9305.247506
68.035500	-0.011597	-0.003148	-0.013669	-0.035935	4327.230964	16547.499431	3281.328608	9366.103532
68.535000	-0.004245	-0.001055	-0.008826	-0.035199	4346.969246	16589.597713	3284.106411	9355.359575
69.036000	-0.007857	-0.000500	0.002011	-0.033450	4330.954336	16552.572294	3290.348348	9329.920388
69.536000	-0.008909	-0.001514	-0.017082	-0.032683	4325.563133	16497.487072	3276.876025	9318.788119
70.039000	-0.010584	0.000280	-0.010945	-0.028932	4309.619272	16437.238806	3278.461844	9264.645305
70.536500	-0.008363	0.000199	-0.011753	-0.029959	4319.141961	16466.365859	3278.608505	9279.428369
71.036500	-0.008001	-0.001811	-0.012680	-0.029282	4318.212687	16383.881636	3277.540270	9269.676862
71.537000	-0.015389	-0.001627	-0.021028	-0.022393	4276.925255	16180.328013	3267.590987	9171.376650
72.037500	-0.009506	-0.000890	-0.010069	-0.027674	4309.093517	16362.872842	3278.207149	9246.588537
72.535000	-0.008672	0.000380	-0.020483	-0.025552	4305.340303	16336.882702	3269.977883	9216.260134
73.035000	-0.007662	-0.000746	0.004239	-0.024518	4305.273354	16271.205228	3285.731374	9201.539485
73.535500	-0.010433	-0.002468	-0.019458	-0.019051	4281.527553	16054.953717	3266.456944	9124.252637
74.036000	-0.009613	-0.001498	-0.025073	-0.024817	4300.472434	16257.473190	3266.552739	9205.785428
74.538000	-0.006886	-0.000291	-0.014703	-0.023655	4305.018555	16258.835687	3272.501662	9189.264665
75.036500	-0.008869	-0.002247	-0.010173	-0.024097	4300.541951	16213.014240	3275.766099	9195.542492
75.539000	-0.015315	-0.002273	-0.014472	-0.016805	4261.338222	15993.885261	3268.212714	9092.777955
76.037000	-0.010111	-0.001089	-0.009425	-0.022521	4292.401909	16200.423982	3275.220181	9173.195323
76.537500	-0.010911	-0.000562	-0.000340	-0.021435	4286.980418	16183.557980	3280.541663	9157.835251
77.035000	-0.010470	-0.000577	-0.009254	-0.021206	4287.589921	16176.214500	3274.467044	9154.600019
77.535000	-0.019008	-0.001704	0.004414	-0.017265	4252.289509	16024.463398	3280.933328	9099.202273
78.035500	-0.013636	0.000145	-0.000650	-0.019698	4274.248404	16152.540807	3279.170190	9133.337799
78.534500	-0.010535	-0.001928	-0.016814	-0.021365	4287.858802	16140.369187	3269.642937	9156.841870
79.036000	-0.007001	-0.002122	-0.015404	-0.020508	4295.564544	16108.838619	3270.000123	9144.747924
79.536500	-0.010042	-0.002652	-0.023230	-0.015976	4273.884461	15958.052270	3262.115855	9081.202719
80.036000	-0.012200	-0.001138	-0.007765	-0.019411	4277.515834	16105.471597	3274.266142	9129.312530
80.537000	-0.004680	-0.001455	-0.012300	-0.018554	4296.625640	16070.350013	3270.745582	9117.271826
81.037000	-0.003250	-0.001256	-0.024743	-0.019393	4303.199434	16101.371946	3263.316102	9129.049986
81.537000	-0.012070	-0.001070	-0.017089	-0.013103	4260.054393	15919.897357	3264.178925	9041.255613
82.034500	-0.008437	0.000506	-0.006748	-0.015612	4277.410149	16041.054813	3272.443807	9076.119333
82.535500	-0.008529	-0.000353	-0.000912	-0.017764	4283.287433	16079.644715	3277.706091	9106.188889
83.035500	-0.008978	-0.000097	-0.000077	-0.017985	4282.636823	16093.906499	3278.409032	9109.286323
83.535500	-0.010532	0.000770	-0.000916	-0.011153	4258.902484	15916.636372	3273.341866	9014.300843
84.038000	-0.007711	-0.000349	0.000464	-0.017794	4285.714772	16080.655391	3278.642847	9106.609898
84.536000	-0.009629	-0.000837	-0.008843	-0.016346	4276.106606	16022.925155	3271.556936	9086.357754
85.036500	-0.009803	0.000114	-0.012740	-0.016987	4277.437769	16070.399434	3269.446545	9095.325632
85.537000	-0.010264	-0.000852	-0.012192	-0.016819	4275.648590	16036.572048	3269.691772	9092.976366
86.037500	-0.008088	0.000011	-0.008859	-0.016577	4281.158769	16055.098408	3271.696987	9089.593468
86.534000	-0.006948	-0.000177	-0.014434	-0.015884	4282.433111	16028.814345	3267.645314	9079.913792
87.035000	-0.006119	-0.000861	-0.016430	-0.016231	4285.800940	16018.817392	3266.590075	9084.765858
87.535500	-0.012190	-0.000467	-0.019864	-0.015636	4266.844300	16012.815133	3264.025878	9076.460086
88.035000	-0.013268	0.000252	-0.010919	-0.014186	4259.734127	15991.081896	3268.813698	9056.281607
88.535500	-0.005975	-0.000496	-0.014817	-0.014906	4282.419129	15990.250518	3266.773557	9066.289433
89.036500	-0.010407	-0.000345	-0.009103	-0.014357	4268.266868	15978.432623	3270.097484	9058.654940
89.536000	-0.010501	0.000927	-0.004803	-0.013802	4266.438509	15999.756653	3272.532389	9050.957429
90.037000	-0.004564	0.000956	-0.018599	-0.013354	4282.016154	15987.298324	3263.382513	9044.739854
90.537000	-0.007215	0.001317	-0.022432	-0.012459	4271.927985	15971.441258	3260.410796	9032.334751
91.037000	-0.013218	-0.000163	-0.008074	-0.012454	4255.023871	15927.503210	3269.531736	9032.266318
91.535000	-0.006818	-0.000514	-0.010304	-0.012473	4273.094123	15917.706998	3268.107228	9032.528984
92.035000	-0.007933	0.000224	-0.003234	-0.011683	4267.703315	15916.153904	3272.173327	9021.607338
92.535000	-0.009323	-0.000104	-0.007002	-0.012139	4265.068906	15919.946448	3270.021382	9027.912448
93.035500	-0.006779	0.001232	-0.003465	-0.010117	4266.542365	15899.715547	3271.004340	9000.025842
93.536000	-0.008207	0.000546	-0.015632	-0.010878	4264.662472	15901.931963	3263.692963	9010.508430
94.036000	-0.009779	-0.000122	-0.010779	-0.010988	4260.549416	15885.484836	3266.850640	9012.019529
94.536500	-0.006758	-0.000704	-0.001567	-0.010893	4268.788671	15865.558350	3272.745840	9010.706719
95.036500	-0.010494	0.000337	-0.005060	-0.010213	4256.374056	15876.157084	3270.031899	9001.337086
95.537000	-0.009111	-0.000593	-0.004837	-0.010659	4261.500233	15861.934905	3270.465187	9007.483523
96.034500	-0.005937	0.000990	-0.011575	-0.008588	4264.604319	15847.621210	3264.813115	8979.022254
