sample name	sample
index	1213
start time	 04-29-2021  09:54:32 AM
880	-0.007624
Peak Time (s)	92.038
Peak Height 	-0.007624
calc peak height	90,93
Baseline Time (s)	11.537
Baseline Value 	-0.004989
subtract baseline	10,4
Abs	-0.006909
Peak Time (s)	90.036
Peak Height 	-0.006909
calc peak height	90,93
Baseline Time (s)	10.037
Baseline Value 	0.004445
subtract baseline	10,3
PK_550	-0.001846
Peak Time (s)	92.038
Peak Height 	-0.001846
calc peak height	90,93
Baseline Time (s)	8.536
Baseline Value 	9.4185E-4
subtract baseline	10,2
PK_880	-0.011444
Peak Time (s)	92.038
Peak Height 	-0.01144
calc peak height	90,93
Baseline Time (s)	8.536
Baseline Value 	0.00206
subtract baseline	10,1


Time (s)	A880-A510	A880-A775	A880-A975	A880	I510	I775	I975	I880	
0.036500	0.002187	-0.000072	-0.001313	0.001485	6174.780975	44485.677915	3788.581167	22739.363126
0.539500	-0.001253	-0.001332	-0.006900	0.005579	6116.469268	43974.953286	3765.762353	22552.001938
1.041500	-0.000388	-0.000452	-0.005481	0.003285	6140.793147	44276.894872	3774.453017	22656.750533
1.538500	-0.001369	-0.000585	0.000947	-0.000701	6164.102671	44646.525414	3799.233460	22840.116323
2.043000	0.001487	-0.000317	0.002803	-0.000520	6184.990885	44655.018639	3803.276045	22831.788142
2.534500	-0.000115	-0.000582	-0.004963	0.005537	6125.527566	44050.021739	3770.384955	22553.893046
3.036000	0.001757	0.000269	-0.000311	-0.001068	6191.401187	44764.377188	3797.090759	22857.101049
3.536000	0.000594	-0.000432	0.001546	0.000208	6172.313714	44573.753065	3798.487691	22798.172952
4.039000	0.001499	0.000164	-0.003686	0.001156	6171.981146	44539.887081	3783.721668	22754.483514
4.536500	0.000253	0.000585	-0.000538	0.003175	6146.608522	44386.624542	3786.403453	22661.814276
5.036500	0.000467	-0.000083	0.002114	0.000292	6170.666782	44599.276320	3799.652478	22794.296220
5.540000	0.000810	0.000099	-0.005337	0.000123	6174.664914	44633.077612	3782.258016	22802.091104
6.037000	0.001425	-0.000394	-0.000072	-0.000312	6182.867755	44627.505929	3795.847684	22822.146189
6.535500	-0.001340	-0.000615	0.003536	-0.000765	6164.827839	44649.888115	3805.642422	22843.110702
7.035000	0.002344	-0.000084	0.000042	-0.000322	6190.149869	44658.332194	3796.145741	22822.633706
7.535500	0.000090	-0.000394	-0.008946	0.000049	6169.627327	44592.796830	3773.917014	22805.519697
8.035500	-0.001053	-0.000055	0.002323	0.000278	6158.951939	44603.339349	3800.190873	22794.961390
8.536000	0.000000	0.000000	0.001512	-0.000024	6169.493331	44637.710196	3798.964341	22808.872206
9.035500	0.003301	0.000015	-0.001893	0.000045	6194.782800	44632.544369	3790.634838	22805.699999
9.536500	-0.000947	-0.000182	-0.001307	-0.000614	6166.715885	44677.068267	3793.611530	22836.126943
10.037000	0.000779	0.000854	0.000000	0.000638	6170.404967	44656.226118	3793.743077	22778.342147
10.536500	0.000681	-0.000495	-0.004993	0.001516	6162.801203	44442.101045	3779.774344	22737.917092
11.042500	-0.000236	-0.000059	0.002299	-0.000248	6169.403902	44653.607105	3801.400364	22819.217447
11.537500	-0.000692	0.000358	0.000453	0.000000	6163.918872	44669.861477	3796.359794	22807.765330
12.035500	0.000124	0.000136	0.005374	-0.000237	6172.118896	44671.400398	3808.819929	22818.708964
12.535500	0.000743	-0.000185	-0.002381	0.000848	6168.489450	44536.060424	3787.555226	22768.681031
13.035500	0.002933	-0.000256	0.001747	-0.002111	6208.855464	44814.424026	3804.568180	22905.394263
13.536000	0.003706	0.000392	-0.001940	-0.001824	6212.685558	44849.414433	3794.992831	22892.087346
14.050000	0.001093	0.000675	0.003237	-0.001827	6192.147947	44877.141487	3807.492111	22892.247018
14.535500	0.000445	-0.000354	0.000022	0.001836	6158.477025	44424.894080	3790.930261	22723.210580
15.042500	0.002397	-0.000812	-0.000319	-0.001859	6202.648972	44736.386039	3798.974858	22893.725267
15.558500	-0.000200	0.000798	0.001291	-0.002127	6184.362410	44918.125436	3803.505729	22906.157140
16.037500	0.001486	-0.000427	0.001456	-0.002889	6203.582297	44873.295567	3805.747529	22941.514541
16.537500	-0.001243	-0.000777	-0.004224	0.002530	6140.020103	44318.047096	3779.194860	22691.351679
17.036000	0.000287	0.000068	-0.002210	-0.001922	6186.570523	44827.493768	3794.582455	22896.644202
17.535000	0.001278	-0.000383	0.001154	-0.002365	6197.821914	44826.755609	3803.749682	22917.195045
18.036000	0.002803	0.000507	-0.000519	-0.003701	6220.385371	45042.707118	3802.933440	22979.263744
18.536500	0.002337	0.000026	-0.000345	0.000515	6183.538178	44588.360574	3793.211361	22784.028080
19.036500	-0.000129	-0.000409	-0.002882	0.000098	6167.535818	44586.579805	3788.148929	22803.243913
19.539500	0.000939	-0.000359	-0.001953	-0.000355	6179.406890	44634.991591	3791.445744	22824.157742
20.037500	-0.001365	0.000185	-0.005095	0.000478	6154.963936	44607.106350	3781.988517	22785.705221
20.536500	0.000803	0.000290	-0.000422	0.001181	6166.360292	44549.654839	3791.435158	22753.353388
21.037500	-0.001488	-0.000633	-0.003973	-0.000144	6158.851344	44588.383206	3786.128015	22814.426384
21.535000	-0.000118	0.000031	-0.001026	0.000381	6165.416936	44601.694703	3791.904061	22790.199357
22.038000	0.000830	-0.000900	0.001675	-0.000516	6179.813374	44598.406727	3800.542878	22831.584408
22.535500	0.000815	0.000023	-0.005641	0.000777	6169.603463	44562.832137	3779.991478	22771.954765
23.036000	-0.000284	-0.000688	-0.000460	-0.000341	6169.751540	44602.061118	3794.987426	22823.522437
23.536000	-0.000907	0.000043	-0.004312	0.000284	6160.031662	44612.227829	3784.305146	22794.668769
24.037000	-0.000751	-0.000998	0.003308	-0.000770	6169.452569	44613.425768	3805.101686	22843.308150
24.536500	-0.001616	-0.000298	-0.000140	0.000109	6155.888269	44596.193406	3794.677199	22802.750109
25.034500	-0.001300	-0.000162	-0.001510	-0.000118	6160.103650	44631.180974	3791.938782	22813.224335
25.537500	-0.001564	-0.000165	0.000722	-0.000257	6159.135590	44644.312770	3797.625849	22819.643482
26.035000	-0.000871	-0.000014	0.002143	-0.000441	6165.954352	44676.477088	3801.488568	22828.107147
26.535000	-0.001464	-0.000891	0.001414	-0.000152	6159.092506	44564.329475	3799.037516	22814.787445
27.036000	0.000573	0.000179	0.001952	0.000230	6171.981195	44630.473083	3799.412208	22797.159142
27.535500	-0.000618	-0.000242	-0.001909	-0.000144	6165.614965	44625.917222	3791.046041	22814.402531
28.036500	0.002750	-0.000648	0.001183	-0.001375	6201.618163	44705.499220	3801.427562	22871.319142
28.537000	-0.002144	-0.000934	-0.003516	-0.000053	6153.046987	44550.683057	3787.000151	22810.224273
29.039500	0.001983	-0.000037	-0.000289	-0.002400	6203.638870	44863.580508	3800.347226	22918.785681
29.542500	0.001509	-0.000540	-0.001646	-0.003059	6205.106499	44878.846889	3798.669744	22949.423370
30.037500	0.001411	0.000448	0.003704	-0.002408	6199.205647	44911.409135	3810.037081	22919.161628
30.535000	-0.001058	-0.000101	-0.000594	0.001781	6147.254439	44454.507043	3789.592304	22725.774235
31.038000	-0.000854	-0.001013	-0.000122	-0.003419	6189.360272	44867.800716	3803.210306	22966.118600
31.543000	0.001695	0.000094	0.002614	-0.002717	6203.871732	44907.029806	3808.139159	22933.521728
32.036000	0.000240	0.000238	0.000908	0.000578	6166.670379	44602.605641	3796.065042	22781.110827
32.600000	0.000511	-0.000126	0.004562	-0.002025	6189.130128	44818.689004	3811.194414	22901.418630
33.088000	0.002252	0.000249	0.002551	-0.002605	6207.377509	44911.175161	3807.714358	22928.298772
33.542500	0.002215	0.000257	0.004085	-0.002567	6206.790388	44908.326917	3811.354227	22926.563540
34.036500	0.001743	0.000303	-0.003959	-0.002616	6203.458035	44917.525048	3792.056128	22928.844611
34.594500	0.001137	-0.000756	0.002686	-0.002566	6198.291838	44810.127298	3807.948620	22926.507496
35.037000	0.002796	-0.000042	-0.003940	-0.002924	6214.188563	44913.932566	3792.837426	22943.124126
35.534500	0.002499	0.000318	0.001542	-0.000063	6189.335272	44672.146924	3799.130763	22810.674068
36.035000	0.000794	-0.000015	-0.002057	0.000425	6172.182831	44593.029998	3789.335422	22788.181579
36.535500	0.000567	0.000654	0.002609	0.001349	6163.218013	44568.555725	3798.300990	22745.635271
37.035500	0.000340	0.001030	-0.003984	0.000578	6167.449600	44678.933612	3784.387049	22781.114256
37.535500	0.001529	-0.000433	0.000824	0.000207	6179.627746	44573.845516	3796.754987	22798.231457
38.036500	-0.000824	-0.000546	-0.000472	-0.000182	6164.306136	44600.400156	3794.576895	22816.172324
38.539500	0.000130	-0.001596	0.000322	-0.000608	6175.070557	44540.409521	3797.508417	22835.858747
39.037000	0.000645	0.000420	0.001790	0.000396	6171.245651	44637.714865	3798.620909	22789.486689
39.537000	0.001530	-0.000831	-0.000908	-0.000349	6183.983990	44588.972535	3793.932411	22823.865236
40.088500	0.000565	-0.000123	0.002654	0.000148	6172.560460	44609.273090	3801.301936	22800.936516
40.535000	-0.000730	-0.000738	-0.002905	-0.000170	6164.949928	44580.769992	3788.734214	22815.629402
41.035000	0.000505	0.000363	0.002213	0.000649	6168.182970	44607.852126	3799.031130	22777.819916
41.535500	0.001154	0.000179	0.000299	0.000161	6177.050700	44637.108873	3795.601786	22800.317218
42.039000	0.000758	-0.001287	-0.001317	-0.000045	6175.573733	44515.921809	3792.227645	22809.857560
42.539500	-0.002913	-0.000343	0.001183	0.000655	6141.607942	44539.309214	3796.540642	22777.552676
43.086500	0.000073	0.000193	-0.002920	0.000683	6164.548879	44588.209785	3786.664242	22776.259334
43.536500	-0.000409	-0.000049	-0.004176	0.000369	6163.247955	44595.194009	3784.427983	22790.765145
44.037000	-0.000216	-0.000253	-0.000480	0.000031	6167.380033	44608.059422	3794.046539	22806.333885
44.537500	-0.001026	-0.000260	-0.000223	0.000454	6157.792768	44566.674688	3793.649227	22786.827831
45.035000	0.001289	0.000275	-0.001463	0.000688	6173.991526	44595.569818	3790.123865	22776.033069
45.535000	0.002247	0.000521	-0.001353	-0.003564	6214.914175	45030.782343	3800.590663	22972.897991
46.035500	0.000811	0.000015	0.000644	-0.002457	6194.876923	44874.166991	3802.736893	22921.437620
46.547000	-0.000203	0.000035	0.002042	0.000814	6161.382637	44560.368948	3798.221876	22770.224528
47.036000	0.000955	0.000867	0.000365	-0.001509	6188.565686	44864.886022	3799.777726	22877.507870
47.536500	0.003090	0.000200	0.001304	-0.002282	6211.438933	44875.153405	3803.910614	22913.311760
48.039500	-0.000064	-0.000718	0.002315	-0.003026	6192.471671	44858.290717	3808.163568	22947.861887
48.537000	-0.001351	-0.000354	0.000243	0.000440	6155.372445	44558.949303	3794.799968	22787.466054
49.037000	0.001491	0.000600	-0.000609	-0.000745	6186.774777	44765.152847	3795.598102	22842.152271
49.534500	-0.001463	0.000275	-0.002038	0.001003	6150.132135	44565.330391	3788.001286	22761.519254
50.038000	0.002186	0.000060	0.005104	-0.001417	6197.505157	44777.882596	3811.032209	22873.233683
50.541000	-0.001259	-0.000520	-0.000665	0.001330	6149.181764	44457.553152	3790.496973	22746.491335
51.035500	0.000873	-0.000030	0.002988	-0.002211	6193.435432	44845.995206	3807.819844	22910.041814
51.536000	0.001132	-0.000593	0.000034	-0.003440	6205.133130	44910.522788	3803.639084	22967.103563
52.036000	0.000385	-0.000202	0.003635	-0.003486	6199.616479	44952.963608	3812.496463	22969.276463
52.538000	0.000665	-0.000057	0.006523	0.001015	6166.583964	44532.305545	3808.571913	22761.008335
53.036500	0.010487	-0.005352	0.006211	0.014329	6139.494693	42781.863996	3775.979706	22157.425616
53.537000	0.017116	-0.021319	0.010625	0.316663	4482.387635	22011.105594	3268.386194	12434.338400
54.034000	0.002709	-0.025567	-0.002914	-0.093210	7006.010688	51686.340209	4036.045562	27604.842954
54.537500	-0.020247	-0.050997	-0.017563	-0.199399	7897.925987	61677.288674	4336.995928	34484.138179
55.038000	-0.007492	-0.041220	-0.003730	-0.183338	7859.150431	60831.538726	4328.891531	33332.701769
55.535500	-0.000687	-0.037749	-0.000449	-0.178982	7887.853332	60713.479693	4325.000117	33027.691483
56.035500	-0.003241	-0.032964	0.001542	-0.152537	7558.175189	57895.812357	4238.951685	31240.179805
56.536000	-0.009424	-0.022617	-0.009381	-0.104753	7000.284446	53345.338687	4051.124893	28273.801070
57.039000	-0.013327	-0.020271	-0.010858	-0.098756	6905.257368	52922.212491	4028.985954	27924.049100
57.536500	-0.012011	-0.017896	-0.010957	-0.124225	7167.434326	56240.989079	4105.716453	29443.315335
58.036500	-0.009796	-0.014909	-0.012549	-0.116053	7107.728609	55606.778866	4075.655909	28946.144374
58.537000	-0.008382	-0.016011	-0.014216	-0.141896	7387.786585	58702.380657	4151.342737	30551.039270
59.035500	-0.008698	-0.019102	-0.011431	-0.158791	7566.942373	60507.914716	4216.147141	31653.145040
59.535000	-0.006475	-0.016784	-0.015457	-0.152180	7518.867060	59940.244372	4180.760071	31216.805291
60.035000	-0.007361	-0.013467	-0.016652	-0.133609	7311.407541	57968.071293	4117.252984	30025.974990
60.535500	-0.005976	-0.010069	-0.013434	-0.114921	7134.571233	56059.537672	4069.526293	28877.974995
61.035500	-0.006874	-0.009637	-0.013106	-0.087296	6858.013203	52826.979586	3989.353590	27268.954449
61.536000	-0.009210	-0.009035	-0.009818	-0.078560	6755.457809	51898.702001	3973.946837	26781.075363
62.039000	-0.009885	-0.008813	-0.013087	-0.062137	6602.135131	50100.795768	3919.840034	25890.006882
62.536500	-0.009677	-0.008447	-0.013242	-0.061140	6595.205793	50032.202612	3916.751935	25836.994498
63.037000	-0.011597	-0.008703	-0.013541	-0.015324	6198.485470	45278.126320	3799.559988	23527.460807
63.537000	-0.009807	-0.008885	-0.012450	-0.016488	6221.789658	45374.309714	3805.006270	23583.165196
64.037500	-0.012126	-0.008764	-0.010364	-0.005729	6119.802362	44343.999480	3784.213035	23073.841029
64.538000	-0.014327	-0.006976	-0.014597	-0.002313	6076.938109	44188.596075	3766.216607	22914.756739
65.035000	-0.014467	-0.005999	-0.015289	-0.005890	6103.095437	44624.882687	3772.967641	23081.358689
65.535500	-0.011891	-0.006032	-0.016541	-0.011235	6164.202773	45139.706381	3782.622707	23332.931343
66.036000	-0.014748	-0.004358	-0.014492	-0.011786	6146.290579	45357.062025	3788.801606	23358.995213
66.536500	-0.012759	-0.004436	-0.015288	-0.013404	6174.335508	45508.225721	3790.762117	23435.866077
67.036500	-0.010694	-0.002818	-0.008505	-0.019336	6237.349615	46257.253923	3821.581048	23720.080122
67.539500	-0.009544	-0.001699	-0.011120	-0.021109	6260.668378	46547.601022	3819.512727	23805.776644
68.037000	-0.008886	-0.000935	-0.008060	-0.023196	6282.709933	46835.757121	3832.220792	23907.111929
68.537500	-0.014605	-0.001619	-0.017391	-0.022965	6235.107854	46743.051914	3808.730968	23895.900160
69.035000	-0.013648	0.000024	-0.012016	-0.028509	6287.158720	47476.359519	3835.597635	24167.302382
69.535000	-0.012825	-0.000419	-0.021197	-0.031279	6316.259903	47716.396125	3819.742703	24304.223594
70.035500	-0.015554	-0.001361	-0.018562	-0.029084	6276.438074	47393.082810	3820.823866	24195.668234
70.536000	-0.018350	-0.001241	-0.017322	-0.029340	6256.070625	47431.689301	3824.504531	24208.278033
71.036000	-0.015216	-0.000738	-0.014935	-0.033804	6317.348667	47945.065993	3841.534526	24429.770569
71.539500	-0.015091	-0.000269	-0.014921	-0.033443	6315.428013	47956.267862	3840.666522	24411.792644
72.037000	-0.017615	-0.000178	-0.018979	-0.029126	6260.234770	47519.003533	3819.901913	24197.737360
72.537000	-0.015802	-0.000747	-0.019617	-0.033248	6308.065017	47886.360475	3828.490913	24402.056084
73.037000	-0.014840	-0.000671	-0.018590	-0.032753	6311.860031	47842.937965	3829.807698	24377.426126
73.534500	-0.015500	-0.000364	-0.017723	-0.031749	6298.370091	47770.736579	3829.470187	24327.546127
74.034500	-0.021704	-0.001093	-0.017092	-0.027971	6218.516101	47306.394107	3821.702009	24140.831671
74.535500	-0.020932	-0.001308	-0.021410	-0.026357	6211.860782	47119.299770	3807.207361	24061.526021
75.035500	-0.018068	-0.000931	-0.017429	-0.029270	6257.769584	47456.383320	3824.070417	24204.858619
75.536000	-0.018563	-0.000940	-0.016704	-0.028364	6246.575062	47362.326584	3823.623152	24160.148219
76.037000	-0.021889	-0.001659	-0.021201	-0.023207	6179.597755	46763.568278	3800.097712	23907.684545
76.535500	-0.021563	-0.001375	-0.020324	-0.021072	6165.478549	46576.550132	3797.069724	23803.998306
77.039500	-0.020503	-0.001044	-0.018557	-0.024255	6198.682066	46932.177381	3809.032933	23958.735974
77.537000	-0.019532	-0.001378	-0.021743	-0.024092	6205.039649	46881.775994	3800.923044	23950.796220
78.037000	-0.024285	-0.001427	-0.024377	-0.018509	6124.585001	46313.781148	3781.290980	23680.253644
78.538000	-0.023551	-0.001636	-0.020178	-0.018607	6130.982605	46302.645728	3791.511260	23684.948687
79.035000	-0.018508	-0.001568	-0.020579	-0.022046	6197.004106	46655.325453	3798.798830	23851.253106
79.535500	-0.019213	-0.000576	-0.019158	-0.021275	6185.421974	46677.636978	3800.362856	23813.839547
80.035500	-0.022883	-0.001029	-0.023796	-0.015887	6115.212564	46091.468821	3776.472055	23554.378488
80.536500	-0.019326	-0.000798	-0.020093	-0.016282	6145.660769	46153.951392	3786.169930	23573.284972
81.039000	-0.015156	-0.001341	-0.018450	-0.021215	6216.870799	46594.393247	3801.926744	23810.918840
81.536500	-0.017821	-0.000930	-0.019303	-0.021851	6200.873578	46700.162519	3801.404943	23841.788812
82.037000	-0.020399	-0.001435	-0.019606	-0.016501	6139.053970	46112.162249	3787.850649	23583.760489
82.537000	-0.020108	-0.001501	-0.022222	-0.017258	6147.161106	46181.143043	3783.433234	23620.088022
83.037500	-0.020764	-0.001264	-0.017508	-0.020965	6170.869110	46576.906805	3803.599268	23798.803952
83.534500	-0.017219	-0.001759	-0.017231	-0.021548	6203.217713	46585.709810	3805.680740	23827.050267
84.035500	-0.020976	-0.002770	-0.014870	-0.016395	6133.785794	45968.775026	3798.939019	23578.698976
84.537500	-0.019826	-0.001365	-0.017856	-0.015887	6138.744969	46058.005379	3790.560389	23554.380741
85.035500	-0.016044	-0.002704	-0.012933	-0.020688	6205.701920	46404.161906	3814.041795	23785.389918
85.540500	-0.019448	-0.002912	-0.012328	-0.020330	6176.189461	46347.354070	3814.647961	23768.093859
86.036500	-0.018969	-0.004007	-0.015787	-0.014302	6133.122979	45638.970630	3791.715846	23478.651771
86.539000	-0.020922	-0.003885	-0.013254	-0.013959	6115.465090	45617.207802	3796.966183	23462.304725
87.037000	-0.016297	-0.003725	-0.015657	-0.017304	6177.161029	45964.184575	3799.231584	23622.288874
87.537000	-0.016345	-0.004035	-0.014656	-0.015598	6163.491143	45764.210452	3797.534565	23540.545338
88.037500	-0.021371	-0.003776	-0.018047	-0.008733	6072.214710	45115.670886	3773.169369	23214.803182
88.535000	-0.013747	-0.003452	-0.013920	-0.012223	6157.448984	45488.925350	3791.210209	23379.737250
89.035500	-0.015504	-0.002932	-0.013525	-0.011317	6136.824463	45451.010582	3789.989976	23336.809397
89.535500	-0.015251	-0.003386	-0.014706	-0.010659	6133.699181	45341.929165	3785.609898	23305.659192
90.036000	-0.016060	-0.003408	-0.006909	-0.009853	6121.271325	45260.931202	3802.360101	23267.601124
90.536500	-0.014940	-0.003358	-0.015705	-0.009249	6125.233635	45206.695063	3779.898696	23239.072384
91.036000	-0.012609	-0.003113	-0.010432	-0.008695	6138.939293	45176.683843	3791.114259	23213.019070
91.537000	-0.013706	-0.002606	-0.010469	-0.008214	6126.766137	45179.137657	3789.876985	23190.366013
92.037500	-0.011444	-0.001846	-0.017431	-0.007624	6139.657198	45195.664729	3772.009023	23162.627584
92.537000	-0.012730	-0.003277	-0.009980	-0.008662	6137.740891	45157.319605	3792.115257	23211.420345
93.035000	-0.010907	-0.001542	-0.009614	-0.007196	6140.498722	45183.595978	3789.488315	23142.545424
93.535500	-0.011394	-0.001139	-0.007173	-0.006577	6131.964499	45162.567519	3793.845705	23113.555761
94.036000	-0.011906	-0.001229	-0.010941	-0.006763	6129.451882	45171.859181	3785.296590	23122.229690
94.539000	-0.009411	-0.001022	-0.007297	-0.006738	6148.532635	45189.627643	3793.933238	23121.078897
95.039000	-0.010286	-0.001111	-0.012218	-0.006519	6140.065805	45159.620305	3781.690839	23110.803655
95.536500	-0.009563	-0.000989	-0.008296	-0.006838	6148.129660	45202.675595	3791.781740	23125.762087
96.076500	-0.013158	-0.001490	-0.007533	-0.002694	6088.707350	44751.541165	3783.727452	22932.435519
96.534000	-0.010679	-0.000978	-0.012073	-0.006839	6139.502648	45203.806920	3782.792435	23125.814458
97.041000	-0.012790	-0.001484	-0.009614	-0.007440	6127.859645	45213.159905	3790.072551	23154.027229
97.535000	-0.011409	-0.000705	-0.009716	-0.007095	6135.845632	45255.511021	3789.004695	23137.807152
98.035500	-0.013572	-0.001274	-0.010855	-0.001960	6079.988586	44701.578282	3774.151432	22898.408043
98.535500	-0.014215	-0.002012	-0.014588	-0.002821	6081.641793	44713.410001	3767.423086	22938.337576
99.036000	-0.009121	-0.000284	-0.010439	-0.007777	6158.843784	45363.440385	3788.907763	23169.833278
99.536000	-0.009884	-0.001443	-0.006467	-0.008712	6160.183643	45341.506042	3800.672325	23213.796175
