sample name	sample
index	1324
start time	 05-03-2021  11:03:55 AM
880	0.072950
Peak Time (s)	91.038
Peak Height 	0.07295
calc peak height	90,93
Baseline Time (s)	10.535
Baseline Value 	-0.005753
subtract baseline	10,4
Abs	0.043227
Peak Time (s)	92.035
Peak Height 	0.04323
calc peak height	90,93
Baseline Time (s)	10.535
Baseline Value 	0.002058
subtract baseline	10,3
PK_550	0.027935
Peak Time (s)	92.035
Peak Height 	0.02794
calc peak height	90,93
Baseline Time (s)	8.537
Baseline Value 	8.048E-5
subtract baseline	10,2
PK_880	0.038542
Peak Time (s)	92.035
Peak Height 	0.03854
calc peak height	90,93
Baseline Time (s)	9.037
Baseline Value 	0.002441
subtract baseline	10,1


Time (s)	A880-A510	A880-A775	A880-A975	A880	I510	I775	I975	I880	
0.037000	-0.001788	0.000696	0.008285	0.002706	6098.903476	42801.718448	3887.999448	22112.873352
0.534000	-0.002856	-0.000777	-0.003649	0.004136	6080.559699	42536.550710	3857.248288	22049.761667
1.037500	0.000026	-0.000307	-0.005005	0.003983	6102.855757	42593.304768	3854.525552	22056.489680
1.535500	-0.005621	-0.000256	-0.004080	0.007310	6037.359567	42295.609557	3849.112941	21910.390929
2.035000	-0.001044	0.000695	0.000361	0.001331	6114.546834	42927.976325	3872.811774	22173.773478
2.536000	0.001451	-0.000626	0.000905	0.000168	6141.734477	42913.382531	3876.749475	22225.403084
3.036500	0.002666	0.000250	0.000231	-0.001189	6160.988704	43119.114484	3878.327479	22285.828148
3.535500	0.000477	0.000169	-0.003506	0.002394	6117.942628	42782.109249	3861.529869	22126.689714
4.037000	-0.000800	-0.000375	-0.001633	0.000454	6122.851209	42910.198707	3870.243221	22212.690321
4.537000	-0.000696	0.000425	0.000788	0.000630	6122.315572	42967.467331	3875.409934	22204.847069
5.037000	0.000165	0.000804	0.001060	0.001239	6124.187757	42946.328898	3874.632009	22177.814175
5.535000	0.001048	-0.000313	0.003779	0.000286	6137.848552	42931.293671	3883.137316	22220.138104
6.040500	-0.002199	0.000054	0.000035	0.000837	6109.656682	42914.436348	3873.199084	22195.685141
6.535500	-0.000048	0.001141	0.000091	0.001345	6121.818869	42967.588804	3872.158047	22173.116787
7.035500	-0.000474	0.000201	-0.000333	0.000618	6124.052872	42948.002604	3872.854223	22205.383857
7.535500	0.000462	0.000265	-0.001984	0.000178	6134.286153	42994.444948	3870.071617	22224.957680
8.044500	-0.000413	-0.000738	0.004814	-0.000629	6133.777641	42976.403547	3887.681785	22260.861256
8.536500	0.000468	0.000000	-0.001751	-0.000163	6136.871697	43001.445597	3871.390639	22240.127765
9.036500	0.000000	-0.000271	-0.000394	-0.000474	6135.700371	43005.066149	3875.231565	22253.959349
9.537000	-0.001716	-0.000215	0.001612	-0.000310	6121.722028	42995.194862	3879.490011	22246.659530
10.037500	-0.000665	0.000144	-0.001218	0.000049	6126.858679	42995.192079	3872.127544	22230.678838
10.535000	0.000069	0.000179	0.000000	0.000000	6132.689469	43002.960311	3875.046741	22232.873337
11.040000	-0.001277	-0.000363	0.002075	0.001088	6114.625492	42853.052380	3877.327014	22184.546763
11.535000	0.000079	0.000316	0.004125	0.000259	6130.835417	42991.700763	3884.005251	22221.349510
12.036000	0.000162	-0.000030	0.002727	0.000293	6131.194320	42956.636529	3880.675523	22219.824396
12.539000	-0.001183	0.000241	0.001549	0.000491	6119.739168	42963.388262	3877.489977	22211.035705
13.038500	-0.001404	-0.000044	-0.001148	0.001033	6114.093363	42887.388070	3870.027963	22186.991477
13.536500	-0.000773	0.000740	0.006075	0.000240	6124.644835	43032.458356	3888.598935	22222.200731
14.037000	-0.000021	0.000257	-0.004274	0.002613	6112.626229	42769.973774	3859.283180	22116.963174
14.537000	0.001952	0.000678	0.001606	0.002646	6127.007942	42805.534228	3872.650464	22115.512024
15.040000	0.002083	-0.000001	-0.002475	0.001496	6136.548220	42848.826440	3865.926851	22166.441206
15.535000	0.000843	0.000828	0.002457	0.000456	6135.049365	43020.644160	3879.672356	22212.585670
16.035000	-0.001943	0.000180	0.003501	-0.000415	6120.823931	43041.297671	3884.122236	22251.357040
16.535500	0.001772	0.000984	-0.000925	0.000028	6145.176023	43074.522617	3872.849937	22231.611248
17.035500	0.000468	0.000793	0.001384	-0.000795	6141.585461	43132.913247	3880.085727	22268.254354
17.541000	-0.001471	0.000891	-0.001223	0.001648	6109.046487	42916.763470	3868.445742	22159.703837
18.037000	-0.001235	0.000066	0.000129	0.001116	6114.725100	42889.801710	3872.772406	22183.285453
18.537000	-0.000627	0.000299	0.000345	0.001446	6116.789237	42880.974168	3872.510120	22168.672586
19.040000	-0.001987	0.000517	0.002907	0.001394	6107.105674	42905.759283	3878.543408	22170.959072
19.537500	0.001353	0.000852	-0.002236	0.001676	6129.770961	42910.670372	3866.063890	22158.466648
20.035000	-0.002249	0.000375	0.000331	0.001344	6105.549259	42897.339777	3872.713053	22173.188138
20.535000	-0.000462	0.000473	0.000277	0.001205	6119.784822	42919.070560	3872.906295	22179.325127
21.035500	-0.002346	-0.000353	0.003861	0.001211	6105.808060	42842.619743	3881.176960	22179.059155
21.535500	-0.000350	-0.000027	-0.000973	0.001036	6121.873762	42888.649218	3870.421504	22186.830453
22.039000	0.000053	0.000154	0.001090	0.001103	6124.371557	42899.176741	3875.017133	22183.888963
22.536500	-0.000991	0.001159	0.002533	0.002011	6109.913507	42908.081352	3876.250964	22143.626790
23.037000	-0.002258	0.000161	0.002766	0.000979	6108.172798	42911.159505	3879.178063	22189.390106
23.537000	-0.000360	0.000312	-0.003217	0.001296	6119.873461	42895.949154	3864.691299	22175.318991
24.037500	-0.002001	-0.000840	0.003661	0.000146	6116.239271	42895.799007	3883.189611	22226.395204
24.534500	0.001433	0.000210	-0.002499	0.001350	6132.793721	42881.549435	3866.207849	22172.912029
25.035000	-0.003985	-0.000033	-0.002698	0.000222	6101.016428	42962.932802	3868.331838	22222.988423
25.535500	-0.000823	0.000502	0.002922	0.000978	6118.795467	42942.621517	3879.541325	22189.400875
26.035000	0.000406	0.000811	0.003866	0.001681	6122.700266	42906.403782	3880.100394	22158.249739
26.535500	-0.000271	0.000308	-0.001904	0.000903	6123.444506	42931.689145	3868.590751	22192.733930
27.036000	0.000996	0.001024	0.001448	-0.000707	6144.868010	43146.096770	3880.028940	22264.334698
27.536500	0.000547	0.000755	-0.004396	-0.000162	6137.450172	43070.963973	3865.325196	22240.064832
28.036500	0.001483	0.000620	-0.000366	-0.000325	6145.655384	43073.590329	3874.952977	22247.342449
28.537000	0.001551	0.001226	0.000931	0.000248	6141.881961	43076.595404	3876.623625	22221.840846
29.037000	0.000631	-0.000012	0.008854	-0.000633	6141.595343	43043.624593	3897.171857	22261.046315
29.534500	-0.000050	0.001020	0.003882	0.000320	6129.422237	43050.979626	3883.296302	22218.638226
30.035000	0.000928	0.001085	0.001117	0.000181	6137.735950	43069.778027	3877.207930	22224.814077
30.535500	-0.000857	0.000122	-0.001756	0.001821	6112.304234	42830.305829	3866.829713	22152.034027
31.035500	0.000456	0.000928	-0.002934	0.003729	6107.906882	42729.257215	3859.792277	22067.684876
31.538500	-0.000970	0.000943	-0.000474	0.000195	6123.516197	43055.374024	3873.503148	22224.191587
32.036500	0.001337	0.000285	-0.000833	-0.000560	6146.321261	43064.270560	3874.417819	22257.796404
32.536000	-0.001480	0.000228	0.003167	-0.000218	6122.793154	43027.555123	3882.886752	22242.575665
33.037000	-0.002270	0.000071	0.001116	0.002053	6100.165565	42804.295419	3872.887583	22141.769286
33.537000	0.000273	-0.000089	0.002185	-0.002019	6149.273812	43164.577720	3884.792712	22322.903184
34.037500	-0.001580	0.000185	0.003123	0.001702	6107.842898	42847.011064	3878.330715	22157.325692
34.537500	-0.003554	0.000252	0.003916	0.001621	6093.888518	42860.549925	3880.355605	22160.898248
35.035500	-0.002116	-0.000146	0.000578	0.001320	6106.703588	42851.582508	3873.336122	22174.221348
35.535500	-0.000752	0.000417	0.001718	0.001883	6112.627909	42851.694259	3874.666196	22149.305896
36.036500	-0.000796	0.000000	-0.005984	0.001240	6117.054955	42872.414695	3858.519904	22177.796219
36.536500	-0.001470	0.000193	0.001821	0.001539	6109.859010	42862.710274	3875.696784	22164.534784
37.036500	-0.000183	0.000993	-0.001429	0.002327	6113.547943	42863.824643	3866.419647	22129.654490
37.537000	-0.001863	0.000501	0.000236	0.002141	6102.507477	42835.645040	3870.661929	22137.850227
38.037000	0.000737	0.000976	0.003203	0.002351	6120.177866	42859.934045	3877.012140	22128.551226
38.537500	-0.002436	0.000663	-0.008713	0.001523	6102.849778	42907.319774	3851.711238	22165.255036
39.035000	-0.002709	-0.000193	-0.001488	0.001329	6102.262213	42846.531252	3868.569940	22173.858966
39.535000	-0.002354	0.000975	0.008613	0.002266	6097.973115	42867.773982	3889.796617	22132.343609
40.057500	-0.001697	-0.001712	-0.000801	0.000324	6117.164444	42799.341612	3872.454519	22218.463936
40.535500	0.001573	0.001697	0.000193	0.002908	6122.253960	42875.038780	3868.804357	22103.950085
41.035500	-0.000729	0.000761	0.000734	0.002951	6104.902205	42785.238123	3869.944717	22102.039211
41.535500	-0.001015	0.000681	0.000625	0.001866	6110.801871	42877.457401	3872.187568	22150.037306
42.055000	-0.000848	0.000536	0.000495	0.001937	6111.511772	42857.653963	3871.726033	22146.898392
42.537000	-0.000595	0.000181	-0.000168	0.001434	6117.108366	42871.186543	3871.358105	22169.197582
43.037000	-0.000994	0.000372	-0.002013	0.002421	6106.858829	42798.116005	3864.867929	22125.454365
43.536500	-0.000119	0.000261	0.001911	0.001336	6121.359815	42887.527011	3876.372528	22173.518907
44.034500	0.003618	0.001000	0.000586	-0.002673	6179.327293	43326.058439	3882.592982	22352.128347
44.538000	-0.001334	0.000879	0.002509	-0.000115	6123.116384	43078.092980	3881.119105	22238.010179
45.035500	0.001061	0.000514	0.000808	0.001938	6125.651087	42855.482500	3872.442952	22146.835374
45.538000	0.001281	0.001125	0.003664	0.000638	6136.960929	43031.372277	3882.053003	22204.527159
46.036000	0.000719	0.000146	-0.000166	-0.000323	6139.939962	43029.658434	3875.408953	22247.256090
46.536500	0.002408	0.000778	-0.001300	-0.000143	6151.216848	43071.403320	3872.381344	22239.250279
47.039500	0.000760	0.001949	0.005862	0.002929	6116.074000	42896.289367	3881.835800	22103.018516
47.537500	-0.001066	0.000138	0.003194	0.002350	6106.852703	42783.269505	3876.995305	22128.627359
48.034500	-0.001395	0.000154	0.003245	0.000352	6119.197454	42968.222537	3881.742260	22217.212281
48.537500	0.000194	0.000120	0.001379	-0.000388	6136.505284	43033.183587	3879.131328	22250.121722
49.035500	-0.003262	0.000005	0.002158	0.001424	6097.491185	42855.983864	3876.742263	22169.631498
49.534500	0.000821	0.000921	0.007971	-0.000793	6144.208605	43144.615107	3895.470483	22268.193169
50.035000	0.002304	0.001011	0.003247	-0.001207	6158.406717	43191.248083	3885.374090	22286.646612
50.536000	0.001675	-0.000062	0.009257	0.008936	6078.585633	42166.276364	3875.788826	21839.418395
51.039000	0.018370	-0.005369	0.009190	0.099804	5579.579093	34384.361908	3686.377577	18266.307654
51.536000	0.031069	-0.014792	0.018929	0.287879	4689.395807	22913.293026	3412.513094	12870.021641
52.036000	0.003630	-0.018751	-0.016102	-0.051595	6570.424688	46128.442695	3960.366171	24670.011160
52.537000	-0.010936	-0.036300	-0.013734	-0.172545	7589.163973	57724.807320	4317.361765	31657.045235
53.034000	-0.016924	-0.043478	-0.020226	-0.213913	7987.140803	62207.808977	4438.121144	34529.636270
53.534500	-0.006679	-0.066781	-0.013862	-0.256417	8644.080867	64884.670218	4624.502616	37780.390220
54.038000	0.007255	-0.049436	-0.002828	-0.230284	8484.987875	63644.840504	4564.663645	35744.192309
54.535000	0.006948	-0.025345	0.003595	-0.160635	7654.104169	57604.526121	4335.494716	30879.477702
55.035000	-0.000992	-0.017996	-0.004459	-0.136860	7319.318329	55577.466179	4232.154052	29389.623400
55.536500	-0.002033	-0.016730	-0.002142	-0.139109	7331.625035	56004.833514	4246.515948	29527.086730
56.036000	0.003232	-0.016095	-0.008208	-0.161861	7626.928879	58937.906739	4300.310872	30958.537205
56.536000	0.003916	-0.012617	-0.004283	-0.146676	7471.708373	57449.978704	4263.783821	29994.893914
57.037000	0.001464	-0.010336	-0.011255	-0.140662	7383.462061	56983.889943	4222.819284	29622.457238
57.537500	0.004462	-0.008990	-0.004933	-0.132706	7332.561572	56168.363857	4217.751447	29137.615424
58.034500	0.003359	-0.007138	-0.004855	-0.121184	7205.570091	54997.392914	4182.781811	28451.014471
58.535000	0.003617	-0.004680	-0.000685	-0.089492	6904.963783	51611.880110	4102.366895	26653.827418
59.035000	0.003234	-0.005648	0.000104	-0.071241	6736.765801	49507.128802	4053.923508	25676.789675
59.535500	0.007598	-0.003951	0.005331	-0.061282	6687.664175	48630.647090	4041.127600	25160.751907
60.035500	0.011719	-0.001883	0.010633	-0.053521	6656.037480	48036.102401	4034.531938	24766.668426
60.536000	0.011013	-0.001425	0.004772	-0.040070	6535.588765	46708.465349	3984.023157	24100.217470
61.036500	0.011054	-0.001845	0.009150	-0.013500	6320.165839	44074.336233	3928.685088	22842.867741
61.537000	0.014988	0.000117	0.011110	0.012528	6150.530022	41859.669896	3871.781254	21683.519798
62.037000	0.013821	0.004717	0.010724	0.007871	6176.751779	42696.964339	3881.648342	21885.863247
62.537500	0.012975	0.005700	0.012476	0.000017	6230.059002	43513.273700	3904.204938	22232.134678
63.038000	0.010483	0.005298	0.007177	-0.003843	6240.565413	43837.183412	3900.793169	22404.580120
63.534500	0.010913	0.007353	0.008387	-0.009722	6289.441588	44590.171537	3917.704924	22670.221842
64.035500	0.011433	0.007561	0.010860	-0.013047	6319.578323	44930.031552	3931.742684	22822.072432
64.541000	0.013884	0.009268	0.011084	-0.015229	6356.255057	45307.229514	3937.624061	22922.361575
65.036000	0.009649	0.009588	0.006659	-0.013706	6310.730949	45190.206517	3923.145869	22852.300515
65.535500	0.011061	0.009172	0.008746	-0.018807	6362.262433	45647.861746	3940.667232	23087.863416
66.037000	0.010961	0.009757	0.008913	-0.019518	6367.143988	45775.409025	3942.829625	23120.947683
66.536500	0.011726	0.010756	0.011134	-0.019985	6376.995292	45920.088543	3949.471800	23142.700491
67.037500	0.008031	0.009805	0.010164	-0.017502	6327.885909	45581.964855	3940.946353	23027.356865
67.535000	0.009812	0.011169	0.012663	-0.019072	6354.427043	45870.662364	3950.996302	23100.178998
68.035000	0.010217	0.011191	0.013705	-0.018565	6353.620598	45822.824307	3952.325102	23076.644666
68.535500	0.009745	0.011961	0.008684	-0.016476	6333.321383	45692.966055	3934.804119	22979.913576
69.036000	0.006009	0.011140	0.006083	-0.011012	6261.361431	45079.462527	3915.271447	22729.028240
69.535500	0.010966	0.012588	0.010339	-0.011276	6302.009073	45245.604138	3926.170931	22741.052004
70.036500	0.011737	0.012597	0.014880	-0.008146	6283.581844	44943.044292	3929.598846	22598.682502
70.536500	0.011028	0.013874	0.008793	-0.005058	6254.130652	44768.548141	3907.514837	22459.205366
71.037000	0.008306	0.014251	0.016789	0.002173	6178.138575	44114.339151	3909.338825	22136.447629
71.537000	0.010792	0.013659	0.013751	0.001114	6205.001506	44158.564053	3904.625764	22183.370132
72.034500	0.012656	0.014621	0.016470	0.004351	6194.572864	43943.474062	3903.396374	22040.271589
72.537500	0.013574	0.015813	0.020248	0.007428	6178.234032	43766.082956	3905.061307	21905.229120
73.035000	0.010521	0.015808	0.020657	0.012934	6114.267380	43251.971383	3893.022289	21665.977677
73.535000	0.015645	0.015631	0.021468	0.010694	6169.230330	43443.662690	3900.212773	21762.957380
74.038500	0.015605	0.016203	0.011469	0.012394	6156.158781	43338.766984	3872.915676	21689.307099
74.536000	0.013705	0.016120	0.013318	0.014143	6128.915652	43168.924675	3873.146341	21613.858812
75.035500	0.010482	0.017183	0.012402	0.022699	6042.523640	42481.653539	3851.571721	21249.052926
75.536500	0.015631	0.017781	0.019446	0.019570	6102.994891	42822.054379	3874.762214	21381.638948
76.037000	0.016658	0.018261	0.018483	0.022402	6089.711478	42606.925752	3866.046762	21261.603258
76.534500	0.015270	0.017798	0.022275	0.023933	6068.341730	42425.409818	3871.227608	21197.004625
77.037500	0.014827	0.018971	0.019395	0.032874	6000.625519	41726.380553	3844.429091	20824.449040
77.535000	0.017551	0.019023	0.022780	0.028686	6050.355176	42106.349799	3861.514463	20997.984242
78.035000	0.017008	0.020303	0.021437	0.031038	6029.431289	42009.935471	3853.139964	20900.313707
78.540500	0.018811	0.021268	0.021686	0.033530	6024.470038	41872.975203	3848.092852	20797.399067
79.035500	0.017640	0.020435	0.018652	0.040817	5964.211243	41152.755595	3825.196129	20499.825796
79.535500	0.020742	0.021795	0.020932	0.037160	6012.268769	41596.110861	3838.300455	20648.547485
80.036500	0.022589	0.021555	0.028638	0.038190	6018.130242	41483.389135	3853.250700	20606.527196
80.540500	0.022099	0.022342	0.019461	0.039873	6002.571669	41404.092489	3829.047951	20538.089164
81.037500	0.022445	0.021509	0.027465	0.040893	5997.757062	41240.509686	3844.542013	20496.741598
81.540000	0.021977	0.021368	0.023137	0.041766	5988.214413	41151.410767	3832.980161	20461.461833
82.035000	0.025040	0.021983	0.030799	0.044054	5993.726568	41004.679885	3844.930975	20369.259202
82.536000	0.026479	0.021443	0.026893	0.044776	5998.838959	40894.368265	3834.631047	20340.261029
83.035500	0.020854	0.021378	0.026093	0.052429	5905.534556	40226.701676	3816.098393	20035.843180
83.535500	0.025516	0.021862	0.030390	0.048008	5969.049763	40649.563741	3835.217693	20211.028935
84.035500	0.027463	0.021388	0.028646	0.048916	5976.403915	40530.009257	3829.360209	20174.913652
84.536500	0.028740	0.021862	0.035909	0.050594	5973.561496	40426.040749	3841.735067	20108.333733
85.036500	0.027112	0.022685	0.032494	0.053197	5943.762962	40272.934473	3828.406393	20005.578277
85.537000	0.027906	0.022930	0.026698	0.054438	5940.634123	40187.516824	3813.054930	19956.820168
86.037000	0.029536	0.023124	0.030689	0.056319	5938.874243	40043.249919	3817.631107	19883.141850
86.537000	0.027746	0.022828	0.035099	0.058461	5911.490399	39835.882291	3822.576933	19799.673881
87.034500	0.028191	0.022431	0.026171	0.065780	5864.199593	39187.062078	3787.715194	19517.456321
87.535000	0.029622	0.024285	0.032982	0.061883	5900.788430	39669.525805	3810.543165	19667.118424
88.038000	0.033326	0.025016	0.033658	0.063681	5913.990862	39579.559692	3808.126077	19597.915712
88.535500	0.032333	0.025243	0.035019	0.064650	5900.403686	39517.044601	3808.971101	19560.716473
89.036000	0.031058	0.024363	0.034669	0.070060	5854.576606	38991.891377	3796.641686	19354.641704
89.536000	0.033629	0.025709	0.043516	0.066489	5896.652695	39401.784263	3823.427655	19490.383245
90.036500	0.033224	0.025836	0.039927	0.066944	5890.725410	39374.317183	3814.621521	19473.032317
90.536500	0.037717	0.026727	0.042095	0.067931	5914.965839	39366.272808	3817.183911	19435.430147
91.037500	0.036969	0.025802	0.034082	0.072950	5875.194604	38871.784404	3789.277275	19245.580688
91.537500	0.037206	0.027905	0.039787	0.069854	5898.118792	39303.926413	3808.032313	19362.448769
92.035000	0.038542	0.027935	0.043227	0.069947	5906.713639	39298.726894	3815.264799	19358.932946
92.535500	0.037270	0.027765	0.041809	0.069994	5897.597236	39280.524688	3812.090976	19357.139210
93.036000	0.036852	0.027866	0.042781	0.076356	5851.164161	38761.166337	3800.511394	19118.016629
93.569000	0.041345	0.028872	0.043872	0.071452	5915.707361	39251.162857	3813.399859	19302.006139
94.036000	0.043090	0.028530	0.043990	0.071276	5929.075361	39237.368287	3814.038267	19308.665572
94.536500	0.039140	0.029420	0.042636	0.072143	5895.665465	39239.253683	3809.237295	19275.956047
95.036000	0.038480	0.029906	0.049840	0.078192	5849.751920	38777.902132	3811.731243	19049.649046
95.537000	0.043205	0.030231	0.044498	0.072504	5921.326584	39276.908861	3812.479559	19262.380568
96.034000	0.041536	0.029284	0.047056	0.071574	5916.192947	39275.451495	3820.053377	19297.436291
