sample name	sample
index	568
start time	 03-16-2021  02:46:21 PM
880	0.003931
Peak Time (s)	181.535
Peak Height 	0.003931
calc peak height	180,183
Baseline Time (s)	11.537
Baseline Value 	-0.002
subtract baseline	10,4
Abs	0.000369
Peak Time (s)	182.036
Peak Height 	3.6871E-4
calc peak height	180,183
Baseline Time (s)	10.036
Baseline Value 	0.00282
subtract baseline	10,3
PK_550	0.000313
Peak Time (s)	180.537
Peak Height 	3.1277E-4
calc peak height	180,183
Baseline Time (s)	11.537
Baseline Value 	6.5824E-4
subtract baseline	10,2
PK_880	-0.002815
Peak Time (s)	182.036
Peak Height 	-0.002815
calc peak height	180,183
Baseline Time (s)	11.537
Baseline Value 	0.001437
subtract baseline	10,1


Time (s)	A880-A510	A880-A775	A880-A975	A880	I510	I775	I975	I880	
0.035000	-0.001966	-0.001407	-0.000883	0.004016	5540.889705	33692.198855	3589.722966	18287.397936
0.535500	-0.003545	-0.000935	-0.001983	0.004953	5524.531950	33659.056326	3585.489773	18253.808402
1.037500	-0.000102	-0.000394	0.000030	0.002955	5560.019917	33840.404461	3593.847144	18325.539148
1.537500	0.001621	-0.000412	0.002417	-0.000275	5592.705980	34071.293271	3605.680974	18442.182919
2.036500	-0.001869	0.000262	-0.002435	0.005449	5532.192879	33709.008992	3583.523255	18236.036946
2.536500	-0.000379	-0.000310	-0.003692	-0.000417	5580.403275	34088.999588	3593.116178	18447.353146
3.036500	0.000541	-0.000571	-0.004468	-0.002247	5598.632770	34202.456653	3595.321916	18513.828086
3.537500	0.000251	-0.000156	-0.001248	-0.000798	5587.095551	34127.608954	3599.042638	18461.161297
4.037000	-0.002475	-0.000519	0.000293	0.004271	5535.910322	33737.383603	3591.645830	18278.255950
4.535000	-0.000087	0.000028	0.000625	-0.000015	5579.677959	34084.294567	3601.340642	18432.760824
5.035000	0.000604	-0.001370	-0.000827	-0.000555	5587.820719	34022.488484	3599.418070	18452.352006
5.535500	-0.000330	-0.000166	0.002959	0.000066	5577.538227	34064.474723	3606.109459	18429.842461
6.036000	0.001567	0.000716	-0.000307	0.000384	5587.982531	34105.226438	3598.536399	18418.321460
6.539000	0.000136	-0.000176	-0.000639	-0.000549	5584.677452	34108.118463	3599.799907	18452.111841
7.036000	-0.001205	-0.000217	0.000043	-0.000648	5576.471993	34112.327923	3601.447333	18455.705393
7.537000	0.001485	-0.000692	0.003577	-0.000813	5595.374234	34089.936124	3609.289221	18461.685422
8.036000	0.001010	0.000400	0.001962	-0.000004	5586.857748	34110.405229	3604.143991	18432.360719
8.537500	-0.001409	-0.000194	0.003679	-0.000621	5574.944135	34112.036582	3609.097632	18454.720612
9.037000	-0.000424	-0.000001	-0.001362	-0.000243	5578.958226	34098.706390	3597.635550	18441.035312
9.535000	0.000846	0.000181	-0.000817	-0.000056	5586.120376	34098.356656	3598.389358	18434.256402
10.035500	0.000812	-0.000370	0.000000	0.000019	5585.402175	34053.206331	3599.951663	18431.546081
10.535500	0.000555	0.000255	0.004082	0.000538	5580.260534	34060.763185	3607.490915	18412.733654
11.036500	-0.001252	0.000319	0.004493	0.000290	5569.978042	34083.303850	3608.892891	18421.721024
11.536500	0.000000	0.000000	-0.000730	0.000000	5580.151539	34081.222548	3598.453066	18432.222080
12.036000	0.000369	0.000647	-0.000276	0.000617	5578.513550	34083.403130	3598.109634	18409.876684
12.537000	0.002983	0.000329	0.002531	0.000626	5595.771329	34059.808137	3604.014233	18409.559004
13.036500	0.002325	-0.000268	0.000374	-0.001341	5604.482780	34158.785135	3603.613032	18480.877134
13.534000	0.000052	-0.000146	0.004983	-0.000682	5585.005475	34119.920427	3612.009392	18456.956597
14.054000	-0.000579	0.000334	0.000110	0.000259	5574.613938	34086.569761	3599.674952	18422.824379
14.535000	0.000363	-0.000878	-0.003502	0.002943	5563.151672	33806.610987	3586.508948	18325.980160
15.038000	0.000229	0.000200	-0.003691	0.001654	5570.750494	33976.398712	3588.794024	18372.406178
15.554500	-0.004931	-0.000117	0.002323	0.005718	5510.632315	33662.854528	3592.864410	18226.434701
16.041000	0.000767	0.000510	0.006306	0.000925	5579.112924	34051.329322	3611.402469	18398.764120
16.536000	0.001592	0.000149	0.003822	-0.000067	5591.136915	34096.820628	3608.224291	18434.633074
17.037000	0.002541	-0.000132	0.004604	0.000417	5594.225882	34041.636473	3608.857809	18417.119350
17.537500	-0.000808	-0.000255	-0.001298	0.005763	5537.051113	33649.823386	3585.229586	18224.829958
18.037000	0.002255	0.000062	-0.001310	-0.002476	5611.592508	34264.948343	3602.453134	18522.184213
18.535000	0.001272	-0.000143	0.002744	0.002409	5572.646939	33897.567670	3600.698861	18345.207815
19.035000	-0.001002	0.000811	0.000977	0.002888	5554.555787	33931.631685	3595.972872	18327.941236
19.535000	-0.000195	-0.000245	-0.000078	0.004246	5550.949662	33758.690660	3590.924108	18279.152593
20.038000	-0.000193	-0.000654	-0.000000	0.001974	5565.864097	33892.095707	3595.839139	18360.869596
20.539000	0.002389	0.001154	0.001931	0.003035	5575.890850	33945.780712	3597.667792	18322.666688
21.036000	-0.000133	-0.000142	0.002836	0.002298	5564.131886	33905.623545	3601.126141	18349.202464
21.535500	0.001092	-0.000134	-0.001841	0.004246	5559.380078	33766.624805	3587.250655	18279.146995
22.036500	0.001199	0.000860	0.004022	0.003447	5565.330337	33895.051234	3601.203672	18307.839104
22.536500	0.001549	-0.001096	-0.002112	0.001588	5579.895010	33888.060730	3592.225934	18374.790554
23.037000	0.001031	0.001198	0.002852	0.003443	5564.249083	33919.548688	3598.745184	18307.965384
23.535000	-0.000663	0.000162	0.003579	0.004325	5547.376245	33782.164583	3598.420240	18276.329014
24.035000	-0.000349	-0.000767	-0.002051	0.001791	5566.040436	33897.091465	3591.928256	18367.455419
24.535500	0.002038	-0.000304	-0.002629	0.003213	5572.399995	33828.359678	3587.761181	18316.259455
25.035500	-0.000243	0.000309	0.006832	0.003135	5557.910176	33877.829034	3607.816015	18319.041310
25.536000	-0.000759	0.000968	-0.004235	0.004585	5545.050737	33821.192403	3581.590389	18266.995568
26.036000	0.000873	0.000174	0.001277	0.003150	5565.141696	33867.074824	3596.050490	18318.501665
26.536500	0.001144	-0.000118	-0.003678	0.002752	5569.543396	33874.711531	3586.538849	18332.833789
27.036500	0.001775	0.001052	-0.004289	0.003871	5566.329179	33878.349698	3582.954202	18292.605373
27.537000	-0.000449	0.000638	0.001909	0.003475	5554.334684	33877.061560	3596.695868	18306.824605
28.037000	0.003090	0.000929	0.002279	0.001847	5588.381258	34015.027230	3600.902173	18365.450938
28.535000	0.001750	0.001455	0.006035	0.001806	5579.778456	34055.872549	3608.946460	18366.923687
29.035000	0.004027	0.002083	0.001897	0.001840	5594.637356	34098.766174	3600.111631	18365.696877
29.535500	-0.004338	-0.000193	-0.004143	0.007191	5504.960027	33552.709297	3576.414209	18173.868172
30.038500	0.003466	0.000192	0.006263	0.001416	5593.733082	33993.027792	3610.264587	18381.011887
30.536000	0.002868	0.001210	0.005630	0.001611	5588.471379	34052.332710	3608.500779	18373.984961
31.036500	0.000717	0.000196	0.006803	0.001435	5575.407241	33991.923768	3611.374066	18380.317925
31.564500	0.003128	0.000000	0.002392	0.001155	5593.222298	33997.955562	3602.600690	18390.428599
32.037000	0.002392	0.000082	0.002052	0.005607	5558.984612	33684.917486	3592.529240	18230.398212
32.534000	-0.000155	0.000389	-0.000599	0.002786	5560.782833	33908.683369	3592.885221	18331.630144
33.059000	0.002723	0.000164	0.003665	0.001190	5590.302061	34007.258266	3605.222967	18389.180312
33.535000	-0.001283	0.000392	0.002168	0.007426	5523.169117	33577.537405	3588.975320	18165.473421
34.035500	0.001957	0.000689	0.004170	0.004438	5563.798675	33811.797505	3599.426041	18272.264312
34.535500	0.002908	0.001055	0.006850	0.001757	5587.772200	34030.646880	3610.789470	18368.712489
35.036000	0.003504	0.000739	0.001314	0.003329	5581.307351	33894.839233	3595.755135	18312.083871
35.535500	0.000609	-0.000225	0.000284	0.004506	5554.512011	33741.556735	3591.135614	18269.815236
36.036500	0.002533	0.001140	0.001954	0.005565	5560.183360	33763.414229	3592.412187	18231.916443
36.536500	0.001703	0.000249	0.001045	0.004313	5562.952358	33789.196012	3593.128951	18276.735886
37.037500	-0.001557	-0.000007	0.003271	0.004177	5542.507239	33780.654520	3598.082971	18281.629164
37.534500	0.000829	0.000692	0.001783	0.006051	5545.842656	33696.768688	3591.038459	18214.521057
38.035000	0.000506	0.000745	0.004616	0.005232	5549.087951	33759.044678	3598.693646	18243.833364
38.535500	0.002414	0.000628	0.004345	0.004452	5566.713527	33806.377232	3599.764360	18271.749299
39.035000	0.003847	0.001106	-0.002032	0.005110	5571.817469	33793.502610	3585.062045	18248.189037
39.538500	0.001667	0.000384	0.004073	0.005504	5554.906241	33713.807122	3596.980102	18234.096774
40.036000	0.002869	0.001333	0.001560	0.005579	5562.293546	33776.167689	3591.558987	18231.389851
40.536500	0.000262	0.000530	0.002731	0.004928	5549.473881	33765.330917	3595.370459	18254.684110
41.037000	0.001488	0.000810	0.000173	0.005123	5556.226040	33771.392814	3589.616430	18247.701313
41.537000	0.002232	0.001048	0.002608	0.006061	5554.953673	33721.420665	3592.742244	18214.165051
42.037000	0.001948	-0.000353	0.002182	0.004779	5561.508445	33712.970067	3594.534834	18260.053831
42.534500	0.002655	0.000822	0.004231	0.005402	5562.053223	33752.336323	3597.525641	18237.716469
43.035500	0.001128	0.001321	0.004629	0.005404	5552.031756	33787.870447	3598.358029	18237.650984
43.535500	0.000855	0.001027	0.003016	0.006403	5543.717252	33695.529183	3592.880109	18201.943954
44.035500	0.000958	0.000705	0.004160	0.005188	5552.330035	33759.263747	3597.826692	18245.385583
44.538500	0.001235	-0.000251	0.006481	0.004341	5559.699849	33751.487184	3604.512434	18275.750386
45.036000	0.002719	0.000655	0.004012	0.000362	5595.771132	34102.380720	3607.716312	18419.120341
45.539000	-0.000106	-0.000147	0.003382	0.008595	5523.217784	33456.433618	3589.069083	18123.897567
46.036500	0.002177	0.000962	0.004835	0.002822	5575.893469	33947.304289	3604.244433	18330.335443
46.537500	0.003542	0.001880	-0.000062	0.003752	5578.762766	33946.368741	3591.987385	18296.886777
47.037000	0.002861	0.001091	0.002051	0.003236	5577.670839	33926.729001	3597.497014	18315.412052
47.538000	-0.001890	0.001491	0.003146	0.008799	5510.365559	33558.045908	3588.152244	18116.647927
48.035500	0.001844	0.000877	0.003296	0.004523	5562.502099	33819.103905	3597.409706	18269.215399
48.554500	0.004158	0.000951	-0.000274	0.003411	5585.095546	33904.170226	3592.257934	18309.133116
49.038500	0.003720	0.000608	0.000572	0.006427	5562.311481	33663.943592	3587.732331	18201.083949
49.539000	0.001161	0.001095	0.002309	0.008518	5531.938673	33549.871563	3586.998060	18126.626095
50.053000	0.003176	0.000967	0.001702	0.004362	5572.322819	33837.098669	3594.401479	18274.972410
50.536500	0.002317	0.002175	-0.000302	0.003994	5569.090568	33950.175696	3590.980311	18288.186766
51.037000	0.002053	0.001801	0.005961	0.004053	5566.963880	33919.043038	3604.019569	18286.061602
51.540000	0.001001	0.001591	-0.000314	0.008952	5528.084912	33554.363630	3580.668660	18111.237054
52.038000	0.003187	0.001039	0.003100	0.003844	5575.811253	33879.421056	3598.424371	18293.585731
52.535000	0.005578	0.002114	0.011352	0.005078	5583.454197	33867.981972	3613.309789	18249.316252
53.035000	0.020127	0.001584	0.018359	0.101919	5087.446898	27614.163064	3439.786901	15141.195524
53.538500	0.004854	-0.006249	0.015138	0.100313	5013.792236	27259.917703	3436.984068	15187.278292
54.036000	-0.000564	-0.009330	-0.011980	-0.107904	6384.910971	42069.175771	3826.223722	22869.798566
54.539000	-0.004063	-0.032964	-0.018390	-0.305115	8450.669802	61397.813742	4455.992188	34463.098885
55.036500	-0.005149	-0.012773	-0.006401	-0.180006	7003.048206	48806.925273	4049.813531	26512.692846
55.537000	-0.016524	-0.011140	-0.025371	-0.225918	7358.400266	54137.703139	4137.183551	29168.114261
56.037000	-0.007499	-0.006491	-0.026848	-0.241479	7629.149492	56586.403530	4185.059382	30133.708280
56.537000	-0.006680	-0.004812	-0.024775	-0.229411	7503.355375	55313.369031	4150.922067	29381.806589
57.035000	-0.004770	0.000865	-0.018347	-0.200806	7217.594429	52609.368416	4077.929263	27680.954402
57.535000	-0.003971	0.000618	-0.019709	-0.172516	6941.102360	49437.185343	3985.974734	26105.470720
58.035000	-0.004665	-0.000762	-0.020709	-0.163694	6849.404176	48352.935861	3956.878213	25634.829700
58.535500	-0.004903	-0.001725	-0.015562	-0.131803	6554.221186	45028.994983	3880.900249	24010.951279
59.036000	-0.002983	-0.002340	-0.011123	-0.113009	6407.720580	43180.276655	3842.005461	23108.339900
59.536500	-0.003226	-0.003585	-0.009485	-0.092628	6236.217865	41215.265760	3793.118424	22172.628940
60.036500	-0.003811	-0.003489	-0.007520	-0.065187	6015.847324	38866.923341	3729.968143	20980.260528
60.537000	-0.005608	-0.004773	-0.008551	-0.045962	5859.625507	37200.063667	3682.333563	20188.605451
61.037500	-0.008049	-0.003358	-0.007650	-0.031128	5736.805137	36151.311980	3650.836031	19601.318765
61.534500	-0.009639	-0.004797	-0.010382	-0.013923	5608.607695	34746.984094	3607.485510	18944.811472
62.035000	-0.005268	-0.003413	-0.006546	-0.007382	5594.157303	34369.064582	3601.754771	18701.942855
62.535000	-0.008833	-0.002889	0.002266	0.001118	5515.129571	33793.259518	3602.412182	18391.759182
63.038000	-0.007414	-0.003462	-0.005996	0.007874	5480.871678	33273.521659	3571.221348	18149.537151
63.536000	-0.008074	-0.001479	-0.013303	0.000165	5526.216038	33962.822515	3572.042772	18426.256938
64.041500	-0.010415	-0.002114	-0.006931	-0.003264	5533.274480	34164.315436	3592.294754	18550.902159
64.538500	-0.007879	-0.001827	-0.008272	-0.002065	5541.981533	34098.375809	3587.003018	18507.209474
65.037000	-0.008061	-0.002178	-0.007247	-0.005728	5564.777704	34338.530116	3596.795794	18641.117059
65.536500	-0.011177	-0.002299	-0.007655	-0.003239	5528.164657	34149.174813	3590.731021	18550.010962
66.034500	-0.007297	-0.000572	-0.003731	-0.006666	5575.988975	34524.245073	3606.198333	18675.595744
66.537500	-0.008496	-0.000959	-0.005784	-0.007181	5571.475267	34533.580662	3602.939612	18694.536132
67.035500	-0.006955	-0.001079	-0.008461	-0.007057	5580.821962	34515.720756	3597.035702	18689.966644
67.535500	-0.010092	-0.000905	-0.009053	-0.001173	5521.804060	34100.554267	3583.532188	18474.760117
68.036000	-0.007223	-0.000688	-0.007986	-0.005758	5570.486900	34449.317228	3595.306665	18642.199449
68.536000	-0.007107	-0.000032	-0.008209	-0.006162	5573.913821	34526.890654	3595.686470	18657.053146
69.036500	-0.007268	-0.000228	-0.010534	-0.005555	5568.852863	34468.175084	3589.557903	18634.773564
69.536500	-0.010954	-0.001129	-0.006783	-0.000255	5510.307553	34018.226856	3586.335537	18441.480594
70.037000	-0.007177	-0.000412	-0.002869	-0.004359	5561.590118	34367.420869	3603.136314	18590.935351
70.537000	-0.007142	-0.000958	-0.011173	-0.005452	5569.005931	34407.313978	3588.012795	18630.995410
71.037500	-0.009000	-0.000123	-0.012492	-0.005051	5554.167683	34438.928866	3584.441747	18616.264838
71.535000	-0.010165	-0.001046	-0.011249	0.000192	5512.512010	33992.017281	3576.193924	18425.281062
72.034500	-0.005537	0.000956	-0.008046	-0.003839	5568.953064	34429.320465	3591.167614	18571.921389
72.538500	-0.008575	-0.000653	-0.005866	-0.005432	5559.453498	34428.084257	3599.076980	18630.233617
73.036000	-0.006963	0.000382	-0.006360	-0.004582	5564.458377	34441.614090	3596.251168	18599.109732
73.536000	-0.008941	-0.000370	-0.006777	0.000324	5519.564820	34031.142696	3585.146341	18420.480497
74.036500	-0.006805	-0.000516	-0.005835	-0.004706	5566.312627	34385.137823	3597.615118	18603.632928
74.537000	-0.006402	0.000761	-0.003669	-0.004183	5565.520906	34440.163152	3601.074448	18584.484262
75.037500	-0.006487	0.001299	-0.007096	-0.003408	5559.879597	34422.913907	3592.251479	18556.184980
75.537500	-0.008470	0.000552	-0.008388	0.000583	5520.938968	34078.998698	3581.278665	18411.115553
76.038000	-0.008285	0.000049	-0.006842	-0.004047	5552.283047	34378.345184	3594.120774	18579.538224
76.543500	-0.009567	-0.000011	-0.010955	-0.004097	5544.225912	34377.561853	3585.651599	18581.357019
77.036000	-0.006012	0.000018	-0.006464	-0.004085	5567.442302	34378.780319	3594.989915	18580.899853
77.536000	-0.008774	-0.000276	-0.007737	0.001355	5513.982060	33963.706335	3581.028325	18383.200612
78.036000	-0.005457	0.000197	-0.006725	-0.003236	5565.512605	34330.048902	3592.668689	18549.907030
78.536500	-0.004567	-0.000025	-0.006690	-0.003269	5571.588758	34316.339112	3592.809412	18551.114707
79.036500	-0.005516	0.000034	-0.003028	-0.003690	5568.107438	34351.233222	3601.388496	18566.478812
79.537000	-0.010657	-0.000182	-0.006925	0.002674	5493.390939	33875.754269	3579.982399	18335.660316
80.037500	-0.005903	-0.000037	-0.005208	-0.003327	5563.172868	34319.609069	3596.033499	18553.197733
80.537000	-0.005906	0.001251	-0.006937	-0.002005	5554.481477	34317.146320	3589.653921	18505.012746
81.035000	-0.007041	0.000448	-0.005842	-0.002560	5550.689921	34299.127696	3593.101461	18525.256167
81.535500	-0.009411	-0.000064	-0.012314	0.003037	5499.050035	33858.160472	3568.202896	18322.575425
82.038500	-0.005776	0.000428	-0.006463	-0.002532	5558.792809	34295.672929	3591.743879	18524.234237
82.536000	-0.006069	0.000131	-0.003233	-0.002671	5557.785914	34284.180250	3598.807103	18529.290128
83.036000	-0.007217	-0.000009	-0.011794	-0.002805	5551.142750	34283.674912	3581.240726	18534.168696
83.535500	-0.006353	-0.000406	-0.006212	-0.000091	5539.064854	34058.522526	3587.182282	18435.534888
84.036500	-0.005024	-0.000059	-0.008261	-0.002552	5563.862659	34261.713615	3588.037669	18524.940832
84.537500	-0.008123	-0.000762	-0.005225	-0.002715	5544.633828	34222.544932	3594.715906	18530.886721
85.037500	-0.006762	-0.000876	-0.005521	-0.003315	5557.458336	34257.803919	3595.354071	18552.773715
85.538000	-0.006450	-0.000400	-0.003985	0.000892	5532.038033	33988.075303	3589.770372	18399.941896
86.035000	-0.006924	0.000683	-0.007858	-0.001800	5546.488572	34261.022332	3587.311884	18497.577657
86.538000	-0.002833	0.000540	-0.008302	-0.001486	5571.262711	34227.764208	3585.736429	18486.136820
87.035500	-0.004214	-0.000247	-0.006529	-0.001819	5564.364896	34194.906538	3590.118538	18498.260728
87.536000	-0.005491	0.000591	-0.003305	-0.001354	5552.941366	34221.964428	3595.888800	18481.368410
88.036000	-0.005883	-0.001418	-0.002012	-0.003119	5561.941362	34204.218671	3602.326681	18545.618194
88.536500	-0.005475	0.000275	-0.003302	-0.002164	5558.354210	34257.812416	3597.597009	18510.830430
89.036500	-0.004043	0.000659	-0.008209	-0.001254	5561.778314	34219.606178	3585.449268	18477.726519
89.537000	-0.008990	-0.000582	-0.008840	0.002088	5507.860205	33889.071333	3577.244876	18356.742625
90.037500	-0.003806	0.000859	-0.001340	-0.000791	5560.296407	34200.576787	3598.835127	18460.897249
90.538000	-0.004762	0.001040	-0.004806	-0.000703	5553.454324	34207.286552	3591.384749	18457.720765
91.034500	-0.005554	0.001118	-0.004041	-0.000827	5549.084493	34221.970471	3593.242097	18462.220858
91.535500	-0.008450	-0.000349	-0.007795	0.002835	5506.533983	33852.240740	3577.858857	18329.862246
92.035500	-0.004075	0.000524	0.000459	-0.001311	5561.943339	34213.942282	3603.728949	18479.784334
92.536000	-0.004227	0.000754	-0.000095	-0.001135	5559.785919	34217.824897	3602.185132	18473.383479
93.036000	-0.005174	0.000498	-0.006368	-0.001112	5553.433869	34197.689907	3588.980588	18472.564534
93.536500	-0.007771	0.000620	-0.006173	0.004550	5499.868140	33798.818694	3577.668318	18268.247193
94.037000	-0.005299	0.001070	-0.002583	-0.000668	5549.712622	34207.000484	3595.964610	18456.457349
94.537500	-0.004638	-0.000063	-0.001810	-0.001777	5561.303845	34205.156452	3599.920334	18496.725442
95.037000	-0.008468	0.000001	-0.006611	-0.001626	5535.286639	34198.897405	3589.543633	18491.229325
95.535500	-0.007362	-0.000162	-0.007612	0.003199	5511.198981	33839.504582	3577.486196	18316.754580
96.038000	-0.005815	0.000277	-0.005739	-0.001120	5549.288846	34182.253676	3590.309077	18472.861248
96.535000	-0.005124	0.000523	-0.006395	-0.001587	5556.873438	34233.938825	3589.914331	18489.837100
97.036000	-0.003136	0.000541	-0.007125	-0.000776	5564.596523	34176.431228	3586.707148	18460.352159
97.536000	-0.007304	-0.000129	-0.008004	0.004874	5500.783827	33722.127201	3573.246840	18256.626925
98.036500	-0.005017	-0.000492	-0.005960	-0.001716	5558.420121	34169.751859	3591.090531	18494.524444
98.537000	-0.005225	0.000859	-0.004974	-0.001126	5553.189495	34224.869985	3591.916689	18473.065555
99.037500	-0.008730	-0.000789	-0.005532	-0.001727	5534.238834	34149.039314	3592.005942	18494.915674
99.537500	-0.009340	-0.001127	-0.009137	0.004451	5490.438587	33681.193130	3571.796408	18271.806512
100.035000	-0.004900	0.000948	-0.005559	-0.000815	5553.280653	34208.701107	3590.046189	18461.766098
100.535000	-0.007181	-0.000156	-0.007377	-0.001990	5546.048244	34213.910916	3588.707026	18504.482938
101.035000	-0.004620	0.000496	-0.007360	-0.001224	5557.796734	34205.631486	3587.151108	18476.637362
101.536000	-0.010126	-0.000173	-0.005032	0.003665	5490.439970	33805.446007	3581.844636	18300.017389
102.036000	-0.002796	-0.000783	0.000385	-0.001657	5572.631474	34144.385105	3604.305369	18492.357556
102.536500	-0.005380	0.000993	-0.009368	-0.000625	5548.898173	34198.235712	3581.749599	18454.887051
103.036500	-0.005791	0.000132	-0.006162	-0.000916	5548.111986	34156.901589	3589.001089	18465.425647
103.537000	-0.007570	0.000804	-0.005422	0.004886	5499.001615	33787.940265	3578.522276	18256.198729
104.034000	-0.005792	0.000395	-0.002542	-0.001455	5551.633474	34215.086297	3597.704750	18485.037856
104.537500	-0.007743	-0.000156	-0.000508	-0.001783	5541.029136	34198.887883	3602.681681	18496.934805
105.035000	-0.008417	0.000524	-0.006525	-0.001173	5532.676390	34203.957231	3588.780202	18474.774345
105.538000	-0.007865	0.000177	-0.002886	0.004115	5502.058220	33798.186317	3585.354008	18283.838135
106.035500	-0.003994	0.000602	-0.002987	-0.000644	5558.095556	34171.257326	3595.064966	18455.557788
106.536000	-0.005955	-0.000234	-0.010769	-0.001485	5550.761416	34171.667540	3580.631169	18486.112608
107.036500	-0.004789	-0.000466	-0.005039	-0.002291	5563.690273	34213.234959	3594.217326	18515.424855
107.536500	-0.007963	-0.001015	-0.005586	-0.002440	5543.885142	34184.288669	3593.385832	18520.876879
108.036500	-0.004924	0.000220	-0.001698	-0.001627	5558.447295	34214.839560	3599.841151	18491.287318
108.537000	-0.004461	0.000624	-0.011095	-0.001552	5560.990299	34238.675980	3580.097508	18488.535120
109.037000	-0.004233	0.000810	-0.006565	-0.000961	5558.608021	34209.343537	3588.255853	18467.082639
109.540500	-0.004345	-0.000216	0.000728	-0.001754	5563.076521	34192.438972	3605.237392	18495.889655
110.035500	-0.007510	-0.000287	-0.003598	-0.001812	5542.738372	34191.496815	3596.233730	18498.004623
110.535000	-0.005598	-0.000005	-0.001439	-0.001391	5552.486511	34181.418672	3599.891036	18482.703537
111.035500	-0.003101	0.000687	-0.002769	-0.000881	5565.515619	34194.566856	3596.020658	18464.160878
111.536000	-0.009302	-0.001105	-0.010271	0.003634	5495.921739	33741.018731	3571.149670	18301.137562
112.036500	-0.008136	0.000656	-0.006434	-0.001467	5536.412262	34234.846155	3589.582312	18485.453603
112.536500	-0.004487	0.001951	-0.004645	-0.000922	5556.690281	34289.299257	3592.177701	18465.669058
113.037000	-0.002558	0.001171	-0.005183	-0.001304	5571.874091	34260.365528	3591.851173	18479.526334
113.540000	-0.005400	0.000509	-0.009750	-0.001247	5552.834297	34208.220470	3582.244582	18477.450709
114.035000	-0.005978	0.000043	-0.006975	-0.001817	5552.784444	34215.806108	3589.183745	18498.189469
114.535000	-0.004411	-0.000412	-0.006911	-0.001990	5564.192461	34195.340373	3589.677367	18504.471177
115.038000	-0.006538	0.000685	-0.004151	-0.001249	5545.407367	34221.116552	3593.894929	18477.540016
115.535500	-0.008183	-0.000653	-0.009591	0.004161	5499.716457	33735.592673	3571.460120	18282.181082
116.035500	-0.003910	0.001067	-0.000295	-0.000617	5558.469974	34203.047080	3600.669030	18454.589794
116.536000	-0.005929	0.000444	-0.001201	-0.000892	5547.058400	34177.811670	3599.340006	18464.579688
117.036500	-0.005248	-0.000449	-0.005955	-0.001960	5558.505993	34190.492895	3591.610593	18503.404849
117.539500	-0.007024	-0.000229	-0.010571	0.003693	5510.189912	33799.373270	3570.416449	18299.006618
118.037000	-0.006603	0.000082	-0.004025	-0.001654	5547.633860	34206.791816	3595.007179	18492.268036
118.543000	-0.004701	-0.000544	-0.004083	-0.001744	5560.670972	34167.914345	3595.074434	18495.517466
119.035000	-0.004754	0.000074	-0.003226	-0.001298	5557.401417	34180.379175	3595.935381	18479.312489
119.537000	-0.009036	0.000078	-0.003925	0.003685	5497.300531	33821.972914	3584.092910	18299.301231
120.035500	-0.006019	-0.000843	-0.004995	-0.002370	5556.139377	34191.695229	3594.475705	18518.325711
120.536000	-0.006433	0.000275	-0.006812	-0.001727	5549.213053	34226.084020	3589.335656	18494.900093
121.035500	-0.004422	0.000116	-0.001642	-0.001813	5562.956212	34220.735287	3600.349490	18498.023304
121.536500	-0.007236	-0.000286	-0.005971	0.002110	5519.047019	33908.792593	3583.117543	18355.978457
122.036500	-0.006060	0.000091	-0.000480	-0.001152	5547.902741	34171.107819	3601.408258	18474.026964
122.539500	-0.005000	0.000147	-0.003325	-0.001582	5557.651473	34206.279281	3596.325014	18489.639621
123.037000	-0.004723	0.001458	0.001333	-0.000746	5553.986206	34240.759442	3604.384639	18459.280806
123.537500	-0.007048	-0.000931	-0.006795	0.004070	5507.608913	33722.307635	3577.375529	18285.470007
124.035000	-0.004538	-0.000002	-0.003524	-0.001596	5560.775026	34196.490668	3595.937033	18490.144285
124.535500	-0.004775	-0.000236	-0.001162	-0.001511	5558.658516	34173.365343	3600.726817	18487.048356
125.035000	-0.003425	0.000108	-0.005212	-0.001574	5567.944292	34202.833724	3592.355089	18489.339447
125.536000	-0.004928	0.000395	-0.001930	-0.000243	5549.354460	34127.273978	3596.442670	18441.019762
126.036000	-0.007042	-0.000797	-0.008171	-0.002176	5548.170831	34180.956108	3587.444189	18511.258596
126.536500	-0.006136	0.000517	-0.006233	-0.001287	5548.283581	34211.747692	3589.625897	18478.928782
127.036500	-0.005078	0.000015	-0.011685	-0.001380	5555.811107	34182.051379	3578.527543	18482.279312
127.537000	-0.005431	-0.000790	-0.010944	0.003102	5524.306598	33801.527906	3570.861081	18320.243573
128.034500	-0.003523	-0.000003	-0.007572	-0.001476	5566.658140	34187.782859	3587.232323	18485.791767
128.534500	-0.001471	0.000726	-0.003260	-0.000992	5576.983024	34205.445230	3595.222593	18468.190538
129.037500	-0.004131	0.000347	-0.004289	-0.001424	5562.314198	34209.342420	3593.973286	18483.892234
129.535500	-0.008882	-0.000190	-0.003659	0.004406	5493.659277	33751.168267	3583.149922	18273.402624
130.036000	-0.004828	-0.000454	0.000703	-0.002217	5562.946330	34208.778744	3606.165352	18512.745604
130.536000	-0.005723	0.001401	-0.004836	-0.000630	5546.687886	34228.194454	3591.169800	18455.070514
131.036000	-0.003053	0.000584	-0.003377	-0.000999	5566.607249	34195.733960	3594.992686	18468.457474
131.536500	-0.007638	-0.000661	-0.008838	0.003598	5506.848072	33775.292879	3574.153386	18302.414124
132.036500	-0.004955	-0.000024	-0.007982	-0.001512	5557.481805	34188.776708	3586.455827	18487.079639
132.536500	-0.003856	-0.000404	-0.006193	-0.002047	5568.221621	34200.067329	3591.294290	18506.552814
133.037500	-0.004129	-0.000077	-0.005482	-0.001616	5563.590221	34192.472188	3591.877544	18490.863574
133.535000	-0.008839	-0.001069	-0.004938	0.003426	5500.225018	33758.437368	3582.532705	18308.593045
134.035000	-0.004361	0.000180	-0.001543	-0.001421	5560.790837	34196.995841	3599.733857	18483.796940
134.540000	-0.003816	0.000645	-0.006259	-0.000933	5561.163377	34195.385325	3588.834976	18466.063175
135.035500	-0.005451	-0.000242	-0.007095	-0.001417	5553.615099	34166.183162	3588.102358	18483.635648
135.536000	-0.009036	-0.000467	-0.005172	0.000739	5516.275897	33994.305969	3587.617825	18405.489818
136.036500	-0.005070	0.000075	-0.002978	-0.001007	5553.427594	34159.458383	3595.847022	18468.744412
136.539500	-0.006992	-0.000734	-0.004134	-0.001789	5545.968944	34157.450122	3595.061438	18497.150453
137.037500	-0.004601	-0.000127	-0.006312	-0.001525	5559.892097	34182.277846	3589.957762	18487.558946
137.537500	-0.007100	0.000459	-0.007165	0.002570	5516.947456	33929.178310	3579.702314	18339.394042
138.037500	-0.002928	0.000867	-0.002745	-0.000800	5566.122602	34201.741364	3595.900592	18461.223597
138.538500	-0.004476	0.000699	-0.001465	-0.000840	5556.221296	34192.498116	3598.673661	18462.675198
139.035500	-0.003911	-0.000189	-0.006169	-0.001173	5562.118096	34152.380628	3589.522511	18474.784633
139.536000	-0.008361	0.000648	-0.009754	0.003245	5504.463966	33894.289198	3573.000029	18315.092173
140.036000	-0.005319	0.000056	-0.006507	-0.001061	5552.147273	34161.982509	3588.585686	18470.717464
140.536500	-0.003718	0.000736	-0.002191	-0.001223	5563.714829	34223.002168	3597.953884	18476.602856
141.036500	-0.005086	0.000315	-0.004231	-0.000700	5551.309553	34154.615226	3592.580486	18457.611784
141.537000	-0.007234	0.000138	-0.004756	0.001866	5520.635946	33956.751720	3586.141021	18364.783027
142.037000	-0.004274	-0.000167	0.000697	-0.001623	5562.687282	34186.549800	3604.895768	18491.147625
142.534500	-0.004025	0.000598	-0.003915	-0.000803	5558.939354	34182.565763	3593.456976	18461.350504
143.041000	-0.004898	0.000434	0.000499	-0.000795	5553.161233	34170.081304	3602.722254	18461.044556
143.535500	-0.004955	0.000232	-0.000937	0.002476	5531.455804	33919.634583	3592.826471	18342.778627
144.035500	-0.006148	-0.000248	-0.000735	-0.001768	5551.347943	34191.096049	3602.171447	18496.398948
144.535500	-0.004736	-0.000293	-0.006106	-0.001552	5559.184371	34172.232937	3590.443637	18488.559125
145.036000	-0.004021	0.000554	-0.004580	-0.000727	5558.467503	34173.832631	3591.907221	18458.587660
145.539500	-0.005192	-0.000273	0.000580	0.000832	5540.615390	34001.546891	3599.458954	18402.099099
146.036500	-0.006293	-0.000529	-0.001757	-0.001616	5549.403572	34159.778764	3599.693663	18490.863544
146.536500	-0.003619	0.000172	-0.009282	-0.000820	5561.709883	34152.914128	3582.328946	18461.947454
147.037000	-0.004033	0.000955	-0.001402	-0.000385	5556.141254	34178.092830	3597.850430	18446.177416
147.538000	-0.005896	-0.000080	-0.005211	0.001576	5531.190876	33961.912731	3585.799018	18375.233156
148.038000	-0.004074	-0.000165	-0.005283	-0.001163	5560.975921	34153.339576	3591.349065	18474.420898
148.535500	-0.003585	0.000820	-0.006084	-0.000888	5562.387026	34204.759825	3589.105680	18464.437108
149.035500	-0.004189	0.000344	-0.003663	-0.001237	5560.709313	34195.524193	3594.892089	18477.091366
149.536000	-0.007965	-0.000252	-0.005431	0.000545	5524.461247	34023.782096	3587.481836	18412.497308
150.036000	-0.004152	0.000732	-0.002362	-0.000310	5554.873878	34156.550775	3595.677450	18443.473588
150.536500	-0.004526	0.001010	-0.002722	-0.000027	5550.572922	34156.152756	3594.329422	18433.196390
151.037000	-0.003865	-0.000325	-0.003853	-0.001358	5563.624955	34155.826349	3594.746409	18481.479407
151.537000	-0.005399	-0.000619	-0.006964	0.002909	5525.767458	33827.567888	3579.418011	18327.193130
152.037000	-0.005472	-0.000636	-0.005558	-0.001588	5554.600057	34150.028585	3591.662286	18489.860563
152.538000	-0.003856	-0.000220	-0.003894	-0.001333	5563.530190	34161.682562	3594.609438	18480.598498
153.035000	-0.004323	0.000646	-0.006138	-0.001256	5559.954352	34218.869375	3589.759407	18477.802956
153.535500	-0.010139	-0.000569	-0.005753	0.003362	5492.301681	33798.750707	3580.980695	18310.909676
154.035500	-0.002446	0.000123	-0.004386	-0.000921	5570.089508	34156.719325	3592.716922	18465.630015
154.536500	-0.005286	0.001056	-0.001507	-0.001100	5552.622928	34237.242236	3599.133097	18472.130953
155.036000	-0.006339	0.000112	0.000318	-0.001295	5547.003853	34182.928552	3603.395742	18479.191867
155.537000	-0.006210	-0.000397	-0.006900	-0.000109	5540.108607	34060.452288	3585.789172	18436.159814
156.037000	-0.004550	0.000179	-0.006961	-0.000687	5554.735732	34143.799841	3586.864172	18457.146645
156.537000	-0.006184	-0.000472	-0.007710	-0.001669	5550.463482	34167.712140	3587.346897	18492.800944
157.034500	-0.004112	0.000581	-0.001661	-0.000888	5558.922901	34187.406850	3598.363366	18464.416532
157.538000	-0.005893	-0.000175	-0.002264	-0.001354	5550.306561	34166.447294	3598.074777	18481.343923
158.035500	-0.006005	0.000090	-0.003164	-0.001134	5548.135504	34169.656625	3595.722154	18473.351683
158.536000	-0.000887	0.001083	-0.002853	-0.000521	5577.734280	34197.167155	3595.089462	18451.093822
159.035000	-0.006610	0.000168	-0.005948	-0.001560	5546.964228	34206.193258	3590.788498	18488.822601
159.536500	-0.003754	0.000688	-0.002229	0.000665	5551.092946	34082.862599	3593.910783	18408.134776
160.036500	-0.002826	0.000879	-0.002592	-0.000626	5565.649121	34190.036758	3595.856266	18454.902723
160.536500	-0.004316	0.000185	-0.002612	-0.001132	5559.181357	34176.381368	3596.876113	18473.270617
161.037000	-0.006631	-0.000591	-0.003283	-0.001744	5548.033377	34164.533351	3596.751916	18495.525379
161.537000	-0.002922	0.000113	-0.001667	0.000324	5558.782828	34065.990957	3595.806002	18420.503387
162.040500	-0.003350	0.000704	-0.000792	-0.000892	5563.954065	34196.633747	3600.202381	18464.564710
162.535500	-0.004630	0.000592	-0.007954	-0.000977	5556.109238	34194.667125	3585.402396	18467.649779
163.035500	-0.006027	0.000443	-0.005336	-0.001206	5548.468221	34200.470786	3591.328545	18475.968787
163.536000	-0.007296	-0.000730	0.000382	0.003319	5510.848082	33790.289068	3593.821151	18312.438730
164.036000	-0.002748	-0.000188	-0.004682	-0.001142	5569.558910	34150.180874	3592.560501	18473.642234
164.539000	-0.004285	0.000322	-0.002059	-0.001025	5558.691274	34178.638049	3597.815572	18469.413316
165.036500	-0.005991	0.000151	-0.000254	-0.001104	5548.031993	34171.953608	3601.785429	18472.271638
165.537000	-0.007651	0.000100	-0.006599	0.003995	5504.205412	33801.296587	3577.932032	18288.151755
166.037000	-0.005119	0.000706	0.001934	-0.000459	5549.521164	34165.449618	3605.048660	18448.877029
166.537500	-0.005984	-0.000694	-0.002929	-0.001757	5552.352219	34158.036375	3597.525330	18496.007810
167.038000	-0.004993	0.000104	-0.001858	-0.001011	5553.949545	34161.748975	3598.206634	18468.873068
167.535000	-0.008196	-0.000428	-0.006484	-0.000867	5532.120347	34112.953068	3588.229706	18463.676278
168.036000	-0.003333	-0.000435	-0.008696	-0.001658	5569.100795	34169.646389	3585.277372	18492.396692
168.538500	-0.004191	-0.000321	-0.003918	-0.000881	5558.363696	34121.678271	3593.613329	18464.182477
169.036000	-0.003605	0.000648	-0.002830	-0.000684	5560.907342	34177.533805	3595.479250	18457.014018
169.536500	-0.004287	0.000835	-0.005381	0.000320	5549.865195	34118.406043	3588.054125	18420.630027
170.036500	-0.003020	0.000670	0.003012	-0.000863	5565.932923	34192.076256	3608.193633	18463.521303
170.537000	-0.004087	0.000079	-0.002568	-0.001149	5560.799335	34169.976164	3597.005647	18473.906038
171.037500	-0.003565	0.000205	-0.002531	-0.001142	5564.182777	34178.625396	3597.068529	18473.663260
171.537500	-0.008991	-0.000585	-0.000044	0.002451	5505.524074	33862.835317	3594.748285	18343.690400
172.035000	-0.004438	0.000738	-0.003669	-0.000621	5555.031689	34179.450860	3593.587939	18454.717756
172.535500	-0.004791	0.000130	-0.004701	-0.001185	5556.419770	34176.317757	3592.610989	18475.222758
173.036000	-0.004912	0.000691	-0.003711	-0.000286	5549.737129	34151.824550	3592.799720	18442.583743
173.538500	-0.002109	0.000115	-0.001255	-0.000470	5569.340179	34123.505896	3598.338647	18449.260828
174.036000	-0.004776	0.000026	-0.001602	-0.000920	5554.782275	34149.576952	3598.556452	18465.599273
174.537000	-0.005504	0.000287	-0.007243	-0.000874	5549.713709	34165.136835	3586.665972	18463.915901
175.036500	-0.004371	0.000885	-0.001878	-0.000439	5554.285127	34176.979156	3596.964472	18448.150523
175.537000	-0.006524	-0.000931	-0.007565	0.002885	5518.634311	33807.000235	3578.228660	18328.051814
176.037500	-0.004936	0.000053	-0.007490	-0.000868	5553.393601	34147.766080	3586.141021	18463.696433
176.535000	-0.005004	0.000197	0.000407	-0.000660	5551.586438	34143.136409	3602.243057	18456.144931
177.035000	-0.002256	0.000570	-0.002465	-0.000850	5570.871545	34183.895155	3596.592258	18463.041277
177.538500	-0.005126	-0.001017	-0.007164	0.002363	5531.077039	33838.149757	3580.130110	18346.839541
178.036000	-0.003291	-0.000008	0.000121	-0.000853	5564.081835	34142.257093	3602.045236	18463.146890
178.536500	-0.004844	-0.000128	-0.004593	-0.001292	5556.774918	34165.372603	3593.061559	18479.113597
179.036500	-0.005072	0.000516	-0.000553	-0.000756	5551.771621	34173.156985	3600.419069	18459.637895
179.537000	-0.005226	0.000523	-0.000429	-0.000582	5549.621809	34161.053169	3600.311930	18453.311217
180.036500	-0.006252	-0.000398	-0.002766	-0.001317	5547.716076	34147.631607	3596.940803	18479.995713
180.537000	-0.005203	0.000313	-0.005373	-0.000877	5551.706303	34167.229361	3590.564977	18464.027739
181.037500	-0.003880	0.000310	-0.000641	-0.000941	5560.795037	34171.657652	3600.622518	18466.345302
181.535000	-0.007346	-0.000308	-0.005279	0.003931	5506.582255	33776.705621	3580.782943	18290.445222
182.035500	-0.002815	0.000251	0.000369	-0.000751	5566.541981	34153.625351	3602.353276	18459.441348
182.535500	-0.005225	-0.000300	-0.004801	-0.001478	5555.490051	34166.338217	3593.013171	18485.849492
183.035500	-0.004251	-0.000055	-0.007278	-0.000799	5557.422416	34134.948038	3586.436444	18461.180941
183.536000	-0.006154	-0.000204	-0.006071	0.003289	5518.415332	33830.098515	3580.475350	18313.516102
184.036500	-0.007267	-0.000161	-0.009141	-0.001161	5540.076838	34153.507302	3583.325055	18474.332401
184.536500	-0.005880	0.000431	-0.005226	-0.000733	5546.337679	34165.384652	3590.570761	18458.794945
185.037000	-0.003696	0.001532	-0.001313	0.000551	5552.220793	34152.127464	3596.069114	18412.260121
185.622000	-0.005561	-0.000049	-0.006729	0.002532	5527.162111	33895.491056	3580.678507	18340.763614
186.034500	-0.004301	0.001026	-0.001675	-0.000322	5553.977362	34178.690912	3597.143736	18443.896193
186.559500	-0.004519	0.000396	-0.001022	-0.000635	5554.600205	34155.799634	3599.175925	18455.260470
187.035500	-0.004037	0.000530	-0.004346	-0.000042	5553.869405	34122.535980	3590.965215	18433.749454
187.535500	-0.008186	-0.000779	-0.005005	0.003076	5506.678503	33804.163435	3583.117165	18321.189127
188.035500	-0.007835	-0.000825	-0.004487	-0.001190	5536.575014	34107.646103	3593.069443	18475.410223
188.536000	-0.005356	0.000333	-0.006655	-0.000510	5548.304481	34142.177075	3587.131726	18450.721754
189.036000	-0.005363	0.000249	-0.003234	0.001297	5536.473776	34005.668771	3590.491354	18385.313265
