sample name	sample
index	263
start time	 02-25-2021  11:10:03 AM
880	-0.014888
Peak Time (s)	90.535
Peak Height 	-0.01489
calc peak height	90,93
Baseline Time (s)	11.536
Baseline Value 	-0.005357
subtract baseline	10,4
Abs	-0.009414
Peak Time (s)	91.535
Peak Height 	-0.009414
calc peak height	90,93
Baseline Time (s)	11.536
Baseline Value 	0.003784
subtract baseline	10,3
PK_550	-0.007055
Peak Time (s)	90.535
Peak Height 	-0.007055
calc peak height	90,93
Baseline Time (s)	10.036
Baseline Value 	8.4405E-4
subtract baseline	10,2
PK_880	-0.009394
Peak Time (s)	90.535
Peak Height 	-0.009394
calc peak height	90,93
Baseline Time (s)	11.536
Baseline Value 	0.002596
subtract baseline	10,1


Time (s)	A880-A510	A880-A775	A880-A975	A880	I510	I775	I975	I880	
0.037500	0.000684	-0.000274	0.001387	0.002241	6881.097129	46029.023310	3963.021584	24237.457416
0.535500	-0.002683	-0.000490	-0.002842	0.004159	6832.771858	45817.709768	3947.453812	24143.299458
1.036000	-0.005428	-0.000920	-0.002065	0.005299	6797.614731	45662.785626	3946.540880	24087.510482
1.537000	-0.000133	-0.001164	-0.000275	0.001302	6882.216181	46033.960913	3961.179400	24283.700787
2.036000	-0.001120	0.000167	0.000966	0.001464	6871.664363	46150.169194	3963.928956	24275.719523
2.536500	-0.000625	-0.000561	-0.000902	0.000549	6884.616641	46168.794358	3961.499474	24320.848709
3.036500	-0.004395	-0.000257	-0.003685	0.003990	6818.769454	45857.371961	3945.760321	24151.575481
3.537500	-0.001403	-0.000813	-0.000992	0.000076	6881.818887	46190.876670	3962.476493	24344.231251
4.034500	0.000120	0.000634	-0.000059	0.000997	6887.361972	46243.313289	3962.506032	24298.746755
4.538000	-0.000502	-0.000333	0.001929	0.000079	6890.074348	46238.282778	3969.936786	24344.040302
5.035000	-0.003446	-0.000034	-0.003653	0.004843	6819.641562	45795.133599	3943.701158	24109.826665
5.535500	0.001350	-0.000510	0.000811	0.000070	6907.271108	46221.553135	3967.093914	24344.490098
6.035500	-0.000249	-0.000639	0.001585	-0.000394	6896.780162	46255.078944	3970.268942	24367.470946
6.536000	0.000478	-0.000556	0.007246	-0.000109	6900.863919	46234.794869	3984.153965	24353.339005
7.036500	-0.000655	-0.000646	0.000929	-0.000058	6889.932941	46220.797014	3967.726159	24350.831662
7.537000	0.000715	0.000219	0.001027	0.000494	6897.486456	46252.040452	3966.565055	24323.555845
8.037000	-0.000622	-0.000556	0.001053	0.000001	6889.693903	46223.828750	3967.892048	24347.910444
8.537000	-0.000584	0.000455	0.003525	0.000389	6886.467877	46286.086796	3973.243516	24328.723483
9.037500	0.001930	-0.000229	-0.001148	-0.000110	6914.324115	46267.641900	3962.553060	24353.417184
9.538000	-0.000880	-0.001085	0.003351	-0.000897	6895.604587	46260.754082	3976.111709	24392.389286
10.035500	0.000957	0.000000	-0.001276	-0.000169	6905.849083	46296.377837	3962.375517	24356.331605
10.535500	0.001645	0.000983	-0.003047	0.000667	6904.484570	46311.045770	3955.751451	24315.022419
11.036000	-0.000229	-0.000115	0.000952	0.000029	6893.064004	46265.192573	3967.562146	24346.553718
11.536000	0.000000	0.000024	0.000000	0.000000	6895.441638	46281.915275	3965.200795	24347.967535
12.036500	0.001996	-0.000496	0.000383	-0.000099	6914.830947	46239.851454	3966.434024	24352.877027
12.537000	0.000189	-0.000977	-0.001475	-0.000617	6902.895100	46243.539042	3963.012340	24378.514839
13.037000	-0.000267	-0.000424	-0.002241	-0.000693	6899.376625	46306.393155	3961.252060	24382.286165
13.537500	-0.000543	-0.000413	-0.000795	-0.000497	6895.010746	46287.799138	3964.439482	24372.541845
14.040500	-0.001516	-0.000428	-0.000062	0.002757	6856.183312	45962.563091	3958.019108	24212.052521
14.538000	-0.001126	-0.000697	0.002994	0.001947	6867.176989	46016.230939	3967.880325	24251.922648
15.035500	0.000925	-0.000337	0.004929	0.000025	6903.758859	46243.291115	3977.803013	24346.724426
15.535500	0.000999	0.000042	0.002586	0.000142	6903.367050	46269.559028	3971.464301	24340.960435
16.036000	0.000020	0.000148	0.001294	-0.000024	6895.849356	46296.619739	3968.573575	24349.142577
16.536500	0.002154	-0.000578	0.001466	-0.000017	6915.535067	46223.506757	3968.998153	24348.810065
17.036500	0.003891	-0.000263	0.006359	-0.002761	6957.324983	46529.606643	3988.752159	24484.912484
17.537000	-0.000728	-0.000860	0.001609	0.000651	6882.735216	46128.860819	3967.652002	24315.811317
18.037000	0.000070	-0.000089	0.004403	0.001720	6880.238953	46099.132224	3972.078437	24263.070321
18.537500	-0.001641	-0.000480	-0.000524	0.001801	6863.791374	46052.283475	3959.275627	24259.100785
19.038000	-0.003085	-0.001226	-0.001370	0.000833	6859.429299	46074.360568	3959.584338	24306.811460
19.535000	-0.002570	-0.000429	-0.000059	0.000990	6862.714368	46138.024874	3962.523675	24299.088982
20.036000	-0.001230	-0.000809	-0.000407	0.001345	6871.737686	46064.838887	3960.730414	24281.538200
20.536000	-0.001021	-0.000843	-0.004106	0.000870	6878.022194	46108.694573	3952.557867	24304.992099
21.036000	-0.002374	-0.000590	-0.002527	0.001450	6860.290587	46076.151133	3955.083299	24276.362016
21.536500	-0.000611	0.000116	0.000948	0.002076	6870.719081	46084.195490	3962.322774	24245.579335
22.036500	-0.001617	-0.000406	-0.002470	0.001285	6868.738000	46110.859152	3955.645139	24284.497652
22.537000	-0.002487	-0.001014	-0.000021	0.000642	6866.660473	46114.394852	3963.507615	24316.245348
23.034500	0.000235	-0.000609	-0.001187	0.001354	6885.120261	46083.838377	3958.727075	24281.106275
23.540500	-0.002085	-0.000253	-0.002055	0.001009	6866.982962	46153.674736	3957.399257	24298.148660
24.035000	-0.001193	-0.000230	0.001786	0.000872	6876.427882	46169.635386	3967.541266	24304.914157
24.535500	-0.000793	-0.000281	0.000863	0.001459	6874.708764	46106.115203	3963.679287	24275.965462
25.035500	-0.003356	-0.000272	0.003736	0.001550	6850.400992	46097.878529	3970.800503	24271.440074
25.536000	-0.001738	-0.000644	-0.003166	0.001191	6868.490957	46096.635893	3954.123631	24289.156363
26.036500	0.000359	0.000634	-0.001817	0.001986	6880.451509	46144.661433	3955.525831	24249.996857
26.536500	-0.000114	-0.000198	-0.003231	0.001693	6878.794497	46091.118318	3952.689346	24264.433692
27.037000	-0.000820	-0.000586	0.006327	-0.001862	6905.072234	46407.026978	3986.324484	24440.219979
27.537000	0.002657	-0.000505	-0.000136	-0.000564	6925.292149	46285.465899	3966.295780	24375.899447
28.040000	0.002103	0.000589	0.006021	0.000632	6909.044328	46275.180700	3979.057278	24316.716682
28.535000	-0.002872	-0.000420	-0.001057	-0.000281	6871.596131	46265.580155	3963.219852	24361.879795
29.035000	-0.002319	-0.000209	-0.002354	0.005545	6823.492506	45708.507921	3945.195779	24075.488337
29.535500	0.000939	0.000226	0.005458	0.000507	6899.432259	46251.438836	3977.924956	24322.923701
30.035500	0.000676	-0.000415	0.001545	0.000033	6901.386265	46234.748909	3969.070881	24346.341888
30.536000	-0.001618	-0.000556	0.002303	0.002552	6857.126075	45970.205145	3964.565108	24222.130704
31.036500	-0.005144	-0.000745	-0.000995	0.004460	6807.751517	45762.784819	3951.348307	24128.562387
31.536500	0.000790	-0.000122	-0.000479	0.000236	6900.561144	46243.776201	3963.376205	24336.304917
32.040000	0.000753	-0.000454	-0.000462	0.000458	6898.169132	46188.525670	3962.852459	24325.334092
32.537500	0.000258	-0.000370	0.003382	0.000490	6893.298744	46193.663574	3972.615781	24323.728174
33.040000	-0.003295	-0.000506	-0.001123	0.003662	6831.718964	45865.214406	3953.039990	24167.635467
33.535000	0.000583	-0.000446	0.003118	-0.001022	6910.285468	46337.104484	3975.830177	24398.566885
34.038000	-0.002158	-0.000110	-0.000380	0.001978	6857.433692	46071.447046	3959.190573	24250.358880
34.535500	-0.001977	-0.000285	0.000470	0.002289	6856.255350	46023.217177	3960.561736	24235.090795
35.039000	-0.001585	-0.000202	0.000248	0.002457	6858.295178	46014.693739	3959.568639	24226.805836
35.536500	-0.000861	-0.000452	-0.000634	0.001999	6869.123089	46035.368985	3958.493950	24249.363208
36.036500	-0.001229	0.000040	0.003754	0.002531	6860.882105	46031.418310	3968.331653	24223.190838
36.536000	-0.001082	-0.000950	-0.001565	0.001947	6867.576555	45991.093289	3956.262735	24251.920303
37.037000	-0.001616	-0.001159	0.004977	0.001959	6862.571825	45969.168650	3972.939005	24251.312255
37.540500	-0.002446	-0.000854	0.001457	0.001638	6857.910088	46031.265856	3964.736936	24267.111743
38.037500	-0.000067	0.000797	0.000071	0.003178	6865.591324	46042.307194	3957.289037	24191.379551
38.535000	-0.000148	-0.001250	-0.001906	0.001332	6881.798877	46022.334822	3956.955607	24282.183068
39.035500	-0.001563	-0.000779	0.001794	0.001821	6864.315252	46020.590968	3965.131751	24258.089447
39.535500	-0.001548	-0.000769	0.003169	0.001976	6863.041304	46006.187532	3968.253812	24250.467800
40.035500	-0.002179	-0.000398	0.007080	0.002084	6856.283265	46032.363855	3978.041252	24245.179657
40.536500	-0.000323	-0.000281	-0.000585	0.002379	6870.564877	46014.569831	3957.651249	24230.623850
41.036500	-0.002319	-0.000650	0.001872	0.001859	6857.052950	46029.612877	3965.234156	24256.240812
41.537000	-0.001648	-0.000374	0.000597	0.002445	6857.830096	45998.820249	3960.487958	24227.392200
42.037000	-0.002204	-0.001195	-0.003435	0.001721	6859.364426	45989.227888	3952.101289	24263.027635
42.537500	-0.001163	-0.000811	0.000418	0.001875	6867.490535	46012.006592	3961.483843	24255.437722
43.035000	-0.002813	-0.000258	-0.002666	0.002445	6847.196261	46010.371851	3952.216466	24227.420383
43.535500	0.001763	0.000226	0.003681	-0.000514	6916.517603	46353.423309	3975.971279	24373.394029
44.035500	0.000681	-0.000660	0.003517	-0.001786	6918.277088	46392.065469	3978.834583	24436.459843
44.536000	-0.000694	-0.000007	0.005833	0.000645	6883.100147	46214.413930	3978.537887	24316.082972
45.035500	-0.001821	0.000381	-0.000049	0.004356	6838.816340	45884.257219	3954.000260	24133.644117
45.536000	0.000654	-0.000243	-0.000207	0.000073	6900.815153	46247.944701	3964.488025	24344.382347
46.036500	-0.001432	-0.001074	-0.003068	-0.000695	6888.646296	46241.639950	3959.154511	24382.363412
46.537000	-0.000743	-0.000402	0.000040	0.000774	6881.456378	46162.186089	3963.325717	24309.712439
47.037500	-0.001923	-0.001282	-0.000376	0.002992	6850.321197	45854.697631	3956.629302	24200.538141
47.537500	-0.001961	-0.000914	0.002248	0.002324	6856.076145	45957.352074	3965.006882	24233.363506
48.035000	-0.000283	0.000146	0.003256	0.000793	6885.521211	46214.981891	3971.512534	24308.801354
48.535500	-0.001490	-0.000294	-0.000089	0.001242	6870.296985	46126.329405	3961.805483	24286.635906
49.035500	-0.002410	-0.000074	-0.001826	0.003052	6845.327386	45968.411650	3952.805504	24197.576008
49.536000	0.004462	0.000814	0.003725	-0.001877	6954.387304	46549.075874	3979.607103	24440.961769
50.036500	0.000698	-0.000231	0.004946	0.000328	6898.862679	46223.747524	3977.066264	24331.776068
50.536500	-0.004684	-0.003584	-0.000078	0.001109	6842.316237	45813.278199	3962.171689	24293.194776
51.036500	-0.040561	-0.019452	-0.010496	0.318941	4638.153560	22804.001567	3375.156804	13176.246883
51.537000	-0.017815	-0.014201	-0.019123	-0.015829	6877.145045	46442.381291	3956.814729	25145.123547
52.037000	-0.030847	-0.140736	-0.017470	-0.300281	10342.274019	65535.000000	4983.829644	45749.719836
52.535000	-0.032899	-0.192127	-0.004560	-0.351672	11239.359912	65535.000000	5323.488613	51135.902935
53.035000	-0.045097	-0.154625	-0.005386	-0.314170	10336.075185	65535.000000	5115.007967	47143.134773
53.535500	-0.036872	-0.146687	-0.000934	-0.306232	10340.999577	65535.000000	5096.941445	46341.300292
54.035500	-0.034647	-0.109227	-0.007155	-0.268773	9760.050749	65535.000000	4882.453864	42749.070275
54.536000	-0.025960	-0.111622	-0.010001	-0.271168	9937.721072	65535.000000	4880.351270	42969.596832
55.036500	-0.015702	-0.105866	-0.004610	-0.265412	10011.201075	65535.000000	4878.653132	42441.659496
55.536500	-0.007614	-0.079232	-0.006378	-0.238682	9711.805273	65521.081156	4750.146437	40079.654961
56.037000	-0.008218	-0.054229	-0.004126	-0.203722	9175.139412	64102.017476	4612.693798	37201.971122
56.537000	-0.010239	-0.035430	-0.001060	-0.171019	8691.854246	62173.799840	4496.771143	34711.816225
57.035000	-0.010989	-0.020887	-0.001836	-0.125230	8101.863275	58059.270501	4329.888242	31525.767661
57.535000	-0.009459	-0.017207	-0.007457	-0.103108	7860.320077	55766.144134	4238.639426	30102.742258
58.034500	-0.007886	-0.013361	-0.004226	-0.082897	7651.364421	53811.291272	4185.601237	28864.574556
58.535500	-0.009198	-0.012852	-0.004783	-0.066545	7461.433144	51987.701401	4134.803351	27904.088768
59.036000	-0.007659	-0.010268	-0.006488	-0.046998	7275.581572	50107.448276	4073.703661	26802.418174
59.536000	-0.013081	-0.010300	-0.009459	-0.035479	7107.655831	48868.648922	4033.727797	26176.073533
60.036500	-0.012516	-0.009430	-0.007815	-0.028794	7048.574488	48257.301916	4020.128953	25820.099597
60.537000	-0.012282	-0.009729	-0.009579	-0.023288	6998.355194	47655.101716	4000.792984	25531.010895
61.037500	-0.013039	-0.008562	-0.007308	-0.016485	6927.383955	47078.066430	3988.900851	25178.798630
61.537500	-0.008979	-0.005269	-0.011366	-0.015034	6951.732242	47265.869592	3974.613784	25104.423645
62.038000	-0.012081	-0.007023	-0.010633	-0.024434	7011.117941	48053.648975	4001.034235	25590.831999
62.535500	-0.015326	-0.006988	-0.016587	-0.020898	6947.214531	47691.225864	3976.273914	25406.650090
63.038000	-0.014201	-0.006729	-0.009170	-0.023055	6978.021689	47941.131120	4001.257825	25518.838770
63.536000	-0.012381	-0.006542	-0.011622	-0.024318	7007.176629	48091.725427	3998.123214	25584.778785
64.042500	-0.011630	-0.005968	-0.010482	-0.025335	7023.991214	48257.614699	4003.814052	25638.051697
64.536000	-0.012834	-0.006194	-0.012892	-0.026919	7027.618091	48399.581600	4001.632362	25721.249148
65.037000	-0.012286	-0.006526	-0.011731	-0.027724	7040.523974	48449.131870	4006.830782	25763.596357
65.537000	-0.012869	-0.006523	-0.011674	-0.027435	7032.203788	48419.271017	4006.218454	25748.413821
66.040000	-0.011885	-0.006137	-0.011357	-0.027353	7040.827095	48451.066430	4006.842058	25744.086752
66.537500	-0.011474	-0.005899	-0.010360	-0.027465	7045.830441	48487.822828	4009.784924	25749.985081
67.035000	-0.010025	-0.006044	-0.012660	-0.028075	7065.593625	48536.580008	4005.299807	25782.112063
67.535500	-0.010397	-0.005553	-0.009569	-0.027325	7054.803412	48509.350217	4011.515682	25742.579771
68.035500	-0.010867	-0.005460	-0.009657	-0.026215	7039.674198	48402.745685	4008.332305	25684.225764
68.536000	-0.011917	-0.005507	-0.014843	-0.025439	7022.244279	48316.616520	3992.610591	25643.483413
69.036000	-0.012707	-0.006372	-0.015955	-0.025374	7014.111747	48219.475258	3989.534438	25640.092877
69.536500	-0.014459	-0.006495	-0.015499	-0.025246	6996.281521	48193.325119	3990.391478	25633.389563
70.036500	-0.013526	-0.006222	-0.014608	-0.024553	6998.551691	48149.508819	3990.909508	25597.096621
70.540000	-0.012074	-0.005607	-0.015248	-0.023750	7004.704427	48129.945434	3987.142516	25555.108304
71.037500	-0.013277	-0.005941	-0.013851	-0.023295	6989.001384	48047.783406	3989.597923	25531.350747
71.534000	-0.013102	-0.006355	-0.013173	-0.023428	6991.917026	48018.638116	3991.719228	25538.315313
72.035000	-0.013645	-0.006020	-0.015271	-0.021924	6972.604843	47897.360139	3982.334332	25459.934312
72.535500	-0.012883	-0.005521	-0.013759	-0.021140	6972.395796	47867.804690	3984.223009	25419.179030
73.035500	-0.011297	-0.005064	-0.015105	-0.020530	6981.592982	47851.971940	3979.149388	25387.529516
73.536000	-0.011733	-0.005808	-0.010729	-0.021149	6983.327366	47839.055606	3992.152515	25419.686070
74.036500	-0.011819	-0.005221	-0.014543	-0.019332	6965.404104	47711.957617	3977.504888	25325.501427
74.536500	-0.013044	-0.006292	-0.015115	-0.020799	6967.680154	47752.866200	3979.822275	25401.502090
75.037000	-0.012244	-0.005580	-0.016090	-0.020480	6972.204634	47793.420983	3976.476021	25384.959490
75.537000	-0.013053	-0.005191	-0.015897	-0.019599	6956.337604	47742.690351	3974.702968	25339.354670
76.037500	-0.011816	-0.005692	-0.013464	-0.019245	6964.619054	47654.492024	3980.072993	25321.043424
76.535000	-0.010471	-0.005425	-0.015080	-0.019525	6979.905090	47710.773429	3976.616365	25335.493130
77.035500	-0.010567	-0.005499	-0.013635	-0.019393	6977.761109	47689.529508	3980.012435	25328.670662
77.536000	-0.009080	-0.004695	-0.011068	-0.018421	6982.621962	47672.335964	3984.152760	25278.497591
78.036000	-0.010307	-0.005413	-0.013767	-0.018083	6967.872995	47563.547811	3976.283829	25261.021558
78.536000	-0.010703	-0.005221	-0.012282	-0.018572	6968.753405	47633.590202	3981.391276	25286.258723
79.036500	-0.011382	-0.005579	-0.012073	-0.018412	6960.875770	47580.280310	3981.518468	25278.016420
79.537000	-0.010185	-0.004863	-0.012769	-0.018166	6969.805755	47628.718829	3979.080189	25265.334819
80.040000	-0.012213	-0.006637	-0.011455	-0.018168	6950.793087	47446.555521	3982.487379	25265.415824
80.537500	-0.011624	-0.005620	-0.011470	-0.017995	6954.701344	47533.305052	3982.002399	25256.530821
81.035000	-0.011011	-0.005914	-0.013095	-0.018008	6960.564151	47504.319248	3977.826527	25257.167028
81.535000	-0.009742	-0.005299	-0.012923	-0.018145	6973.783827	47581.736741	3978.627519	25264.265574
82.035500	-0.011687	-0.005195	-0.008913	-0.017484	6949.321752	47524.382459	3987.322762	25230.194662
82.535500	-0.009144	-0.005649	-0.009662	-0.017779	6975.958837	47508.047759	3986.138300	25245.361403
83.036000	-0.009140	-0.006237	-0.013656	-0.017358	6972.036497	47404.532368	3974.701384	25223.696855
83.536500	-0.011127	-0.006250	-0.011444	-0.017855	6958.041405	47454.198673	3981.706081	25249.287497
84.036500	-0.011612	-0.006502	-0.013807	-0.017645	6951.523837	47406.809337	3975.050153	25238.457961
84.536500	-0.011254	-0.007180	-0.013334	-0.018019	6958.389191	47375.680964	3977.237489	25257.756157
85.037000	-0.012020	-0.006822	-0.009835	-0.017041	6942.065429	47312.170504	3983.767412	25207.372066
85.537000	-0.011065	-0.007030	-0.010463	-0.017826	6958.347836	47371.285980	3984.177857	25247.792760
86.035000	-0.011004	-0.006923	-0.010256	-0.017551	6956.346300	47354.073851	3984.001675	25233.646773
86.535000	-0.010253	-0.006440	-0.010349	-0.016815	6956.487361	47328.197109	3981.849196	25195.786061
87.035500	-0.010262	-0.007228	-0.013832	-0.017582	6963.595903	47326.061882	3974.826340	25235.242220
87.536000	-0.010464	-0.006770	-0.007832	-0.016615	6952.627425	47273.922115	3987.873034	25185.471050
88.036000	-0.010820	-0.007212	-0.013035	-0.017283	6955.556802	47297.105430	3976.109591	25219.848489
88.536000	-0.012652	-0.007403	-0.012115	-0.016169	6928.045583	47163.862249	3975.609291	25162.586405
89.036500	-0.010834	-0.006829	-0.011681	-0.016126	6944.596031	47218.042905	3976.619825	25160.392052
89.539500	-0.010559	-0.007015	-0.007743	-0.016090	6946.831813	47195.405487	3986.738458	25158.536229
90.037000	-0.011423	-0.007508	-0.012514	-0.016769	6945.108496	47214.427498	3976.128458	25193.424009
90.535000	-0.009394	-0.007055	-0.010473	-0.014888	6946.491982	47068.964503	3976.541916	25096.953392
91.035000	-0.012177	-0.007239	-0.013845	-0.015831	6929.314442	47146.116198	3970.287499	25145.224738
91.535500	-0.011913	-0.007133	-0.009414	-0.015558	6929.239934	47129.226905	3981.013949	25131.271205
92.035500	-0.009963	-0.007818	-0.011325	-0.016227	6953.697463	47127.526813	3977.799330	25165.575454
92.536000	-0.009843	-0.007396	-0.010668	-0.016039	6953.059996	47151.398317	3979.011300	25155.943155
93.036500	-0.010665	-0.007721	-0.006609	-0.016100	6945.931987	47124.429068	3989.721741	25159.037190
93.536000	-0.009731	-0.007557	-0.012010	-0.016204	6955.646330	47151.777329	3975.971210	25164.392262
94.037500	-0.011271	-0.007399	-0.009042	-0.014451	6924.901477	46989.527580	3979.108213	25074.567508
94.537000	-0.011312	-0.007451	-0.009152	-0.016130	6940.173728	47155.056900	3983.177548	25160.611160
95.037500	-0.009390	-0.007507	-0.012036	-0.016077	6957.650881	47143.891066	3975.574588	25157.850600
95.538000	-0.010627	-0.008032	-0.007161	-0.016533	6950.336898	47136.933119	3989.409793	25181.284764
96.035000	-0.012422	-0.008562	-0.011150	-0.014927	6918.628283	46919.838328	3974.892458	25098.911368
