sample name	sample
index	686
start time	 03-22-2021  12:10:15 PM
880	0.126948
Peak Time (s)	92.536
Peak Height 	0.1269
calc peak height	90,93
Baseline Time (s)	10.535
Baseline Value 	-0.00292
subtract baseline	10,4
Abs	0.071983
Peak Time (s)	90.535
Peak Height 	0.07198
calc peak height	90,93
Baseline Time (s)	9.536
Baseline Value 	0.005513
subtract baseline	10,3
PK_550	0.039017
Peak Time (s)	91.035
Peak Height 	0.03902
calc peak height	90,93
Baseline Time (s)	11.537
Baseline Value 	5.4736E-4
subtract baseline	10,2
PK_880	0.068964
Peak Time (s)	90.535
Peak Height 	0.06896
calc peak height	90,93
Baseline Time (s)	10.035
Baseline Value 	0.001748
subtract baseline	10,1


Time (s)	A880-A510	A880-A775	A880-A975	A880	I510	I775	I975	I880	
0.035000	-0.001409	-0.000040	-0.003815	0.001580	7370.950902	45697.705903	3964.720859	24168.480280
0.535000	-0.003213	0.000421	-0.008177	0.007589	7290.398376	45154.259543	3937.852918	23875.516504
1.036000	-0.004380	-0.000300	-0.007113	0.003258	7322.849995	45507.134020	3951.752297	24086.288813
1.536000	-0.002501	-0.000564	-0.003508	0.000350	7372.395803	45767.446736	3968.759983	24228.951484
2.036000	-0.000409	-0.000370	-0.006952	0.000546	7392.160913	45767.184802	3959.222126	24219.294279
2.536500	-0.004674	-0.000444	-0.003891	0.006508	7286.515711	45175.398965	3951.678209	23927.949565
3.039500	0.001490	-0.000954	-0.000371	-0.002003	7438.894638	45961.684838	3983.293931	24345.099047
3.537500	-0.000060	-0.000456	-0.003440	-0.000277	7404.430959	45840.091936	3970.588034	24259.841856
4.035000	-0.001382	-0.000550	-0.005288	-0.000086	7388.599404	45811.899918	3965.227322	24250.414918
4.534500	-0.003642	-0.000049	-0.004144	0.001700	7346.543225	45685.021510	3963.546156	24162.596088
5.035000	-0.001280	-0.000773	-0.003423	-0.000318	7392.096929	45812.869065	3970.742579	24261.897685
5.535500	-0.002490	-0.000401	-0.006137	-0.000441	7380.741434	45861.682716	3963.932261	24267.927015
6.036000	-0.000483	-0.000039	-0.006460	-0.000233	7399.548662	45876.990809	3962.543368	24257.690518
6.536000	-0.000777	0.000082	0.002746	-0.000363	7397.836659	45901.906607	3987.239740	24264.115562
7.037000	-0.001447	-0.000574	-0.000628	-0.000834	7395.739567	45883.515764	3979.501083	24287.322254
7.539500	-0.001733	-0.000299	-0.006382	-0.000704	7391.387226	45897.837260	3963.978928	24280.889872
8.037000	0.000009	0.000737	-0.001891	0.000538	7396.624028	45877.454179	3972.524876	24219.698775
8.537500	-0.000964	0.000606	0.000497	0.000397	7387.925719	45878.515942	3979.220911	24226.660454
9.035000	0.000022	0.000086	-0.006322	-0.000374	7406.315348	45903.365913	3963.272974	24264.635203
9.535500	0.000451	-0.000049	0.000000	-0.000390	7410.982568	45891.528755	3979.991331	24265.425118
10.035000	0.000000	-0.000401	0.000309	-0.000330	7405.616663	45850.718666	3980.651514	24262.444189
10.535000	0.000096	-0.000365	-0.001033	0.000000	7403.164076	45821.668244	3976.215766	24246.199625
11.036000	-0.000901	0.001197	0.002879	0.000735	7385.055533	45903.476033	3984.660291	24210.000839
11.536500	-0.000249	0.000000	-0.002060	0.000113	7398.371407	45846.568697	3973.200620	24240.614615
12.039500	0.000856	0.000225	-0.000826	0.000052	7410.595009	45874.949864	3976.626882	24243.635435
12.537000	0.000374	0.000327	-0.002122	0.000419	7401.692643	45848.661699	3972.228627	24225.552043
13.037000	0.000129	0.000192	-0.001002	0.000437	7398.938962	45833.586591	3975.143090	24224.695108
13.537500	0.000610	-0.000451	-0.002990	0.000362	7404.766689	45777.451654	3970.093362	24228.380891
14.035000	-0.000620	-0.000186	-0.004202	0.003111	7363.250051	45532.819855	3959.706883	24093.486479
14.535000	-0.002244	-0.000071	-0.005504	0.005747	7319.219660	45285.967227	3949.473831	23964.911618
15.041000	-0.000816	0.000405	-0.003829	0.000843	7384.811307	45814.473044	3966.619003	24204.702018
15.536000	0.000941	0.001303	-0.003434	0.001651	7394.733315	45823.368592	3965.534088	24164.996703
16.036500	0.000117	0.000173	-0.002804	0.000745	7395.582349	45801.211370	3969.572387	24209.509746
16.539000	-0.000974	0.001080	-0.001205	0.006641	7323.082709	45310.968097	3958.315046	23921.477566
17.037000	0.003122	0.000996	-0.001508	-0.001617	7452.076715	46117.125982	3979.246767	24326.029766
17.537000	0.001067	0.000789	-0.003747	0.002309	7389.168342	45707.599529	3962.990479	24132.731832
18.037500	0.000796	0.000950	0.003977	0.002878	7380.406296	45667.461771	3981.877909	24104.887455
18.534500	-0.002176	-0.000035	-0.001092	0.003695	7341.076625	45490.289679	3966.317952	24064.910691
19.035000	-0.000274	0.000022	-0.002943	0.002692	7371.202193	45594.455613	3964.093795	24113.984714
19.535500	-0.000877	0.000192	-0.001611	0.002275	7369.264937	45652.144559	3968.686205	24134.395079
20.036000	-0.000312	0.001044	-0.000446	0.002847	7369.193196	45679.775958	3970.248131	24106.389654
20.536000	-0.002642	-0.000161	-0.001252	0.003794	7335.245785	45468.254444	3965.637922	24060.097524
21.036000	0.000405	0.001289	-0.002856	0.003312	7371.803445	45657.998226	3962.697311	24083.617505
21.536000	-0.001317	0.000086	0.000024	0.002009	7367.456193	45667.926606	3973.699802	24147.453230
22.036500	-0.000735	-0.000696	-0.002362	0.002017	7373.422807	45590.140317	3967.389113	24147.063566
22.537500	-0.002515	0.000878	-0.000376	0.004440	7329.879879	45506.735506	3966.242814	24028.555608
23.040000	0.000117	0.000929	-0.001514	0.003021	7371.845788	45651.252939	3966.980389	24097.877949
23.535000	0.000756	0.000214	0.001352	0.002641	7382.466283	45618.304521	3975.538662	24116.490339
24.034500	-0.000281	-0.000184	-0.001447	0.002413	7374.023021	45601.608423	3968.755094	24127.634637
24.538500	0.001774	-0.000178	-0.001261	0.002422	7395.379874	45601.337608	3969.219574	24127.205089
25.035500	-0.000180	-0.000179	-0.001089	0.002626	7372.861478	45581.092351	3969.135415	24117.198554
25.539000	-0.000889	0.000916	-0.000728	0.003228	7359.234182	45629.615027	3968.502052	24087.729797
26.039000	0.001502	0.001049	0.003910	0.003893	7377.183877	45577.324875	3978.999422	24055.243144
26.537000	-0.002736	0.000753	-0.003330	0.004708	7324.843626	45468.250818	3957.814057	24015.488765
27.036500	0.001889	0.000899	0.002679	0.000255	7419.315897	45921.539060	3985.408763	24233.643403
27.537500	0.000592	0.001207	-0.000580	0.001954	7387.919790	45783.929807	3972.246959	24150.134826
28.035000	-0.000274	0.000106	-0.000786	0.001729	7381.234530	45697.464001	3972.299479	24161.193697
28.534500	0.001195	0.001429	0.000583	0.002634	7387.118583	45738.738357	3973.525185	24116.827480
29.035500	0.000614	0.001067	-0.003362	0.002428	7383.197330	45723.321517	3963.687258	24126.916402
29.535500	0.001445	0.001078	0.004561	0.002902	7386.927866	45677.710972	3983.369361	24103.707303
30.038500	0.002457	0.001441	-0.001879	0.002639	7400.258019	45739.378499	3967.022770	24116.563943
30.536500	0.000283	0.000752	-0.001826	0.005857	7344.145977	45355.565457	3958.741053	23959.559944
31.036500	0.001351	0.001852	-0.000667	0.004633	7367.914061	45583.456425	3964.970372	24019.137393
31.537000	0.001955	0.001019	-0.002932	0.002830	7393.009799	45678.965473	3963.760657	24107.214678
32.037000	-0.000128	0.000788	0.003472	0.002436	7375.386546	45694.982739	3981.709523	24126.515640
32.535000	-0.004711	0.000430	-0.004713	0.007783	7273.152504	45136.408060	3946.257696	23866.166423
33.037500	0.001410	0.001350	-0.000475	0.001356	7402.729974	45857.210241	3974.104463	24179.487445
33.535500	0.000715	0.001116	-0.001557	0.004010	7367.781152	45572.445353	3964.272164	24049.553659
34.035000	0.000994	0.000888	0.002051	0.004790	7362.562236	45473.373451	3971.706154	24011.477481
34.538500	0.000898	0.000944	0.000915	0.006513	7343.714690	45310.243891	3964.189521	23927.675199
35.036000	-0.000304	0.001485	-0.000134	0.005342	7343.399415	45477.827321	3964.511005	23984.597225
35.536500	-0.000123	0.000547	0.004282	0.004170	7357.407749	45500.778933	3979.253222	24041.725299
36.038500	-0.001262	0.000087	-0.004891	0.003730	7350.161505	45498.781952	3956.296164	24063.189360
36.537000	0.000050	0.001198	0.000030	0.004494	7355.845898	45532.957789	3967.167176	24025.940941
37.036500	0.000369	0.001135	-0.002061	0.004598	7358.077431	45516.474535	3961.414731	24020.863871
37.538000	0.001032	0.001218	-0.001500	0.005049	7360.271611	45480.333156	3961.700978	23998.875503
38.035000	0.000623	0.001487	0.003548	0.005298	7353.452158	45482.339219	3974.319498	23986.756109
38.535500	0.001056	0.000847	0.000176	0.005190	7359.059770	45430.192183	3965.723199	23992.014954
39.038000	0.002063	0.001057	0.000246	0.004997	7371.523546	45469.624705	3966.410355	24001.388559
39.536000	0.000595	0.001889	0.000026	0.005481	7351.266377	45503.786938	3964.564953	23977.826823
40.036000	0.001763	0.001725	0.001914	0.005331	7364.933595	45502.417226	3969.919279	23985.119845
40.536500	-0.001068	0.000672	-0.000987	0.005795	7330.839639	45353.839950	3961.092850	23962.584279
41.036500	0.000535	0.001457	-0.001006	0.005511	7350.333447	45458.564121	3961.786168	23976.397571
41.537000	0.000269	0.000991	-0.003076	0.005151	7351.310301	45448.142764	3957.322552	23993.922819
42.037500	0.001466	0.001658	0.003418	0.005756	7357.452315	45454.212552	3972.767022	23964.491388
42.538000	0.001067	0.001225	-0.000110	0.006924	7341.209040	45297.495447	3960.431531	23907.736496
43.035000	0.000248	0.001949	0.004505	0.005797	7344.403840	45478.667525	3975.530779	23962.468347
43.538000	0.006715	0.001753	0.003239	0.000780	7464.762434	45954.162903	3985.501700	24207.817408
44.036000	0.001054	0.001087	0.002584	0.003251	7379.205374	45644.238850	3977.186399	24086.630352
44.536000	0.000198	0.001639	-0.003695	0.008043	7320.717230	45228.786055	3948.214299	23853.573045
45.036500	0.000518	0.001041	0.002236	0.003088	7375.329084	45655.737883	3976.697287	24094.613510
45.537000	0.003051	0.001877	0.003112	0.003604	7396.374219	45687.265703	3977.649295	24069.362567
46.037000	0.001968	0.001122	0.001424	0.003676	7384.311985	45605.800159	3972.993779	24065.866747
46.536500	0.000258	0.001490	-0.000134	0.008232	7319.394072	45195.811343	3956.960185	23844.431334
47.034500	0.001845	0.002009	0.001367	0.006968	7348.806034	45369.895503	3964.181619	23905.609553
47.535000	0.001593	0.001485	0.001046	0.004674	7370.009671	45543.454606	3969.365478	24017.162179
48.038000	0.001777	0.001548	0.004124	0.004548	7373.228039	45561.988546	3977.830435	24023.293601
48.535500	-0.000045	0.001443	-0.000275	0.009367	7304.628800	45080.755554	3953.642179	23789.615133
49.036000	0.006855	0.002042	0.004932	0.002394	7449.131082	45822.983537	3985.711243	24128.569033
49.536500	0.003661	0.001155	0.000958	0.002186	7417.650190	45755.923277	3975.700730	24138.784533
50.036000	0.003012	0.001785	0.002588	0.006059	7370.355678	45436.959993	3969.777575	23949.734077
50.536500	-0.052713	-0.014651	0.002619	0.297309	4884.704997	23836.525306	3410.999246	13639.289329
51.037000	-0.032001	-0.010962	-0.013395	0.032691	6772.521561	41748.157956	3862.884507	22694.614285
51.537000	-0.066158	-0.119804	-0.018278	-0.283526	10357.386038	65535.000000	4949.466931	43953.586563
52.035000	-0.052658	-0.188306	-0.005684	-0.352028	11917.025636	65535.000000	5385.397197	50976.481565
52.535000	-0.063996	-0.152289	-0.009031	-0.316012	10980.635715	65535.000000	5163.630928	47146.209158
53.035500	-0.056407	-0.131672	0.000575	-0.295394	10740.424815	65535.000000	5105.108948	45092.388481
53.538000	-0.044192	-0.112763	-0.006411	-0.276485	10619.769672	65535.000000	4973.192154	43292.515288
54.035500	-0.020584	-0.107645	-0.005082	-0.271368	10957.616712	65535.000000	4954.541775	42818.748919
54.539000	-0.006554	-0.094502	-0.002107	-0.258224	10974.179315	65535.000000	4905.286656	41627.221921
55.036500	-0.004086	-0.061604	0.000250	-0.219837	10329.498969	64748.188922	4739.753503	38346.683911
55.538000	-0.007493	-0.031871	-0.000237	-0.170067	9467.817048	61958.633164	4530.634518	34503.012119
56.037000	0.003663	-0.016275	0.001195	-0.129188	9030.205796	58617.738869	4382.633264	31659.350738
56.537500	0.005507	-0.007068	-0.000450	-0.076738	8350.717442	53335.556390	4200.341044	28381.710843
57.037500	-0.001789	-0.007067	0.004193	-0.050740	7944.986895	50404.162639	4134.404474	26898.110334
57.535500	0.000074	-0.004872	0.007514	-0.044215	7890.599602	49932.586113	4124.784868	26539.443125
58.035500	-0.000358	-0.002199	0.006341	-0.010990	7514.919967	46736.552337	4025.893345	24794.616942
58.535500	0.005265	0.000932	0.016223	0.012772	7324.195882	44702.029695	3988.152827	23626.091636
59.036000	0.007710	0.003293	0.014355	0.031104	7163.580417	43192.139429	3935.340327	22767.290104
59.539000	0.008666	0.005090	0.017829	0.047772	7010.401222	41835.224902	3902.148565	22017.277115
60.037000	0.013099	0.008196	0.020879	0.065885	6881.471052	40512.187382	3865.465540	21234.230275
60.540000	0.017079	0.010174	0.034367	0.076004	6824.919422	39813.403132	3873.558438	20810.799561
61.037000	0.024031	0.013217	0.033000	0.087788	6780.967294	39077.536024	3842.317340	20329.964340
61.538000	0.031464	0.017211	0.036281	0.090089	6827.666384	39218.932455	3844.611057	20237.587151
62.035000	0.031559	0.018706	0.028431	0.093531	6797.148414	39056.393397	3818.472138	20100.325095
62.535000	0.035164	0.021256	0.036209	0.095738	6809.868521	39085.039575	3831.285173	20012.882396
63.044500	0.037779	0.022338	0.041156	0.091870	6869.385152	39499.920710	3851.892912	20166.414372
63.539000	0.041981	0.022956	0.042131	0.093406	6894.116552	39422.645491	3850.569896	20105.281903
64.036000	0.040264	0.024060	0.044236	0.099638	6820.821930	38993.772360	3840.881712	19859.434495
64.536500	0.040365	0.025121	0.041613	0.103242	6788.935395	38782.901570	3826.434539	19718.828316
65.036500	0.044083	0.026063	0.051233	0.100037	6852.189034	39127.303532	3856.414608	19843.785017
65.537500	0.046307	0.026149	0.048540	0.101304	6861.016941	39028.909417	3847.063761	19794.288250
66.040000	0.045232	0.028191	0.050276	0.107575	6793.781969	38678.675962	3836.458806	19551.352857
66.535000	0.046156	0.028218	0.044242	0.109920	6780.911907	38488.140316	3817.152134	19461.422520
67.038000	0.049780	0.029583	0.054915	0.106076	6849.045817	38917.730145	3850.840153	19609.103964
67.535500	0.054059	0.030809	0.056249	0.108293	6868.055027	38835.554842	3848.756650	19523.751204
68.035500	0.051783	0.030446	0.055456	0.113462	6799.816174	38380.593846	3834.814753	19326.486116
68.536000	0.052598	0.030928	0.049723	0.114752	6795.492835	38314.579786	3818.633069	19277.589576
69.036500	0.056860	0.032687	0.053369	0.112465	6855.405821	38646.200399	3832.286842	19364.357146
69.536500	0.057586	0.033106	0.058199	0.113410	6853.390746	38602.889675	3841.327393	19328.442831
70.037000	0.056345	0.033369	0.061001	0.118745	6793.261599	38188.142024	3835.424223	19127.233632
70.540000	0.057116	0.033764	0.059374	0.120746	6782.123748	38057.924921	3827.027932	19052.411013
71.034500	0.059943	0.035029	0.062293	0.116147	6849.884327	38536.016093	3844.504969	19224.904258
71.535000	0.064086	0.035330	0.057427	0.116729	6882.802610	38512.961978	3831.808626	19202.986217
72.035500	0.058868	0.034773	0.060428	0.121666	6789.653645	38065.050814	3827.334854	19018.103793
72.535500	0.061072	0.035615	0.056266	0.123603	6792.079749	37976.487592	3813.371990	18946.149456
73.036000	0.064250	0.037422	0.058732	0.119945	6854.571954	38420.818342	3827.392778	19082.300603
73.536500	0.064974	0.036950	0.063401	0.119178	6868.344807	38445.081510	3840.006185	19111.025286
74.036500	0.062846	0.037923	0.061174	0.124394	6801.003212	38099.282700	3822.777009	18916.866385
74.536500	0.061394	0.036852	0.058733	0.124445	6787.365244	38008.469408	3817.075722	18914.982044
75.040000	0.067417	0.038795	0.063491	0.120649	6877.344013	38475.655912	3836.786229	19056.037780
75.537000	0.066561	0.038278	0.067385	0.120734	6868.625595	38426.343296	3845.689139	19052.853926
76.037000	0.064755	0.038238	0.064740	0.125253	6810.558856	38055.226604	3829.008651	18885.110448
76.535500	0.065282	0.038359	0.059132	0.126444	6804.514522	37968.656994	3813.429983	18841.200159
77.035500	0.069328	0.039248	0.065969	0.121223	6889.742620	38465.745313	3841.225883	19034.612038
77.536000	0.068755	0.039226	0.067301	0.121525	6881.622143	38439.186882	3843.638548	19023.362096
78.036000	0.065849	0.039460	0.060874	0.126969	6804.900699	38015.206712	3816.199679	18821.871282
78.536500	0.067460	0.039464	0.070355	0.121316	6871.560309	38475.807341	3851.312137	19031.149037
79.036500	0.069496	0.039256	0.067649	0.121706	6886.812303	38426.835103	3844.028406	19016.604663
79.540000	0.068662	0.039846	0.068117	0.121690	6879.232256	38476.508494	3845.165237	19017.229559
80.034500	0.067504	0.040294	0.065274	0.128016	6810.442350	37997.991415	3823.874473	18783.422282
80.537500	0.065505	0.039025	0.061807	0.127332	6798.466878	37950.692369	3817.502021	18808.525773
81.038000	0.069109	0.039127	0.064860	0.121962	6880.848654	38395.317591	3836.915384	19007.090641
81.535000	0.070331	0.040399	0.069199	0.122398	6888.148308	38463.754630	3846.042262	18990.879140
82.035000	0.066619	0.039182	0.062316	0.127734	6804.940670	37930.924454	3817.743651	18793.740899
82.536000	0.066081	0.038996	0.064222	0.127490	6802.268957	37935.648188	3822.665808	18802.716361
83.035500	0.069861	0.039766	0.069483	0.122010	6887.390333	38443.744208	3847.621625	19005.305657
83.536500	0.067894	0.039234	0.066481	0.121216	6876.499623	38465.165834	3842.439798	19034.868059
84.039500	0.067150	0.039504	0.064827	0.127684	6810.234489	37960.956695	3823.609708	18795.596515
84.534500	0.066509	0.039076	0.063919	0.126928	6811.289212	37987.483686	3823.261679	18823.393844
85.037500	0.070424	0.038580	0.065818	0.120894	6903.016991	38437.978890	3841.643472	19046.895496
85.535000	0.070594	0.039790	0.070707	0.121934	6894.907977	38451.925474	3850.682681	19008.131222
86.035000	0.067881	0.039088	0.066922	0.126789	6825.076541	37999.681637	3830.500190	18828.479331
86.535500	0.070105	0.038889	0.069724	0.121278	6896.466863	38431.874329	3849.911435	19032.562136
87.036000	0.068751	0.039186	0.067357	0.121572	6881.150737	38432.103377	3843.657931	19021.609840
87.536000	0.067645	0.038619	0.071855	0.120912	6877.008925	38439.687221	3855.814381	19046.198226
88.036500	0.065602	0.037959	0.068007	0.126462	6807.265338	37934.862074	3833.771237	18840.523800
88.538500	0.068286	0.038904	0.072728	0.121777	6874.938464	38392.254837	3855.834298	19013.969902
89.037000	0.068439	0.037973	0.064598	0.120940	6884.124286	38384.603610	3838.688281	19045.175181
89.539500	0.069007	0.039013	0.068375	0.121527	6883.939301	38421.556280	3846.151879	19023.273989
90.037500	0.065121	0.037771	0.065303	0.126512	6802.435909	37915.686673	3827.403295	18838.702294
90.535000	0.068964	0.038621	0.071983	0.121240	6886.207346	38413.037036	3855.342242	19033.978871
91.035500	0.068465	0.039017	0.071518	0.121460	6879.531474	38427.442339	3853.720584	19025.783073
91.535500	0.068182	0.038270	0.067534	0.121080	6880.436785	38397.413779	3845.228877	19039.959442
92.036000	0.065532	0.037723	0.066140	0.126523	6806.063872	37910.919177	3829.307379	18838.267720
92.536000	0.063117	0.038091	0.065293	0.126948	6780.309321	37906.376444	3826.376012	18822.650909
93.050000	0.067941	0.037712	0.073319	0.120650	6882.187475	38386.904127	3859.914288	19055.966758
93.537000	0.070125	0.037770	0.073994	0.121036	6898.908530	38360.127580	3860.604457	19041.581599
94.037000	0.068542	0.037666	0.070013	0.121064	6883.927294	38349.351929	3851.099891	19040.546318
94.533500	0.066535	0.036524	0.067048	0.126303	6817.216892	37832.066310	3831.918760	18846.384346
95.037500	0.067533	0.036169	0.069077	0.119922	6885.159788	38320.365118	3851.585991	19083.170628
95.535000	0.067817	0.036859	0.075928	0.120804	6879.607958	38304.724594	3865.776661	19050.233241
