sample name	sample
index	1269
start time	 04-29-2021  02:08:16 PM
880	-0.032057
Peak Time (s)	90.036
Peak Height 	-0.03206
calc peak height	90,93
Baseline Time (s)	9.536
Baseline Value 	-0.006175
subtract baseline	10,4
Abs	-0.005488
Peak Time (s)	92.037
Peak Height 	-0.005488
calc peak height	90,93
Baseline Time (s)	11.537
Baseline Value 	0.001863
subtract baseline	10,3
PK_550	-0.002383
Peak Time (s)	92.537
Peak Height 	-0.002383
calc peak height	90,93
Baseline Time (s)	9.536
Baseline Value 	7.1882E-4
subtract baseline	10,2
PK_880	-0.009800
Peak Time (s)	91.038
Peak Height 	-0.0098
calc peak height	90,93
Baseline Time (s)	8.535
Baseline Value 	0.001444
subtract baseline	10,1


Time (s)	A880-A510	A880-A775	A880-A975	A880	I510	I775	I975	I880	
0.038000	-0.000239	-0.000750	-0.000772	0.003162	6184.602139	43689.458041	3909.043334	22652.067763
0.536000	-0.005591	-0.001225	-0.003116	0.006922	6117.775775	43294.506723	3895.556810	22482.299709
1.039000	-0.000988	-0.000283	-0.000519	0.004628	6168.222793	43595.890364	3906.346074	22585.697895
1.537000	0.001139	0.000420	0.002321	0.002928	6196.568471	43821.255191	3916.471987	22662.669079
2.039500	0.001494	0.000060	-0.002269	0.002240	6204.328414	43852.013652	3907.763077	22693.897103
2.537000	-0.001944	-0.000073	-0.002416	0.005588	6154.129032	43525.871264	3900.028172	22542.361909
3.037500	0.001592	-0.000156	0.004341	-0.001259	6231.262049	44162.122093	3930.488196	22853.525010
3.535000	-0.002583	-0.000159	-0.000698	0.002901	6169.198116	43769.337716	3909.786469	22663.882111
4.035500	0.000477	0.000316	0.003489	0.001803	6200.007497	43917.248538	3921.625033	22713.754076
4.535500	0.000466	-0.000326	0.002035	0.000912	6206.567803	43940.766590	3920.356412	22754.313774
5.036000	-0.003295	-0.000061	0.003859	0.000983	6178.101667	43959.084410	3924.310794	22751.078207
5.539000	0.000469	-0.000346	0.006257	0.001108	6205.123248	43920.324732	3929.460913	22745.374652
6.036500	0.000807	-0.001008	0.000257	0.000065	6215.445860	43956.359598	3918.265404	22792.979836
6.536500	0.001805	0.000189	0.003308	0.000736	6217.892665	44006.015668	3923.624532	22762.344912
7.036500	0.000608	0.000060	-0.002550	-0.000066	6214.939571	44069.634087	3912.273136	22798.965097
7.537000	0.000486	-0.001399	-0.002493	-0.000520	6217.418888	43974.646967	3913.414770	22819.688842
8.035000	0.000644	0.000054	-0.002322	0.000198	6213.231472	44044.027684	3912.192593	22786.884746
8.535000	0.000000	0.000221	-0.004453	0.000253	6208.012160	44054.719838	3907.326329	22784.399033
9.035500	-0.000594	-0.000045	0.000059	-0.000123	6206.378766	44064.980319	3918.241511	22801.535244
9.536000	0.001270	0.000000	0.003086	0.000000	6219.399870	44057.662071	3924.785859	22795.930292
10.038500	0.001350	0.000100	0.000270	-0.000147	6221.097989	44081.086849	3918.769767	22802.654814
10.536500	-0.000376	-0.000263	-0.000471	-0.000454	6210.476753	44075.729730	3917.794177	22816.667845
11.036500	0.000914	0.000292	-0.001692	0.000176	6215.418043	44068.670360	3913.647914	22787.894159
11.537000	-0.001425	-0.000086	0.000000	0.002720	6179.095666	43793.271293	3911.747427	22672.121527
12.037000	-0.000277	0.000004	0.005915	0.000083	6207.209767	44050.191296	3931.014507	22792.136794
12.537500	0.001767	0.000229	0.003562	0.000444	6219.795780	44037.361791	3924.859190	22775.661964
13.035000	0.000402	-0.000499	0.001301	-0.001255	6222.296984	44129.201343	3923.588246	22853.309361
13.535500	0.001244	0.000062	-0.002853	0.000091	6218.522030	44054.876431	3911.247195	22791.774442
14.035500	0.000972	0.000290	0.001487	0.002131	6201.252887	43883.948116	3916.388518	22698.835321
14.538500	-0.003039	0.000162	-0.002100	0.004486	6154.186840	43650.866528	3903.160373	22592.123419
15.036500	0.001923	0.000480	0.000631	0.000478	6220.704994	44057.818573	3918.175840	22774.099908
15.539000	-0.001795	-0.000550	0.000370	0.003351	6171.692205	43690.462601	3911.164397	22643.488679
16.036500	0.000024	-0.000316	0.001538	-0.000431	6213.300001	44068.530393	3922.264111	22815.641164
16.537000	0.000112	0.000672	0.000559	0.000551	6206.626599	44069.191536	3917.853307	22770.803070
17.034000	0.004853	-0.000045	0.001106	-0.002920	6268.476001	44330.471294	3926.914893	22929.754222
17.537500	-0.001972	-0.000618	0.002500	0.001240	6185.997039	43882.350381	3920.667844	22739.394446
18.035500	-0.000005	-0.000023	0.003420	0.001484	6198.794124	43915.414266	3922.188749	22728.277362
18.535500	-0.000803	0.000425	0.004233	0.002090	6188.356885	43900.523491	3922.656602	22700.690090
19.038500	-0.000243	0.000413	0.003122	0.001572	6196.366835	43948.177874	3921.318266	22724.256698
19.535500	-0.000767	-0.000528	-0.000774	0.001543	6192.688673	43862.345544	3912.646692	22725.585089
20.035500	0.001947	-0.000435	0.001772	0.001103	6216.207639	43912.437334	3919.335894	22745.613702
20.536500	0.000031	0.000189	-0.002816	0.000950	6203.044388	43985.822688	3909.417268	22752.606817
21.036500	-0.000378	-0.000133	-0.002328	0.001478	6196.068062	43905.681426	3909.325984	22728.557655
21.537000	-0.001193	-0.000706	0.005588	0.001460	6190.144088	43853.290748	3927.144800	22729.348234
22.035000	-0.000310	-0.000516	0.000113	0.000998	6200.139072	43914.716080	3915.849073	22750.390598
22.535000	0.001051	0.000961	0.003102	0.001981	6202.960245	43961.343398	3920.353865	22705.678869
23.035500	0.000647	0.000272	0.002488	0.001752	6201.656554	43917.918709	3919.487513	22716.063849
23.538000	-0.001872	0.001024	0.000410	0.003255	6171.827732	43847.230097	3911.465535	22647.815596
24.036000	-0.001243	0.000093	0.002935	0.001383	6190.340832	43935.867697	3921.322174	22732.849141
24.536000	-0.000114	-0.000258	0.005407	0.000823	6202.905402	43955.580094	3928.178470	22758.366806
25.036500	-0.000189	-0.000423	0.003660	0.000711	6203.178877	43950.562236	3924.476614	22763.467789
25.536500	-0.000862	0.000056	-0.000157	0.000887	6196.862254	43979.169082	3915.493763	22755.482584
26.037000	0.001721	0.000428	0.002501	0.001517	6211.422579	43954.886943	3920.047029	22726.786779
26.537500	-0.000546	0.000663	0.002422	0.001428	6195.183355	43985.404326	3920.068288	22730.811749
27.037500	0.001091	0.000418	0.006654	-0.000708	6223.359167	44164.195961	3934.501931	22828.277855
27.535000	0.002038	-0.000227	0.005104	-0.001661	6237.637814	44193.425223	3933.139099	22871.922378
28.040500	-0.000125	-0.000357	0.003025	-0.000268	6210.965847	44049.245458	3925.254762	22808.191157
28.535500	-0.003299	0.000025	-0.002652	0.005527	6144.647896	43540.718203	3899.644391	22545.133958
29.036000	-0.000975	0.000453	-0.000596	0.000501	6198.894127	44053.178995	3915.375952	22773.085317
29.536000	0.000792	-0.000406	-0.004845	-0.000260	6217.760003	44043.833371	3907.594330	22807.789670
30.036500	0.002804	0.000914	-0.000179	0.000780	6225.045626	44070.366185	3915.682426	22760.338712
30.536500	-0.001612	0.000860	0.007087	0.003793	6169.776491	43781.191042	3925.254986	22623.440391
31.037000	-0.001859	0.000205	0.002322	0.002616	6176.641746	43830.328883	3917.171847	22676.800447
31.537500	0.001025	0.000847	0.003696	0.001023	6209.911471	44040.998402	3923.853768	22749.264199
32.040000	0.000770	0.000478	-0.002925	0.000475	6212.098239	44057.938343	3910.230274	22774.230847
32.537500	-0.003210	0.000410	-0.000908	0.004264	6154.558095	43694.871940	3906.291231	22602.140991
33.034500	0.003228	0.000271	0.001719	0.000033	6233.851645	44080.199056	3921.627667	22794.433331
33.535500	0.001015	-0.000206	0.000364	0.000736	6211.975904	43968.658679	3916.997317	22762.328606
34.036000	0.000693	0.000982	0.002375	0.002882	6193.588153	43878.351054	3916.695732	22664.732126
34.536000	0.000091	0.000271	-0.003840	0.002340	6193.147480	43862.517298	3904.057382	22689.346808
35.036500	-0.001032	-0.000037	0.003006	0.001454	6191.386463	43916.993013	3921.324205	22729.661072
35.537000	-0.001492	0.000113	0.003273	0.003306	6174.255911	43756.871550	3917.758183	22645.510696
36.040000	-0.000951	0.000361	0.000478	0.001655	6190.500520	43935.508002	3915.196241	22720.513678
36.537000	0.001013	-0.000110	-0.003630	0.001962	6202.812909	43862.218980	3905.359656	22706.512317
37.037500	-0.001366	-0.000044	0.001167	0.001330	6189.820117	43927.874353	3917.467425	22735.269156
37.534500	-0.002410	-0.000136	0.002276	0.001411	6181.485701	43911.651037	3919.776549	22731.597784
38.038000	-0.000901	0.000208	0.002388	0.001381	6192.905625	43946.890981	3920.097586	22732.979508
38.536000	-0.002353	0.000149	0.000057	0.001318	6182.600801	43947.329577	3915.008490	22735.843666
39.035500	-0.000048	0.001071	0.000341	0.002421	6191.507662	43930.162419	3913.174948	22685.655854
39.539000	-0.000614	-0.000132	0.000557	0.002804	6184.473480	43781.003156	3912.801616	22668.284984
40.036000	-0.000033	0.001048	-0.000651	0.002237	6192.991201	43945.401389	3911.371237	22694.028402
40.537000	0.000069	0.000288	0.003871	0.001807	6196.946495	43914.295282	3922.477785	22713.582947
41.037000	0.000029	0.000521	0.001323	0.002042	6194.898910	43914.165569	3916.221803	22702.907424
41.537500	-0.000967	-0.000207	-0.004894	0.002327	6185.384473	43818.724729	3901.754868	22689.924382
42.035500	-0.000383	0.000932	-0.002182	0.002068	6191.641460	43950.366165	3908.338516	22701.697280
42.535500	0.000510	0.000651	-0.002226	0.001948	6199.180251	43935.266026	3908.509139	22707.183864
43.035500	0.001288	0.000555	0.003998	0.002148	6203.481257	43907.332372	3921.996110	22698.062790
43.536000	0.000958	0.000387	-0.002713	0.001499	6205.859039	43952.636323	3908.424017	22727.590533
44.036000	-0.000174	-0.000314	0.005864	-0.000216	6210.209602	44048.332231	3931.578224	22805.778690
44.536500	0.002390	0.000822	0.003316	0.001246	6218.456267	44017.603104	3922.492211	22739.127626
45.037000	-0.001003	0.000116	-0.002813	0.000340	6199.884174	44036.494085	3910.782355	22780.431367
45.537500	-0.000926	-0.000388	0.004952	0.003529	6176.789477	43688.928404	3921.031485	22635.395065
46.040000	0.003020	0.000973	-0.004167	0.000976	6225.198841	44057.342477	3906.355920	22751.398208
46.535000	0.000428	0.000334	-0.002214	0.002946	6191.152070	43811.468390	3906.319478	22661.856993
47.035000	-0.000437	0.001288	0.003088	0.002900	6185.068061	43905.472080	3918.254731	22663.916190
47.535500	-0.003278	-0.000439	0.000363	0.003572	6159.139494	43680.164511	3910.656505	22633.482625
48.036000	-0.000397	-0.000244	-0.000062	0.000168	6205.683194	44018.766455	3917.318285	22788.257175
48.536500	-0.000791	0.000028	-0.001330	0.003185	6180.337251	43760.214018	3907.749099	22650.989972
49.036500	-0.000060	-0.000735	-0.000037	-0.000384	6212.314945	44024.506724	3918.612588	22813.470183
49.536500	-0.001836	0.000770	0.001359	0.002930	6174.499495	43853.947424	3914.314190	22662.572609
50.038000	0.002902	0.000717	0.002109	0.001905	6217.352631	43945.470732	3918.290570	22709.113779
50.537500	-0.000419	-0.003558	0.003418	0.016118	6088.712587	42238.720971	3889.735388	22073.333538
51.035000	0.014909	-0.022471	0.005237	0.511375	4000.451516	15005.511974	3246.835019	9072.010829
51.538000	0.002384	-0.024324	-0.005194	-0.053813	6657.969301	46942.813212	4033.327043	25412.242288
52.035000	-0.011262	-0.033269	-0.006397	-0.137501	7304.042371	55196.440682	4261.418202	30183.306001
52.535500	-0.011246	-0.065382	-0.006233	-0.239711	8455.234303	64340.421319	4611.930075	37406.406655
53.035500	-0.002954	-0.027761	0.000693	-0.175188	7788.639234	60655.595922	4404.620963	32651.029837
53.536000	-0.003515	-0.022576	-0.005173	-0.142819	7436.517450	57156.952166	4281.431722	30518.692187
54.036500	-0.006023	-0.017375	-0.002628	-0.099006	6984.279467	52549.197861	4160.087866	27874.305188
54.536500	-0.009085	-0.016149	-0.009376	-0.116276	7117.900080	54705.326552	4189.942326	28884.929578
55.039000	-0.008062	-0.012215	-0.008978	-0.121865	7181.584759	55851.701712	4207.249859	29220.659825
55.534500	-0.005959	-0.009405	-0.006055	-0.121423	7197.745225	56140.802514	4214.495204	29193.981255
56.036500	-0.003662	-0.008622	-0.007343	-0.125983	7265.080299	56798.725056	4224.112468	29470.848494
56.535500	-0.003603	-0.010371	-0.010398	-0.127892	7284.598762	56818.511466	4220.733680	29587.613162
57.035500	-0.005060	-0.009684	-0.009660	-0.122010	7212.246458	56178.554482	4205.689965	29229.471735
57.534500	-0.005894	-0.007008	-0.006918	-0.098023	6976.393285	53631.681113	4145.398926	27817.999938
58.036000	-0.006578	-0.007518	-0.009784	-0.077749	6787.470385	51265.298555	4083.002522	26684.312545
58.539000	-0.006540	-0.005621	-0.007623	-0.061500	6647.464322	49696.215725	4046.609876	25813.154790
59.036500	-0.004720	-0.005257	-0.007747	-0.055452	6611.800907	49088.930595	4031.032723	25497.119140
59.539500	-0.005947	-0.006497	-0.008729	-0.054442	6593.075202	48850.778359	4026.054053	25444.796778
60.037000	-0.008414	-0.006458	-0.011049	-0.052324	6554.990969	48631.775577	4015.042026	25335.407191
60.534500	-0.009151	-0.006222	-0.008194	-0.028759	6359.702581	46244.904817	3965.113418	24153.808336
61.035000	-0.010137	-0.006867	-0.013675	-0.028389	6349.117512	46143.973281	3951.432534	24135.753188
61.534500	-0.012953	-0.006851	-0.015084	-0.022972	6285.588915	45610.592575	3935.703831	23873.255192
62.038500	-0.010236	-0.003909	-0.012016	-0.023555	6310.913266	45958.005545	3944.087418	23901.393244
62.536000	-0.011393	-0.005599	-0.011292	-0.025667	6318.278238	45999.670487	3950.644918	24003.447611
63.061000	-0.013602	-0.004332	-0.013595	-0.032443	6353.702072	46803.550212	3961.077822	24334.290927
63.536500	-0.012345	-0.004406	-0.012359	-0.036628	6396.421954	47220.259468	3973.868617	24541.269532
64.041000	-0.014476	-0.005475	-0.011828	-0.041547	6418.509261	47614.011106	3986.888269	24787.060415
64.537000	-0.013024	-0.005354	-0.011367	-0.043519	6445.830308	47829.606015	3992.752295	24886.367938
65.037500	-0.014202	-0.004919	-0.016276	-0.045667	6453.614560	48097.060829	3986.099603	24995.082397
65.538000	-0.013935	-0.005427	-0.015085	-0.046224	6460.233464	48102.120417	3990.308077	25023.359362
66.035000	-0.015943	-0.006083	-0.011229	-0.046734	6448.206854	48087.091964	4000.891034	25049.307422
66.535500	-0.014569	-0.004991	-0.012715	-0.045528	6449.559015	48075.223642	3994.353141	24988.063054
67.035500	-0.016652	-0.004841	-0.019754	-0.046325	6439.258736	48173.546913	3979.349464	25028.505888
67.536000	-0.015145	-0.004699	-0.011647	-0.041518	6412.970426	47690.912843	3987.253562	24785.613388
68.036500	-0.014752	-0.004918	-0.012966	-0.044761	6441.944086	48003.169529	3991.891795	24949.180740
68.539500	-0.016096	-0.004300	-0.018352	-0.043223	6418.955864	47907.929923	3975.300045	24871.451772
69.036500	-0.013128	-0.003562	-0.012859	-0.042419	6436.203416	47901.119248	3986.507122	24830.941344
69.537000	-0.017996	-0.004101	-0.019073	-0.037612	6359.755843	47351.710034	3960.355653	24590.201358
70.037500	-0.016293	-0.003878	-0.019965	-0.040741	6397.726288	47695.447226	3965.610500	24746.613737
70.535000	-0.016433	-0.003758	-0.011998	-0.039033	6383.155044	47532.216811	3980.455035	24661.073512
71.035500	-0.014391	-0.003362	-0.016731	-0.037576	6387.759714	47423.575510	3965.772103	24588.401305
71.535500	-0.019248	-0.003488	-0.017830	-0.032153	6307.725927	46859.486753	3950.524025	24320.045284
72.036500	-0.019420	-0.004204	-0.022892	-0.035783	6334.433863	47154.734192	3947.206399	24499.296437
72.536000	-0.018015	-0.004395	-0.015809	-0.034286	6333.729941	46983.528104	3960.211178	24425.226444
73.039500	-0.018539	-0.003156	-0.012910	-0.033371	6322.582801	47016.305171	3964.867589	24380.017635
73.536500	-0.015927	-0.004429	-0.016355	-0.033435	6343.332128	46894.041292	3956.943729	24383.206392
74.037000	-0.017690	-0.003858	-0.019916	-0.032544	6322.753755	46861.596472	3946.600904	24339.295653
74.537500	-0.017837	-0.003193	-0.018030	-0.031967	6317.162496	46870.502969	3949.630097	24310.901435
75.038500	-0.018990	-0.003375	-0.016333	-0.032158	6309.748017	46871.391110	3954.014840	24320.279675
75.534000	-0.016620	-0.002568	-0.013435	-0.031555	6323.378030	46891.994506	3959.373745	24290.648810
76.035500	-0.016250	-0.002293	-0.016972	-0.031614	6326.696747	46925.821580	3951.266421	24293.560253
76.535500	-0.016412	-0.001589	-0.015760	-0.030522	6317.007799	46886.553561	3951.542978	24239.977964
77.036000	-0.016823	-0.002420	-0.016969	-0.030850	6316.371764	46835.839189	3949.501252	24256.087073
77.538500	-0.015584	-0.002144	-0.018488	-0.030299	6321.674476	46807.986084	3944.712003	24229.053583
78.036500	-0.015952	-0.001992	-0.015448	-0.029663	6313.928516	46759.125027	3950.273686	24197.921573
78.541000	-0.015011	-0.002531	-0.017556	-0.029608	6320.769264	46699.412000	3945.269557	24195.246537
79.037000	-0.014249	-0.001735	-0.011761	-0.028578	6318.695888	46675.813180	3956.328922	24144.955335
79.534500	-0.012595	-0.002797	-0.015017	-0.028884	6333.864875	46599.897455	3949.468942	24159.910009
80.035000	-0.013409	-0.002011	-0.014821	-0.027993	6320.669163	46589.422904	3947.859678	24116.460407
80.540000	-0.012765	-0.001552	-0.011456	-0.027094	6318.691589	46545.104343	3953.578540	24072.675138
81.035500	-0.013847	-0.002808	-0.012672	-0.028424	6320.611108	46552.581014	3953.845939	24137.436926
81.539500	-0.012446	-0.002221	-0.010738	-0.027911	6327.475325	46560.019160	3957.158608	24112.439980
82.038500	-0.014449	-0.002624	-0.009928	-0.028322	6315.181069	46560.832447	3960.015595	24132.484449
82.540000	-0.012343	-0.002713	-0.013963	-0.027622	6326.033685	46481.720684	3948.984409	24098.354965
83.037000	-0.012659	-0.001299	-0.010483	-0.027630	6323.660400	46624.360338	3957.099479	24098.768994
83.540500	-0.014885	-0.002064	-0.016036	-0.023960	6278.382148	46181.051471	3935.785045	23920.891056
84.037500	-0.011329	-0.002658	-0.012407	-0.027981	6336.676908	46523.297845	3953.431431	24115.873264
84.540000	-0.013943	-0.001633	-0.014134	-0.027584	6313.391446	46586.255047	3948.501012	24096.525164
85.035500	-0.011863	-0.002227	-0.014180	-0.028144	6333.801139	46582.877148	3949.693444	24123.806969
85.540000	-0.012350	-0.001568	-0.012853	-0.023587	6294.913179	46193.349399	3942.231120	23902.914721
86.036000	-0.014412	-0.002443	-0.013345	-0.028180	6314.364496	46564.707298	3951.713600	24125.533990
86.540500	-0.012918	-0.002341	-0.016540	-0.027766	6322.708200	46533.499932	3943.365249	24105.406348
87.036500	-0.010272	-0.001621	-0.008935	-0.028187	6346.495800	46647.954471	3962.026525	24125.885902
87.536500	-0.015150	-0.002855	-0.013330	-0.024724	6282.194998	46178.495392	3943.753678	23957.826698
88.036500	-0.011850	-0.002913	-0.013861	-0.029090	6341.246103	46608.909019	3952.629390	24169.962775
88.537000	-0.010548	-0.002719	-0.011849	-0.029892	6357.630687	46709.089999	3959.192673	24209.140956
89.034500	-0.011282	-0.002626	-0.012158	-0.031123	6361.516612	46842.520023	3961.354465	24269.471810
89.535000	-0.012509	-0.002971	-0.010756	-0.031867	6357.737112	46882.791266	3966.398340	24305.962529
90.036000	-0.011164	-0.003413	-0.008461	-0.032057	6369.750629	46857.388074	3972.271610	24315.314413
90.536500	-0.012507	-0.002693	-0.013933	-0.032089	6359.488395	46933.356735	3959.456543	24316.884802
91.038500	-0.009800	-0.003176	-0.011520	-0.033427	6391.243652	47019.979556	3968.275829	24382.791127
91.536000	-0.009909	-0.003360	-0.013818	-0.033620	6391.903304	47020.918546	3963.318504	24392.308159
92.036500	-0.011905	-0.003122	-0.005488	-0.033748	6377.204537	47058.035536	3983.387160	24398.637633
92.537000	-0.010664	-0.002383	-0.012609	-0.033243	6382.985227	47081.806184	3965.275710	24373.713847
93.033000	-0.009134	-0.001526	-0.011608	-0.032558	6389.643460	47099.294787	3966.019448	24339.988829
93.537000	-0.010630	-0.002494	-0.007648	-0.033642	6386.397819	47111.013712	3977.971760	24393.396865
94.034500	-0.011598	-0.002436	-0.011736	-0.033532	6377.917204	47105.747396	3968.013388	24387.973298
94.534500	-0.010117	-0.002316	-0.013227	-0.033759	6391.356501	47140.934240	3965.033856	24399.158511
95.037500	-0.012137	-0.003073	-0.011803	-0.034903	6384.458439	47180.382784	3971.096908	24455.711655
95.535500	-0.012776	-0.002497	-0.006285	-0.034688	6377.744769	47217.033841	3983.730368	24445.073397
96.035500	-0.011361	-0.002044	-0.010889	-0.034357	6386.265750	47229.473383	3971.968819	24428.700123
