sample name	sample
index	1054
start time	 04-22-2021  09:44:42 AM
880	0.040996
Peak Time (s)	101.037
Peak Height 	0.041
calc peak height	100,103
Baseline Time (s)	11.537
Baseline Value 	-0.007477
subtract baseline	10,4
Abs	-0.021370
Peak Time (s)	101.536
Peak Height 	-0.02137
calc peak height	100,103
Baseline Time (s)	8.535
Baseline Value 	0.004684
subtract baseline	10,3
PK_550	0.004118
Peak Time (s)	101.536
Peak Height 	0.004118
calc peak height	100,103
Baseline Time (s)	10.537
Baseline Value 	7.6774E-4
subtract baseline	10,2
PK_880	-0.026390
Peak Time (s)	102.54
Peak Height 	-0.02639
calc peak height	100,103
Baseline Time (s)	8.535
Baseline Value 	0.002166
subtract baseline	10,1


Time (s)	A880-A510	A880-A775	A880-A975	A880	I510	I775	I975	I880	
0.036500	-0.001127	-0.000436	-0.001255	0.003372	6184.923344	43448.457048	3766.428250	22722.204475
0.536500	0.000314	-0.000280	-0.008859	0.005344	6180.697291	43278.622429	3743.419052	22631.612245
1.039000	-0.000992	-0.000480	0.003534	0.005330	6170.444592	43261.316256	3773.327374	22632.244389
1.582500	-0.000316	-0.000839	0.002222	-0.000637	6223.471522	43787.769611	3784.773670	22907.650586
2.037000	0.002955	-0.000276	-0.001522	-0.000101	6245.534767	43790.223919	3774.245866	22882.746384
2.537000	-0.001368	0.000413	0.000217	0.004133	6176.957763	43456.718002	3768.158027	22687.207379
3.038000	0.002691	0.000760	-0.000356	-0.000354	6245.446820	43912.269114	3777.723753	22894.485646
3.535000	0.001225	0.000075	-0.001490	0.000523	6226.537909	43764.486211	3772.799876	22853.817028
4.035000	0.001804	-0.000634	-0.001982	0.000046	6235.041005	43742.609930	3772.762831	22875.927132
4.535500	0.000689	0.000032	-0.003262	0.000127	6225.401465	43797.740471	3769.439042	22872.146359
5.036000	0.000364	-0.000394	0.000909	-0.000416	6227.161938	43808.887024	3780.986916	22897.365659
5.538500	0.000787	0.000337	-0.003507	0.000092	6226.480892	43829.937034	3768.929118	22873.790024
6.036500	0.001326	0.000069	-0.001561	-0.000075	6232.163506	43820.402078	3774.086587	22881.512234
6.537000	-0.001834	-0.000292	-0.002036	0.000003	6206.152920	43778.927696	3772.734273	22877.901085
7.037500	-0.001130	0.000703	-0.000877	0.000566	6207.283237	43819.734562	3774.191023	22851.801777
7.537500	-0.000202	0.000065	0.000086	0.000202	6217.643350	43793.829384	3777.445166	22868.686245
8.035000	-0.001009	-0.000342	0.000965	-0.000348	6215.582178	43807.383827	3780.959495	22894.217931
8.535000	0.000000	0.000621	0.000000	0.000243	6218.937950	43842.538425	3777.134044	22866.802086
9.035500	-0.000685	-0.000575	-0.000754	-0.000621	6220.378503	43811.206218	3777.404438	22906.902358
9.536000	0.001023	0.000934	-0.001223	0.000307	6226.642359	43866.111446	3773.978244	22863.797091
10.036000	-0.000020	0.000878	0.001662	0.000749	6214.710514	43819.019769	3779.974282	22843.326198
10.536500	0.000514	0.000000	0.001699	-0.000056	6225.475479	43812.125304	3782.047939	22880.669467
11.036500	0.001346	-0.000144	-0.001291	-0.000469	6235.501640	43837.590477	3775.713444	22899.837168
11.536500	-0.000341	-0.000028	0.001511	0.000000	6218.149046	43804.175741	3781.446575	22878.054075
12.037000	-0.000469	0.000357	-0.004899	0.000280	6214.878008	43814.112488	3765.090069	22865.086017
12.537500	0.000815	-0.000256	0.000088	-0.000007	6227.499645	43783.247240	3777.963283	22878.390375
13.035000	0.001076	0.000532	0.000126	-0.001340	6240.359034	43984.122889	3781.337251	22940.350695
13.535500	0.001960	0.000839	0.003002	-0.000612	6241.614947	43944.136945	3786.640573	22906.459781
14.035500	0.000190	-0.000798	-0.001426	0.000173	6221.023086	43715.071072	3773.809652	22870.014452
14.536000	0.000458	0.000167	-0.001461	0.001692	6210.987241	43662.947181	3770.016581	22799.712630
15.039000	-0.003532	0.000159	-0.004366	0.004726	6155.149514	43377.334162	3755.635681	22659.941246
15.549500	0.002304	-0.000811	-0.003834	-0.001996	6255.608904	43918.925338	3773.224590	22970.869054
16.036500	0.001605	-0.000048	0.000108	-0.001357	6244.774717	43930.696724	3781.332069	22941.113962
16.537000	-0.001366	0.000219	-0.005467	0.004685	6172.597318	43386.798292	3753.089816	22661.832117
17.037500	-0.002943	-0.000039	-0.000230	0.004326	6162.956890	43396.304922	3766.601662	22678.310346
17.538000	0.002185	0.000266	0.002055	-0.002491	6258.673660	44068.200727	3788.950591	22993.982261
18.040500	0.001491	-0.000003	0.000098	0.000624	6227.859338	43747.515709	3776.437713	22849.102432
18.535500	-0.002808	0.000061	-0.004279	0.000606	6193.556730	43755.296740	3765.801118	22849.939486
19.035500	-0.002597	-0.000615	-0.004901	0.001799	6185.735075	43579.254893	3761.404360	22794.738615
19.535500	0.000657	0.000216	0.003594	0.001357	6215.262653	43699.124742	3783.236601	22815.180179
20.036500	-0.000166	-0.000633	0.000050	0.000358	6216.678106	43713.246414	3776.974834	22861.459586
20.536500	-0.000567	-0.000212	-0.000087	0.000585	6211.639235	43731.520214	3776.082111	22850.933202
21.039500	-0.000763	-0.000734	-0.000580	0.001457	6203.086582	43600.218349	3772.740144	22810.552905
21.537500	0.001000	-0.001121	0.000219	0.000099	6228.133456	43691.623828	3778.024736	22873.449843
22.037500	-0.001212	-0.001122	-0.006765	-0.000532	6215.425306	43751.057965	3762.531879	22902.734540
22.535000	0.001651	-0.000092	0.000654	0.000590	6229.426278	43742.384764	3777.886114	22850.688134
23.037500	-0.000210	-0.000626	-0.000967	0.001616	6206.241757	43595.410167	3771.407436	22803.221053
23.535000	-0.000638	0.000805	0.000833	0.001367	6204.814347	43753.688367	3776.418778	22814.728818
24.038500	-0.001185	-0.000070	-0.001865	0.000544	6207.016333	43748.727363	3771.828709	22852.807852
24.538500	-0.000003	0.000648	-0.000382	0.001157	6211.576091	43758.671307	3773.956985	22824.430635
25.036000	-0.000685	0.000682	0.001590	0.002080	6198.730733	43674.799848	3776.525916	22781.752960
25.537500	-0.000111	-0.000339	0.005099	0.000071	6219.427835	43768.062652	3790.146552	22874.758139
26.037000	-0.000199	-0.000300	-0.001643	0.000454	6215.644136	43735.600456	3772.593103	22857.021189
26.537500	0.001079	-0.000333	-0.000906	0.000138	6228.458415	43762.332435	3775.169179	22871.674636
27.035000	-0.000659	-0.000345	-0.001874	0.001674	6202.193327	43616.459646	3769.054434	22800.536777
27.538000	0.000621	0.000560	-0.001857	0.001233	6215.970182	43743.199424	3770.168423	22820.914147
28.035000	0.001053	-0.000094	-0.001700	-0.001865	6244.412405	43974.496197	3778.135266	22964.777339
28.535500	0.002631	0.000350	-0.000646	-0.001168	6251.555681	43950.573460	3779.011980	22932.329693
29.087000	0.002605	0.000247	-0.001287	-0.001257	6252.060438	43949.219367	3777.655019	22936.473482
29.535500	0.002441	0.000560	-0.002473	-0.001487	6252.594247	44000.681602	3775.309901	22947.164525
30.039000	0.002397	-0.000364	0.001063	-0.002101	6257.219125	43971.227759	3785.526273	22975.757849
30.536500	-0.003456	-0.000682	-0.002594	0.003203	6167.779747	43441.187654	3763.590491	22729.980439
31.037000	0.001651	-0.000277	-0.001891	-0.001815	6248.852347	43952.371038	3777.541942	22962.436971
31.537000	0.003397	0.000364	0.003684	0.001244	6238.237732	43723.748357	3783.737901	22820.423017
32.038000	0.000569	0.000496	0.006425	0.002176	6208.001439	43648.350293	3788.214289	22777.355021
32.540500	-0.003110	-0.000848	0.001569	0.003597	6167.400686	43388.748233	3772.762453	22711.835534
33.035500	-0.001560	-0.000253	-0.001995	0.004255	6174.468812	43382.929319	3762.492959	22681.601135
33.536000	0.001241	-0.000185	-0.001126	-0.001716	6244.731929	43951.750635	3779.179453	22957.843210
34.039000	0.002732	-0.000959	0.005856	-0.002775	6265.419149	43978.731420	3799.133758	23007.210786
34.542000	-0.000388	0.000237	-0.000714	0.003201	6192.167315	43527.612279	3768.159835	22730.088160
35.036000	0.000820	0.000194	-0.000202	0.001724	6213.630149	43662.416465	3773.011071	22798.205558
35.537000	0.001311	-0.000482	-0.001876	0.000823	6224.803771	43683.550046	3771.122841	22839.884406
36.037000	0.000458	-0.000336	-0.000904	0.000923	6217.152082	43688.010746	3773.253217	22835.286971
36.537000	-0.001448	-0.000725	-0.000422	0.001111	6200.384583	43633.686644	3773.971186	22826.576886
37.035000	0.000270	0.000631	0.005131	0.002670	6201.649637	43614.491706	3783.788457	22754.539077
37.535500	0.001724	0.000878	-0.001618	0.001427	6223.275815	43754.941073	3770.279022	22811.953036
38.036000	0.000490	-0.000183	0.000302	0.000813	6218.291045	43712.773083	3776.475428	22840.360368
38.539000	0.000051	0.000030	-0.000977	0.001054	6212.835562	43710.079838	3772.755240	22829.207073
39.036000	0.000424	-0.000313	-0.003394	0.001777	6210.029310	43609.697074	3765.109073	22795.772788
39.536500	0.000315	0.000882	-0.002597	0.001680	6209.933260	43731.435308	3767.278300	22800.244424
40.036500	0.000458	-0.000122	0.000864	0.001064	6216.021221	43694.795274	3777.237499	22828.732913
40.536500	0.001402	0.000859	0.004977	0.001906	6216.835324	43707.977900	3785.295695	22789.805423
41.037500	-0.002461	-0.001183	0.001410	0.001308	6190.729479	43572.018330	3777.979740	22817.450061
41.537500	-0.001669	0.000210	-0.002312	0.001167	6198.171282	43716.444190	3769.220926	22823.970911
42.038000	-0.000397	-0.000030	-0.001467	0.001331	6207.029723	43678.398885	3770.881056	22816.407799
42.535500	-0.000994	-0.000459	0.000661	0.000272	6210.723351	43737.724897	3778.683955	22865.414375
43.035500	-0.000671	0.000129	0.000904	0.002049	6199.089982	43625.694582	3774.919665	22783.181640
43.536000	-0.000498	0.000346	0.001736	0.001261	6206.776850	43720.384172	3778.896579	22819.612740
44.036500	0.000981	0.000143	0.000612	0.001291	6218.398509	43698.490863	3776.063554	22818.251439
44.536500	0.000820	-0.000066	-0.008085	0.000902	6220.231859	43715.381237	3755.889102	22836.244257
45.037000	-0.003659	-0.001422	-0.002646	0.002232	6173.865881	43462.872953	3765.817643	22774.750221
45.537000	0.000136	0.000095	0.004990	-0.001533	6234.319296	43960.908410	3793.867119	22949.300434
46.045500	0.002028	0.000376	-0.000711	-0.001146	6246.486226	43950.923890	3778.798306	22931.295191
46.534500	-0.000827	-0.000119	0.000747	0.003031	6190.022593	43510.161727	3772.136370	22737.896157
47.035000	-0.000442	0.000027	0.000053	0.004175	6183.981125	43416.559150	3767.656298	22685.261195
47.535500	0.000651	0.000174	0.000508	-0.001332	6236.864275	43949.456856	3782.257637	22939.970685
48.038500	0.002642	-0.000611	-0.000950	-0.002228	6260.243169	43959.917930	3780.871584	22981.693328
48.536000	-0.001995	-0.000257	-0.004949	0.002511	6184.858421	43545.988913	3759.567823	22761.858082
49.036500	-0.002365	-0.000612	-0.000950	0.003381	6175.011267	43431.082777	3767.148543	22721.784252
49.542000	0.003534	0.000274	0.003966	-0.001441	6261.091413	43969.131479	3791.089092	22945.007207
50.040000	-0.000015	-0.000433	-0.000545	-0.001756	6234.906317	43932.054516	3780.708174	22959.702974
50.535000	0.001063	0.000150	0.003352	0.001593	6216.628500	43670.654146	3782.056201	22804.266263
51.035000	-0.003839	0.000463	-0.002627	0.004300	6156.083729	43445.648263	3760.855224	22679.489803
51.535000	0.001822	0.000394	0.002275	-0.002091	6252.474431	44042.334477	3788.505134	22975.324146
52.035500	0.002347	-0.001208	0.003688	0.006574	6187.079776	43077.791989	3770.667829	22575.315833
52.535500	0.012717	-0.014351	0.020125	0.409136	4131.686294	18238.649355	3146.755040	10581.719819
53.036000	-0.003526	-0.011404	-0.022456	0.172756	5056.479360	29619.639532	3391.643963	16264.299290
53.536000	-0.029979	-0.038925	-0.040616	-0.176579	7622.268673	59116.345472	4169.748268	32988.019346
54.036500	-0.021162	-0.037058	-0.021100	-0.177306	7730.947801	59453.942178	4239.335758	33038.697685
54.537000	-0.021041	-0.046211	-0.015229	-0.215458	8191.605922	63369.099742	4402.346473	35822.105008
55.037000	-0.012846	-0.038516	-0.012705	-0.203198	8140.729693	62735.325761	4364.857207	34900.845235
55.534500	-0.008505	-0.019880	-0.006370	-0.149589	7560.528959	58094.708219	4194.318273	31164.554310
56.035000	-0.012215	-0.017329	-0.010562	-0.139310	7407.433609	57118.642363	4145.717415	30499.376151
56.535000	-0.014045	-0.017081	-0.015050	-0.143700	7435.078231	57702.369762	4145.393590	30781.536352
57.035000	-0.011175	-0.018807	-0.016711	-0.159773	7644.818048	59547.793524	4193.782581	31839.298740
57.538500	-0.003156	-0.014491	-0.008408	-0.146458	7585.255517	58383.138227	4176.773379	30960.285971
58.036000	-0.006726	-0.013481	-0.011063	-0.145886	7539.177145	58439.195490	4165.922662	30923.102106
58.536500	0.000970	-0.009257	-0.009474	-0.134237	7495.621717	57495.389863	4132.620301	30176.880385
59.036500	-0.004138	-0.008555	-0.009865	-0.121655	7305.419583	56018.309257	4090.788810	29392.981904
59.537000	-0.008291	-0.007834	-0.016638	-0.102392	7065.298607	53792.177286	4010.522276	28236.009669
60.037000	-0.005489	-0.005263	-0.013802	-0.076743	6843.161220	51150.998302	3944.037980	26773.043293
60.534500	-0.006325	-0.002325	-0.015659	-0.055014	6634.947926	49101.751494	3878.877528	25599.531407
61.035000	-0.010140	-0.003826	-0.011198	-0.043042	6495.568561	47686.059085	3858.857776	24977.572193
61.535500	-0.012413	-0.002020	-0.019197	-0.047768	6516.902340	48366.939685	3850.244126	25221.060674
62.036000	-0.014285	-0.004246	-0.018804	-0.041333	6445.165319	47466.383404	3834.506850	24890.199730
62.535500	-0.012077	-0.004134	-0.012600	-0.014154	6237.620521	44764.950514	3781.553267	23545.655525
63.036500	-0.016843	-0.007893	-0.017109	0.017696	5954.065217	41457.918541	3695.603021	22073.431062
63.536500	-0.019685	-0.010454	-0.017485	0.051113	5695.880314	38381.052291	3621.918774	20640.563724
64.037000	-0.021011	-0.008699	-0.017446	0.071114	5553.783434	36915.329450	3581.011800	19834.242964
64.537000	-0.025580	-0.011543	-0.023239	0.085067	5435.918287	35619.449926	3542.356542	19293.331881
65.037000	-0.023761	-0.009834	-0.020042	0.103438	5334.757199	34382.541571	3513.822085	18607.139426
65.535000	-0.022811	-0.010221	-0.015663	0.134924	5157.948658	32144.576214	3465.264123	17496.507387
66.035500	-0.020677	-0.006874	-0.017975	0.142394	5128.316631	31866.977228	3448.475671	17244.655798
66.535500	-0.025608	-0.008543	-0.027170	0.150852	5055.526222	31196.022610	3419.111838	16964.626840
67.070000	-0.028766	-0.006386	-0.016309	0.160292	4989.056142	30723.073039	3421.432908	16658.479174
67.538500	-0.025137	-0.006422	-0.013011	0.157274	5023.884357	30915.733181	3431.833278	16755.620742
68.036500	-0.022349	-0.005410	-0.021944	0.161692	5015.294895	30695.777714	3410.022227	16613.636147
68.536500	-0.025474	-0.004174	-0.020823	0.166021	4976.418053	30497.477461	3404.880147	16475.884259
69.037000	-0.026944	-0.001999	-0.018956	0.169585	4950.537906	30408.946026	3402.176277	16363.525656
69.537000	-0.023833	-0.001174	-0.013106	0.162208	5004.799256	30936.078396	3423.539322	16597.141557
70.035000	-0.020299	0.000018	-0.014620	0.159341	5038.563114	31200.666161	3425.760914	16688.995401
70.535000	-0.023318	-0.000982	-0.016067	0.153867	5051.644200	31495.251267	3432.417290	16866.111736
71.035500	-0.022469	-0.000148	-0.021894	0.152641	5062.761151	31631.859292	3424.817479	16906.075982
71.538500	-0.019677	0.001140	-0.011174	0.142153	5135.171461	32425.490860	3460.523864	17252.686303
72.036000	-0.021555	0.001603	-0.019173	0.135129	5163.832315	32941.455290	3458.844196	17489.550733
72.536500	-0.020678	0.002836	-0.016500	0.130107	5197.107178	33379.310212	3472.206746	17661.261152
73.036500	-0.020810	0.003019	-0.013841	0.120102	5253.821313	34106.226439	3494.720377	18009.327435
73.536500	-0.022060	0.002388	-0.017547	0.110617	5302.115110	34751.851438	3505.212945	18346.776072
74.037000	-0.023702	0.002519	-0.022921	0.100520	5352.664255	35514.329291	3513.894210	18714.192562
74.537500	-0.026715	0.002685	-0.024176	0.091057	5391.900841	36248.724039	3529.206082	19066.392797
75.035000	-0.029382	0.002613	-0.027752	0.087000	5400.431457	36557.468738	3530.113386	19219.747085
75.535000	-0.025059	0.003700	-0.025043	0.072288	5520.045218	37809.760277	3563.624016	19788.065352
76.038500	-0.026786	0.003739	-0.023653	0.063130	5568.186146	38560.033331	3584.579990	20151.691951
76.536000	-0.026307	0.005281	-0.023235	0.054761	5626.579426	39386.423380	3602.426539	20490.716751
77.035500	-0.031210	0.004965	-0.025949	0.052647	5608.048885	39538.480546	3601.196236	20577.420578
77.536000	-0.028503	0.005012	-0.023299	0.039137	5717.519190	40704.669417	3634.931058	21141.452957
78.036500	-0.029856	0.003657	-0.025042	0.031059	5764.130383	41296.739106	3648.503841	21487.210369
78.539500	-0.031750	0.003846	-0.022839	0.024739	5795.205236	41878.793715	3667.077515	21762.227627
79.040000	-0.036141	0.002468	-0.033434	0.023349	5774.104220	41879.801296	3647.032063	21823.246358
79.537500	-0.033101	0.003119	-0.031005	0.014889	5855.763594	42709.263639	3670.787944	22198.892969
80.035000	-0.032842	0.002436	-0.033860	0.010870	5886.704649	43017.322090	3673.365206	22379.946702
80.538000	-0.032948	0.001687	-0.032794	0.008280	5904.800544	43188.348276	3681.496062	22497.498581
81.038500	-0.038994	0.001606	-0.032408	0.011705	5836.335697	42863.244342	3674.731945	22342.191817
81.535500	-0.032145	0.002310	-0.024295	0.005759	5929.195868	43482.139449	3706.428950	22612.613742
82.039000	-0.033695	0.002347	-0.030034	0.005328	5920.955280	43525.968493	3694.340270	22632.336254
82.536500	-0.032619	0.002368	-0.028313	0.005064	5930.816960	43552.745865	3698.843788	22644.450264
83.040000	-0.037529	0.000015	-0.032155	0.008837	5867.475670	42981.331610	3681.680059	22472.151137
83.536500	-0.034800	0.000817	-0.027354	0.004144	5921.542647	43493.547588	3703.126798	22686.691861
84.037500	-0.032982	0.000340	-0.027872	0.003943	5936.409848	43467.616609	3702.403200	22695.928538
84.537000	-0.034072	0.001127	-0.034581	0.005833	5914.486923	43364.416546	3682.972418	22609.216646
85.038000	-0.037168	0.000801	-0.032628	0.010487	5858.170675	42901.366075	3676.946703	22397.256930
85.535500	-0.033385	0.001106	-0.027816	0.006026	5918.103029	43344.288276	3697.784953	22600.348217
86.036000	-0.034012	0.000492	-0.030868	0.006190	5912.315224	43271.790770	3690.510465	22592.879437
86.535500	-0.034295	0.001178	-0.031929	0.008087	5896.374723	43158.939240	3683.862507	22506.267171
87.036000	-0.033305	0.001939	-0.033821	0.009112	5896.122345	43134.311944	3677.352724	22459.631187
87.536000	-0.035115	0.001060	-0.028518	0.009395	5880.904788	43026.447144	3688.583538	22446.770697
88.037000	-0.032939	0.001121	-0.031338	0.010313	5890.040955	42947.032376	3680.207679	22405.143983
88.537500	-0.032879	0.002167	-0.027612	0.011693	5880.456555	42916.225978	3685.455917	22342.724603
89.034500	-0.031158	0.001364	-0.031386	0.011395	5895.132990	42869.536989	3677.691870	22356.198921
89.535000	-0.034550	0.002261	-0.030967	0.012438	5862.978760	42856.045205	3676.302220	22309.083569
90.035000	-0.034403	0.001150	-0.033493	0.012036	5866.946753	42790.610678	3671.596216	22327.246767
90.538000	-0.033262	0.002011	-0.029126	0.012833	5869.430268	42796.487527	3679.520815	22291.284083
91.035500	-0.029841	0.002085	-0.032291	0.013341	5890.553271	42756.514748	3671.368340	22268.434930
91.536000	-0.033468	0.002085	-0.024888	0.013179	5865.448688	42771.530475	3688.238454	22275.729663
92.036500	-0.032102	0.002334	-0.029262	0.014149	5868.296542	42705.044768	3676.288844	22232.078190
92.536000	-0.027918	0.003351	-0.027011	0.016458	5881.879617	42586.419257	3676.161050	22128.675697
93.036500	-0.029630	0.002819	-0.022679	0.016466	5869.424537	42536.925786	3685.815805	22128.323152
93.537000	-0.029736	0.002089	-0.028270	0.016945	5865.197693	42426.338133	3672.289914	22106.914892
94.037000	-0.029128	0.002231	-0.029907	0.018163	5860.797970	42328.136335	3665.993203	22052.620860
94.535000	-0.028936	0.002238	-0.026609	0.019285	5854.102037	42226.689024	3670.788770	22002.783188
95.036000	-0.032816	0.002541	-0.028437	0.026478	5775.473872	41605.470584	3651.065112	21686.140934
95.535500	-0.029069	0.002014	-0.023368	0.021814	5835.016738	41977.223536	3672.362108	21890.834521
96.036000	-0.026821	0.003427	-0.024411	0.023644	5838.005455	41939.613603	3666.026787	21810.248399
96.536500	-0.030977	0.003022	-0.030926	0.024520	5802.210860	41824.258563	3649.915731	21771.806830
97.036000	-0.033195	0.002672	-0.028106	0.031454	5738.163721	41174.435035	3641.067217	21470.130409
97.538500	-0.028085	0.003189	-0.028671	0.026890	5805.905426	41626.525850	3649.666510	21668.144504
98.034500	-0.029791	0.002606	-0.021521	0.027569	5789.059714	41513.717533	3663.752744	21638.548627
98.537000	-0.026600	0.004062	-0.023839	0.030418	5791.473909	41389.741477	3652.490222	21514.922631
99.035500	-0.030591	0.002624	-0.025042	0.035177	5730.427148	40842.379287	3639.658184	21310.149086
99.538500	-0.029145	0.003457	-0.021547	0.032874	5756.430817	41118.316633	3652.134844	21408.951824
100.038000	-0.029824	0.003147	-0.028622	0.033196	5749.460667	41062.547708	3636.245657	21395.098556
100.538000	-0.029170	0.003196	-0.024573	0.034629	5744.055037	40940.713673	3641.833574	21333.604849
101.036500	-0.031465	0.002486	-0.032747	0.040996	5684.549572	40323.458854	3611.194665	21062.799607
101.536000	-0.030080	0.004118	-0.021370	0.036871	5722.261117	40824.734513	3643.894905	21237.781683
102.036500	-0.028101	0.004053	-0.029548	0.040464	5711.162941	40505.483275	3618.958333	21085.258882
102.539500	-0.026390	0.003589	-0.023269	0.038675	5735.280442	40620.835514	3635.977966	21161.064923
103.037000	-0.030899	0.002545	-0.028487	0.043896	5668.715250	40078.564626	3614.017688	20940.759849
103.537000	-0.025522	0.002934	-0.028172	0.039630	5734.675929	40480.718797	3623.588459	21120.556396
104.035000	-0.026815	0.003965	-0.021288	0.043382	5699.985613	40245.097133	3630.193433	20962.334578
104.538000	-0.025142	0.004926	-0.021340	0.041860	5721.913133	40460.084932	3633.307301	21026.354936
105.035500	-0.025326	0.004627	-0.023251	0.042099	5718.998529	40413.346285	3628.754190	21016.270917
105.536000	-0.025189	0.004360	-0.023837	0.042047	5720.301923	40394.797678	3627.627428	21018.483951
106.036000	-0.027205	0.003500	-0.022456	0.044761	5687.913992	40086.230996	3624.819277	20904.506950
106.536500	-0.023684	0.004544	-0.023548	0.042869	5725.003928	40339.535501	3626.503748	20983.895560
107.036500	-0.025948	0.004232	-0.017355	0.043245	5706.860354	40280.003622	3638.844041	20968.104587
107.542000	-0.025502	0.003445	-0.024330	0.042341	5716.123105	40290.095241	3625.969174	21006.105923
109.987500	-0.028260	0.004150	-0.015817	0.042539	5695.871519	40333.970428	3643.649299	20997.761528
112.043000	-0.026177	0.005698	-0.027253	0.044543	5696.415210	40294.553287	3615.239195	20913.642795
112.186000	-0.027621	0.005007	-0.023195	0.043702	5692.297262	40307.515856	3625.493437	20948.905414
112.344000	-0.026725	0.004071	-0.027551	0.042755	5704.887228	40308.375304	3618.343818	20988.661236
112.503500	-0.027646	0.004691	-0.020253	0.043565	5693.065070	40291.981149	3631.997368	20954.648524
112.631000	-0.028689	0.003977	-0.016346	0.042592	5692.587883	40314.397375	3642.400372	20995.541367
112.733000	-0.025928	0.003864	-0.023453	0.042738	5710.477991	40292.025424	3626.980827	20989.412679
112.831500	-0.028799	0.004874	-0.017285	0.046931	5662.395860	40017.930700	3631.151672	20813.900156
112.922500	-0.030464	0.003442	-0.026692	0.048571	5640.171197	39755.245818	3608.050432	20745.738238
113.011000	-0.029506	0.003677	-0.022482	0.048950	5644.051836	39742.999178	3615.995619	20730.000592
113.107500	-0.030304	0.003464	-0.028571	0.046416	5655.717715	39941.221940	3608.621361	20835.362535
113.534500	-0.026703	0.004820	-0.021560	0.043648	5698.928914	40295.983204	3629.053744	20951.148105
114.038000	-0.025062	0.003581	-0.019246	0.042880	5715.445616	40255.320040	3635.590656	20983.427296
114.539000	-0.026622	0.003297	-0.025093	0.042725	5705.799703	40244.137031	3623.556596	20989.933887
115.036000	-0.030902	0.003342	-0.024282	0.048325	5638.890135	39767.735000	3613.552538	20755.955122
