sample name	sample
index	744
start time	 03-25-2021  03:57:23 PM


Wavelength (nm)	Absorbance
494.344910	0.201976
494.563924	0.201976
494.782919	0.201976
495.001897	NaN
495.220856	0.042469
495.439797	0.035476
495.658719	-0.039003
495.877624	-0.079759
496.096510	-0.136377
496.315378	-0.171187
496.534227	-0.162332
496.753059	-0.114365
496.971872	-0.080492
497.190667	0.025816
497.409444	0.028233
497.628203	0.033338
497.846943	0.035612
498.065665	0.035740
498.284369	0.036445
498.503055	0.036635
498.721723	0.036654
498.940372	0.036876
499.159003	0.036748
499.377616	0.038149
499.596210	0.038275
499.814787	0.037594
500.033345	0.036845
500.251885	0.037310
500.470406	0.037439
500.688910	0.037995
500.907395	0.038353
501.125862	0.037730
501.344311	0.036568
501.562742	0.036530
501.781154	0.036708
501.999548	0.038541
502.217924	0.038228
502.436282	0.037569
502.654621	0.036920
502.872942	0.036063
503.091245	0.036165
503.309530	0.036906
503.527797	0.036121
503.746045	0.036128
503.964275	0.034931
504.182487	0.035143
504.400681	0.034903
504.618856	0.035446
504.837013	0.035916
505.055152	0.036637
505.273273	0.036885
505.491376	0.037450
505.709460	0.037250
505.927526	0.037022
506.145574	0.036758
506.363604	0.037726
506.581615	0.037094
506.799608	0.037249
507.017583	0.037245
507.235540	0.036820
507.453478	0.036874
507.671399	0.038045
507.889301	0.038327
508.107185	0.038619
508.325050	0.038073
508.542898	0.038867
508.760727	0.039043
508.978538	0.039256
509.196330	0.039357
509.414105	0.039506
509.631861	0.038562
509.849599	0.038890
510.067319	0.037944
510.285021	0.037745
510.502704	0.036864
510.720369	0.036504
510.938016	0.035890
511.155645	0.035681
511.373255	0.036049
511.590848	0.036252
511.808422	0.035269
512.025977	0.035990
512.243515	0.036865
512.461034	0.037257
512.678536	0.037138
512.896018	0.036968
513.113483	0.036814
513.330930	0.035999
513.548358	0.035704
513.765768	0.035996
513.983160	0.035943
514.200533	0.035583
514.417889	0.035240
514.635226	0.035406
514.852545	0.035432
515.069845	0.035008
515.287128	0.034941
515.504392	0.035536
515.721638	0.036032
515.938866	0.035504
516.156075	0.035460
516.373267	0.035804
516.590440	0.035827
516.807594	0.035863
517.024731	0.036627
517.241850	0.036884
517.458950	0.036368
517.676032	0.035738
517.893095	0.036362
518.110141	0.036316
518.327168	0.035939
518.544177	0.035524
518.761168	0.035361
518.978141	0.035058
519.195095	0.034869
519.412031	0.034984
519.628949	0.035468
519.845849	0.035516
520.062731	0.035319
520.279594	0.035656
520.496439	0.035640
520.713266	0.036020
520.930074	0.036276
521.146865	0.036561
521.363637	0.036983
521.580391	0.036847
521.797127	0.036270
522.013844	0.036818
522.230543	0.037243
522.447224	0.037718
522.663887	0.037617
522.880532	0.037406
523.097158	0.037376
523.313766	0.037254
523.530356	0.036927
523.746928	0.037904
523.963481	0.037351
524.180017	0.036616
524.396534	0.036748
524.613032	0.036285
524.829513	0.036216
525.045975	0.035986
525.262420	0.035292
525.478845	0.035179
525.695253	0.034589
525.911643	0.035009
526.128014	0.035429
526.344367	0.035120
526.560702	0.035574
526.777018	0.035760
526.993316	0.035908
527.209597	0.036093
527.425858	0.036478
527.642102	0.036310
527.858328	0.036263
528.074535	0.035713
528.290724	0.035459
528.506894	0.035078
528.723047	0.034899
528.939181	0.035064
529.155297	0.035406
529.371395	0.035520
529.587475	0.035536
529.803536	0.035470
530.019579	0.035978
530.235604	0.036466
530.451611	0.036346
530.667600	0.036437
530.883570	0.036549
531.099522	0.036529
531.315456	0.036878
531.531372	0.037699
531.747269	0.037446
531.963148	0.037469
532.179009	0.037036
532.394852	0.038120
532.610676	0.038398
532.826482	0.038306
533.042271	0.038579
533.258040	0.038398
533.473792	0.037937
533.689525	0.037909
533.905240	0.037801
534.120937	0.038452
534.336616	0.037826
534.552277	0.037665
534.767919	0.038129
534.983543	0.037887
535.199149	0.037868
535.414736	0.037812
535.630306	0.038207
535.845857	0.038514
536.061390	0.038497
536.276904	0.038711
536.492401	0.039372
536.707879	0.039125
536.923339	0.039028
537.138781	0.039393
537.354204	0.039447
537.569610	0.039383
537.784997	0.039584
538.000366	0.039449
538.215716	0.039067
538.431049	0.038844
538.646363	0.039237
538.861659	0.039608
539.076937	0.039225
539.292196	0.039304
539.507438	0.039253
539.722661	0.039296
539.937866	0.039493
540.153052	0.039850
540.368221	0.040054
540.583371	0.039464
540.798503	0.039579
541.013617	0.040485
541.228712	0.040700
541.443789	0.041059
541.658848	0.040910
541.873889	0.040764
542.088912	0.040912
542.303916	0.040515
542.518902	0.040570
542.733870	0.040050
542.948820	0.039543
543.163752	0.039839
543.378665	0.039634
543.593560	0.039373
543.808437	0.039245
544.023295	0.039237
544.238136	0.039283
544.452958	0.039442
544.667762	0.040016
544.882548	0.040228
545.097315	0.039387
545.312064	0.039348
545.526795	0.039267
545.741508	0.039558
545.956203	0.039527
546.170879	0.039086
546.385537	0.039215
546.600177	0.039161
546.814799	0.038650
547.029402	0.039195
547.243988	0.039258
547.458555	0.039466
547.673103	0.039269
547.887634	0.039208
548.102146	0.039852
548.316640	0.039776
548.531116	0.039546
548.745574	0.039763
548.960013	0.039839
549.174435	0.039972
549.388838	0.040241
549.603222	0.040527
549.817589	0.040664
550.031937	0.040865
550.246267	0.040992
550.460579	0.041537
550.674873	0.041553
550.889148	0.041451
551.103405	0.041686
551.317644	0.041412
551.531865	0.041333
551.746068	0.041675
551.960252	0.041154
552.174418	0.041341
552.388566	0.040812
552.602696	0.040751
552.816807	0.040724
553.030900	0.040285
553.244975	0.040437
553.459032	0.040648
553.673070	0.040456
553.887091	0.040831
554.101093	0.040465
554.315077	0.040661
554.529042	0.040959
554.742990	0.040997
554.956919	0.041072
555.170830	0.041094
555.384722	0.040611
555.598597	0.040659
555.812453	0.040497
556.026291	0.040925
556.240111	0.041077
556.453913	0.040810
556.667696	0.040785
556.881461	0.040833
557.095208	0.040894
557.308937	0.041334
557.522647	0.041448
557.736339	0.041552
557.950013	0.041394
558.163669	0.041280
558.377307	0.041380
558.590926	0.041649
558.804527	0.041807
559.018110	0.041902
559.231675	0.041678
559.445221	0.041585
559.658749	0.041485
559.872259	0.041621
560.085751	0.041645
560.299225	0.041605
560.512680	0.041646
560.726117	0.041861
560.939536	0.041714
561.152937	0.042097
561.366319	0.041910
561.579683	0.042110
561.793029	0.041916
562.006357	0.042116
562.219667	0.042298
562.432958	0.042247
562.646231	0.042354
562.859486	0.042191
563.072723	0.042169
563.285941	0.042278
563.499141	0.042171
563.712323	0.041776
563.925487	0.041488
564.138632	0.041566
564.351760	0.041264
564.564869	0.041066
564.777960	0.041450
564.991032	0.041077
565.204087	0.040905
565.417123	0.040778
565.630141	0.041221
565.843140	0.041272
566.056122	0.041033
566.269085	0.041222
566.482030	0.041279
566.694957	0.041035
566.907866	0.041348
567.120756	0.041787
567.333628	0.041791
567.546482	0.041803
567.759318	0.041939
567.972135	0.042012
568.184935	0.042024
568.397716	0.041862
568.610478	0.041967
568.823223	0.041758
569.035949	0.041326
569.248657	0.041304
569.461347	0.041448
569.674019	0.041717
569.886672	0.041730
570.099308	0.041437
570.311925	0.041219
570.524523	0.041487
570.737104	0.041432
570.949666	0.041717
571.162210	0.041944
571.374736	0.041935
571.587244	0.041656
571.799733	0.041830
572.012205	0.042162
572.224658	0.042163
572.437092	0.041840
572.649509	0.041908
572.861907	0.041893
573.074287	0.041877
573.286649	0.041427
573.498993	0.041327
573.711318	0.041250
573.923625	0.040820
574.135914	0.041557
574.348185	0.041299
574.560438	0.041183
574.772672	0.041230
574.984888	0.041126
575.197086	0.041500
575.409266	0.041805
575.621427	0.041967
575.833570	0.042578
576.045695	0.042031
576.257802	0.042457
576.469890	0.042973
576.681961	0.043012
576.894013	0.043078
577.106046	0.043094
577.318062	0.043062
577.530059	0.042955
577.742039	0.042831
577.954000	0.042944
578.165942	0.042639
578.377867	0.042323
578.589773	0.042292
578.801661	0.042603
579.013531	0.042272
579.225382	0.042409
579.437216	0.042504
579.649031	0.042604
579.860828	0.042809
580.072606	0.043125
580.284367	0.043216
580.496109	0.043396
580.707833	0.043281
580.919539	0.043426
581.131227	0.043234
581.342896	0.043200
581.554547	0.043240
581.766180	0.042982
581.977795	0.042807
582.189391	0.042645
582.400969	0.042606
582.612529	0.042936
582.824071	0.043133
583.035595	0.043183
583.247100	0.043406
583.458587	0.043404
583.670056	0.043594
583.881506	0.043779
584.092939	0.043947
584.304353	0.043985
584.515749	0.043618
584.727127	0.043833
584.938486	0.043708
585.149828	0.043231
585.361151	0.043299
585.572456	0.043266
585.783742	0.043155
585.995011	0.043273
586.206261	0.043305
586.417493	0.043349
586.628706	0.043068
586.839902	0.043179
587.051079	0.043374
587.262238	0.043134
587.473379	0.043142
587.684502	0.043428
587.895606	0.043456
588.106692	0.043304
588.317760	0.043299
588.528810	0.043673
588.739841	0.043628
588.950855	0.043915
589.161850	0.044209
589.372827	0.044320
589.583785	0.044388
589.794726	0.044248
590.005648	0.044318
590.216552	0.044387
590.427437	0.044491
590.638305	0.044504
590.849154	0.044476
591.059985	0.044239
591.270798	0.044224
591.481592	0.044367
591.692369	0.044325
591.903127	0.044397
592.113867	0.044513
592.324588	0.044360
592.535292	0.044603
592.745977	0.044398
592.956644	0.044474
593.167293	0.044477
593.377923	0.044465
593.588536	0.044615
593.799130	0.044493
594.009706	0.044466
594.220263	0.044612
594.430803	0.044532
594.641324	0.044664
594.851827	0.044882
595.062312	0.045037
595.272778	0.044771
595.483227	0.045039
595.693657	0.045399
595.904069	0.045275
596.114462	0.045098
596.324838	0.045051
596.535195	0.045109
596.745534	0.045188
596.955855	0.045325
597.166157	0.045404
597.376441	0.045271
597.586707	0.044962
597.796955	0.045005
598.007185	0.044998
598.217396	0.045012
598.427589	0.044957
598.637764	0.045109
598.847921	0.045253
599.058060	0.045759
599.268180	0.045681
599.478282	0.046049
599.688366	0.046457
599.898431	0.046673
600.108479	0.046707
600.318508	0.046875
600.528519	0.046874
600.738511	0.046480
600.948486	0.046224
601.158442	0.046311
601.368380	0.046261
601.578300	0.045922
601.788202	0.045939
601.998085	0.046109
602.207950	0.046250
602.417797	0.046130
602.627626	0.046200
602.837436	0.046389
603.047228	0.046491
603.257002	0.046629
603.466758	0.047032
603.676496	0.046949
603.886215	0.046948
604.095916	0.046989
604.305599	0.047265
604.515264	0.047626
604.724910	0.047413
604.934538	0.047678
605.144148	0.047600
605.353740	0.047311
605.563314	0.047542
605.772869	0.047714
605.982406	0.047597
606.191925	0.047344
606.401425	0.047312
606.610908	0.047273
606.820372	0.047087
607.029818	0.047054
607.239246	0.047326
607.448655	0.047238
607.658047	0.047014
607.867420	0.046897
608.076775	0.046973
608.286111	0.046926
608.495430	0.047355
608.704730	0.047403
608.914012	0.047245
609.123275	0.047303
609.332521	0.047288
609.541748	0.047553
609.750957	0.047934
609.960148	0.048113
610.169321	0.048103
610.378475	0.047976
610.587611	0.047955
610.796729	0.048336
611.005829	0.047930
611.214910	0.047973
611.423974	0.047958
611.633019	0.047862
611.842045	0.047976
612.051054	0.048017
612.260044	0.048094
612.469017	0.048118
612.677970	0.047857
612.886906	0.048271
613.095824	0.048316
613.304723	0.048306
613.513604	0.048080
613.722467	0.048046
613.931311	0.048051
614.140138	0.047976
614.348946	0.047928
614.557736	0.048158
614.766507	0.047982
614.975261	0.047911
615.183996	0.047868
615.392713	0.047949
615.601412	0.047743
615.810092	0.047679
616.018754	0.047553
616.227399	0.047767
616.436024	0.047674
616.644632	0.047608
616.853222	0.047609
617.061793	0.047597
617.270346	0.047817
617.478880	0.048020
617.687397	0.048088
617.895895	0.048195
618.104375	0.048104
618.312837	0.048362
618.521281	0.048779
618.729706	0.049073
618.938113	0.049229
619.146502	0.049294
619.354873	0.049243
619.563226	0.049485
619.771560	0.049465
619.979876	0.049465
620.188174	0.049418
620.396453	0.049319
620.604715	0.049237
620.812958	0.049126
621.021183	0.049362
621.229390	0.049345
621.437578	0.049086
621.645748	0.049135
621.853900	0.049156
622.062034	0.049154
622.270150	0.049237
622.478247	0.049317
622.686326	0.049394
622.894387	0.049352
623.102430	0.049562
623.310454	0.049715
623.518461	0.049723
623.726449	0.049742
623.934418	0.049877
624.142370	0.049864
624.350303	0.049788
624.558218	0.050004
624.766115	0.049874
624.973994	0.049603
625.181855	0.049480
625.389697	0.049555
625.597521	0.049594
625.805327	0.049402
626.013114	0.049143
626.220883	0.049229
626.428634	0.049056
626.636367	0.048993
626.844082	0.048990
627.051778	0.049209
627.259457	0.049170
627.467117	0.049254
627.674758	0.049639
627.882382	0.049763
628.089987	0.049723
628.297574	0.049971
628.505143	0.050004
628.712694	0.050264
628.920226	0.050367
629.127740	0.050452
629.335236	0.050627
629.542714	0.050297
629.750174	0.050647
629.957615	0.050765
630.165038	0.050809
630.372443	0.051116
630.579829	0.051336
630.787198	0.051559
630.994548	0.051635
631.201880	0.051561
631.409194	0.051781
631.616489	0.051610
631.823766	0.051771
632.031025	0.051628
632.238266	0.051440
632.445489	0.051411
632.652693	0.051338
632.859879	0.051363
633.067047	0.051399
633.274197	0.051529
633.481329	0.051686
633.688442	0.051671
633.895537	0.051725
634.102614	0.051846
634.309672	0.051716
634.516713	0.051715
634.723735	0.051840
634.930739	0.051840
635.137724	0.051623
635.344692	0.051590
635.551641	0.051522
635.758572	0.051547
635.965485	0.051539
636.172379	0.051637
636.379256	0.051699
636.586114	0.051814
636.792954	0.051927
636.999775	0.051969
637.206579	0.051838
637.413364	0.051882
637.620131	0.052013
637.826880	0.052092
638.033610	0.052019
638.240323	0.051914
638.447017	0.051806
638.653692	0.051909
638.860350	0.051848
639.066990	0.052066
639.273611	0.052096
639.480214	0.052220
639.686798	0.052251
639.893365	0.052303
640.099913	0.052321
640.306443	0.052222
640.512955	0.052050
640.719449	0.052319
640.925924	0.052320
641.132381	0.052404
641.338820	0.052090
641.545241	0.052030
641.751644	0.052112
641.958028	0.052046
642.164394	0.052158
642.370742	0.052361
642.577071	0.052250
642.783383	0.052160
642.989676	0.052245
643.195951	0.052499
643.402207	0.052439
643.608446	0.052504
643.814666	0.052520
644.020868	0.052503
644.227052	0.052363
644.433218	0.052319
644.639365	0.052399
644.845494	0.052083
645.051605	0.051997
645.257698	0.052160
645.463772	0.052294
645.669828	0.052420
645.875866	0.052547
646.081886	0.052725
646.287888	0.052921
646.493871	0.052924
646.699836	0.053303
646.905783	0.053329
647.111712	0.053499
647.317622	0.053514
647.523514	0.053667
647.729388	0.053751
647.935244	0.053778
648.141082	0.053620
648.346901	0.053629
648.552702	0.053616
648.758485	0.053942
648.964250	0.053899
649.169996	0.053996
649.375724	0.053910
649.581434	0.053974
649.787126	0.054108
649.992800	0.054245
650.198455	0.054369
650.404092	0.054401
650.609711	0.054158
650.815311	0.054178
651.020894	0.054198
651.226458	0.054351
651.432004	0.054324
651.637532	0.054335
651.843041	0.054419
652.048532	0.054533
652.254006	0.054496
652.459460	0.054622
652.664897	0.054461
652.870315	0.054363
653.075716	0.054292
653.281097	0.054088
653.486461	0.053844
653.691807	0.053953
653.897134	0.053803
654.102443	0.053707
654.307734	0.053606
654.513006	0.053970
654.718261	0.053920
654.923497	0.054036
655.128715	0.054321
655.333915	0.054710
655.539096	0.054658
655.744259	0.054856
655.949404	0.055140
656.154531	0.055343
656.359640	0.055093
656.564730	0.055075
656.769802	0.054890
656.974856	0.054776
657.179892	0.054567
657.384909	0.054606
657.589908	0.054581
657.794889	0.054511
657.999852	0.054437
658.204797	0.054649
658.409723	0.054721
658.614631	0.054839
658.819521	0.055118
659.024393	0.055108
659.229246	0.055119
659.434081	0.055357
659.638898	0.055481
659.843697	0.055466
660.048478	0.055581
660.253240	0.055485
660.457984	0.055483
660.662710	0.055465
660.867417	0.055592
661.072107	0.055644
661.276778	0.055348
661.481431	0.055377
661.686066	0.055506
661.890682	0.055488
662.095281	0.055593
662.299861	0.055668
662.504422	0.055522
662.708966	0.055436
662.913491	0.055345
663.117999	0.055586
663.322488	0.055557
663.526958	0.055583
663.731411	0.055500
663.935845	0.055644
664.140261	0.055741
664.344659	0.055770
664.549038	0.055836
664.753400	0.056056
664.957743	0.055968
665.162068	0.055879
665.366375	0.056159
665.570663	0.056227
665.774933	0.056216
665.979185	0.056326
666.183419	0.056600
666.387635	0.056648
666.591832	0.056566
666.796011	0.056678
667.000172	0.056906
667.204315	0.056664
667.408439	0.056710
667.612545	0.056822
667.816634	0.056791
668.020703	0.056880
668.224755	0.057146
668.428788	0.057245
668.632803	0.057242
668.836800	0.057341
669.040779	0.057586
669.244739	0.057531
669.448681	0.057494
669.652605	0.057537
669.856511	0.057359
670.060399	0.057124
670.264268	0.057232
670.468119	0.057231
670.671952	0.057199
670.875767	0.057170
671.079563	0.057244
671.283341	0.057392
671.487101	0.057382
671.690843	0.057508
671.894567	0.057567
672.098272	0.057387
672.301959	0.057329
672.505628	0.057103
672.709278	0.057104
672.912911	0.057115
673.116525	0.056974
673.320121	0.056929
673.523699	0.056828
673.727258	0.056962
673.930799	0.057093
674.134322	0.057298
674.337827	0.057552
674.541314	0.057583
674.744782	0.057605
674.948232	0.057642
675.151664	0.057735
675.355078	0.057882
675.558474	0.057772
675.761851	0.057900
675.965210	0.057942
676.168551	0.058074
676.371873	0.058118
676.575178	0.058242
676.778464	0.058366
676.981732	0.058634
677.184981	0.058749
677.388213	0.058930
677.591426	0.059149
677.794621	0.059224
677.997798	0.059109
678.200956	0.059365
678.404097	0.059539
678.607219	0.059655
678.810323	0.059625
679.013408	0.059646
679.216476	0.059828
679.419525	0.059767
679.622556	0.059894
679.825569	0.060171
680.028563	0.060093
680.231540	0.060132
680.434498	0.060208
680.637438	0.060145
680.840359	0.060157
681.043263	0.060174
681.246148	0.060175
681.449015	0.060081
681.651864	0.059975
681.854694	0.059815
682.057506	0.059683
682.260301	0.059689
682.463076	0.059782
682.665834	0.059732
682.868573	0.059666
683.071295	0.059688
683.273998	0.059803
683.476682	0.059890
683.679349	0.059944
683.881997	0.060169
684.084627	0.060219
684.287239	0.060307
684.489833	0.060435
684.692408	0.060552
684.894965	0.060665
685.097504	0.060812
685.300025	0.060778
685.502527	0.060862
685.705012	0.060607
685.907478	0.060670
686.109925	0.060429
686.312355	0.060326
686.514766	0.060311
686.717159	0.060415
686.919534	0.060259
687.121891	0.060268
687.324230	0.060359
687.526550	0.060589
687.728852	0.060551
687.931136	0.060708
688.133401	0.060963
688.335649	0.061143
688.537878	0.060984
688.740089	0.060999
688.942281	0.061146
689.144456	0.061103
689.346612	0.060972
689.548750	0.061129
689.750870	0.061305
689.952971	0.061305
690.155055	0.061347
690.357120	0.061583
690.559167	0.061774
690.761195	0.061762
690.963206	0.061969
691.165198	0.062208
691.367172	0.062222
691.569128	0.062184
691.771065	0.062275
691.972984	0.062393
692.174885	0.062312
692.376768	0.062295
692.578633	0.062234
692.780479	0.061955
692.982308	0.061815
693.184118	0.061827
693.385909	0.062000
693.587683	0.061983
693.789438	0.061916
693.991175	0.061858
694.192894	0.061774
694.394595	0.061874
694.596277	0.062117
694.797941	0.062239
694.999587	0.062346
695.201215	0.062376
695.402824	0.062242
695.604416	0.062302
695.805989	0.062356
696.007543	0.062547
696.209080	0.062530
696.410598	0.062623
696.612099	0.062572
696.813580	0.062437
697.015044	0.062433
697.216490	0.062464
697.417917	0.062113
697.619326	0.062246
697.820717	0.062038
698.022089	0.062019
698.223444	0.061934
698.424780	0.062229
698.626098	0.062182
698.827397	0.062224
699.028679	0.062326
699.229942	0.062633
699.431187	0.062503
699.632414	0.062580
699.833622	0.062786
700.034813	0.062920
700.235985	0.062707
700.437139	0.062759
700.638274	0.062652
700.839392	0.062570
701.040491	0.062456
701.241572	0.062523
701.442635	0.062738
701.643679	0.062574
701.844706	0.062523
702.045714	0.062425
702.246704	0.062417
702.447675	0.062414
702.648629	0.062517
702.849564	0.062602
703.050481	0.062635
703.251380	0.062510
703.452260	0.062726
703.653122	0.062583
703.853966	0.062807
704.054792	0.062899
704.255600	0.062766
704.456389	0.062732
704.657160	0.062708
704.857913	0.062626
705.058648	0.062598
705.259365	0.062440
705.460063	0.062312
705.660743	0.062292
705.861405	0.062304
706.062048	0.062361
706.262674	0.062439
706.463281	0.062473
706.663870	0.062389
706.864441	0.062302
707.064993	0.062409
707.265527	0.062541
707.466043	0.062337
707.666541	0.062418
707.867021	0.062498
708.067482	0.062418
708.267925	0.062487
708.468350	0.062698
708.668757	0.062777
708.869145	0.062861
709.069516	0.063052
709.269868	0.063271
709.470201	0.063270
709.670517	0.063507
709.870814	0.063542
710.071093	0.063511
710.271354	0.063460
710.471597	0.063521
710.671821	0.063544
710.872028	0.063444
711.072216	0.063467
711.272385	0.063382
711.472537	0.063144
711.672670	0.063056
711.872785	0.063020
712.072882	0.062989
712.272961	0.062945
712.473021	0.062587
712.673063	0.062585
712.873087	0.062552
713.073093	0.062490
713.273081	0.062375
713.473050	0.062534
713.673001	0.062602
713.872934	0.062440
714.072849	0.062344
714.272745	0.062603
714.472623	0.062651
714.672483	0.062598
714.872325	0.062628
715.072148	0.062826
715.271954	0.062725
715.471741	0.062793
715.671509	0.062954
715.871260	0.063063
716.070992	0.063041
716.270707	0.063097
716.470403	0.063038
716.670080	0.063054
716.869740	0.063202
717.069381	0.063454
717.269004	0.063484
717.468609	0.063488
717.668195	0.063622
717.867764	0.063492
718.067314	0.063313
718.266846	0.063378
718.466360	0.063313
718.665855	0.063081
718.865332	0.062871
719.064791	0.062488
719.264232	0.062444
719.463655	0.062139
719.663059	0.061926
719.862445	0.061909
720.061813	0.061768
720.261163	0.061793
720.460494	0.061732
720.659807	0.061734
720.859102	0.061803
721.058379	0.061839
721.257638	0.062058
721.456878	0.062174
721.656100	0.062237
721.855304	0.062318
722.054490	0.062377
722.253657	0.062359
722.452806	0.062202
722.651937	0.062180
722.851050	0.062236
723.050145	0.062091
723.249221	0.062275
723.448279	0.062258
723.647319	0.062227
723.846340	0.062180
724.045344	0.062352
724.244329	0.062429
724.443296	0.062329
724.642245	0.062133
724.841175	0.062063
725.040088	0.061863
725.238982	0.061726
725.437857	0.061727
725.636715	0.061669
725.835554	0.061252
726.034376	0.061186
726.233179	0.061361
726.431963	0.061279
726.630730	0.061425
726.829478	0.061285
727.028208	0.061346
727.226920	0.061363
727.425614	0.061243
727.624289	0.061334
727.822946	0.061259
728.021585	0.061261
728.220206	0.061203
728.418808	0.060970
728.617392	0.061185
728.815958	0.061341
729.014506	0.061338
729.213036	0.061618
729.411547	0.061671
729.610040	0.061775
729.808515	0.061742
730.006972	0.061919
730.205410	0.062050
730.403831	0.061978
730.602233	0.061833
730.800616	0.061957
730.998982	0.061670
731.197329	0.061831
731.395658	0.061779
731.593969	0.061919
731.792262	0.061927
731.990536	0.061823
732.188793	0.061907
732.387031	0.061803
732.585250	0.061488
732.783452	0.061486
732.981635	0.061122
733.179800	0.060847
733.377947	0.060494
733.576076	0.060344
733.774186	0.060331
733.972278	0.060161
734.170352	0.060071
734.368408	0.059943
734.566446	0.059810
734.764465	0.059980
734.962466	0.060223
735.160449	0.060167
735.358413	0.060076
735.556360	0.059861
735.754288	0.059684
735.952198	0.059634
736.150090	0.059811
736.347963	0.059840
736.545818	0.059772
736.743655	0.059566
736.941474	0.059531
737.139275	0.059342
737.337057	0.059563
737.534821	0.059505
737.732567	0.059428
737.930295	0.059286
738.128005	0.059203
738.325696	0.059120
738.523369	0.059171
738.721024	0.059194
738.918660	0.059262
739.116279	0.059130
739.313879	0.059364
739.511461	0.059415
739.709024	0.059280
739.906570	0.059213
740.104097	0.058908
740.301606	0.058854
740.499097	0.058871
740.696569	0.058900
740.894024	0.058840
741.091460	0.058752
741.288878	0.058627
741.486277	0.058674
741.683659	0.058623
741.881022	0.058962
742.078367	0.058917
742.275694	0.058878
742.473002	0.058950
742.670293	0.058955
742.867565	0.058985
743.064819	0.059065
743.262054	0.058937
743.459272	0.058944
743.656471	0.058691
743.853652	0.058405
744.050815	0.058186
744.247959	0.057959
744.445085	0.057965
744.642194	0.057828
744.839283	0.057747
745.036355	0.058065
745.233408	0.058109
745.430444	0.058152
745.627461	0.058492
745.824459	0.058427
746.021440	0.058538
746.218402	0.058496
746.415346	0.058334
746.612272	0.058460
746.809180	0.058344
747.006069	0.058573
747.202940	0.058639
747.399793	0.058620
747.596628	0.058777
747.793444	0.058655
747.990243	0.058578
748.187023	0.058742
748.383784	0.058633
748.580528	0.058376
748.777253	0.058023
748.973960	0.057946
749.170649	0.057810
749.367320	0.057801
749.563973	0.057706
749.760607	0.057532
749.957223	0.057567
750.153821	0.057410
750.350400	0.057500
750.546962	0.057505
750.743505	0.057530
750.940030	0.057465
751.136536	0.057441
751.333025	0.057534
751.529495	0.057713
751.725947	0.057549
751.922381	0.057789
752.118796	0.057813
752.315194	0.057952
752.511573	0.058029
752.707934	0.058145
752.904276	0.058092
753.100601	0.058210
753.296907	0.058049
753.493195	0.057947
753.689465	0.057833
753.885716	0.057874
754.081949	0.057727
754.278164	0.057406
754.474361	0.057251
754.670540	0.057320
754.866700	0.057286
755.062843	0.057361
755.258967	0.057387
755.455072	0.057322
755.651160	0.057013
755.847229	0.056645
756.043280	0.056673
756.239313	0.056669
756.435328	0.056358
756.631324	0.056245
756.827302	0.056089
757.023262	0.056158
757.219204	0.056257
757.415127	0.056150
757.611033	0.056381
757.806920	0.056383
758.002788	0.056190
758.198639	0.056279
758.394471	0.056134
758.590286	0.056197
758.786081	0.055897
758.981859	0.055490
759.177619	0.055386
759.373360	0.055331
759.569083	0.055353
759.764788	0.055347
759.960474	0.055336
760.156143	0.055150
760.351793	0.055073
760.547425	0.055083
760.743038	0.055382
760.938634	0.055443
761.134211	0.055422
761.329770	0.055443
761.525311	0.055404
761.720833	0.055403
761.916338	0.055612
762.111824	0.055578
762.307292	0.055565
762.502741	0.055322
762.698173	0.055463
762.893586	0.055382
763.088981	0.055288
763.284358	0.055349
763.479716	0.055305
763.675057	0.055259
763.870379	0.055152
764.065683	0.055151
764.260968	0.055088
764.456236	0.054811
764.651485	0.054834
764.846716	0.054760
765.041929	0.054547
765.237123	0.054341
765.432299	0.054104
765.627457	0.054163
765.822597	0.053993
766.017719	0.054185
766.212822	0.054275
766.407907	0.054061
766.602974	0.054038
766.798023	0.054199
766.993054	0.054198
767.188066	0.054518
767.383060	0.054461
767.578036	0.054663
767.772993	0.054572
767.967933	0.054787
768.162854	0.054924
768.357757	0.054960
768.552642	0.054774
768.747508	0.054917
768.942356	0.054707
769.137186	0.054690
769.331998	0.054594
769.526792	0.054578
769.721567	0.054548
769.916324	0.054753
770.111063	0.054775
770.305784	0.054974
770.500486	0.055091
770.695171	0.055100
770.889837	0.055185
771.084484	0.055220
771.279114	0.055246
771.473725	0.055122
771.668318	0.054868
771.862893	0.054814
772.057450	0.054826
772.251988	0.054660
772.446509	0.054505
772.641011	0.054378
772.835494	0.054420
773.029960	0.054169
773.224407	0.054030
773.418836	0.054218
773.613247	0.054081
773.807640	0.054160
774.002014	0.054059
774.196370	0.054279
774.390708	0.054274
774.585028	0.054327
774.779330	0.054355
774.973613	0.054329
775.167878	0.054156
775.362125	0.054015
775.556354	0.053797
775.750564	0.053823
775.944756	0.053636
776.138930	0.053630
776.333086	0.053254
776.527223	0.053176
776.721343	0.053174
776.915444	0.053120
777.109526	0.053346
777.303591	0.053181
777.497637	0.053163
777.691666	0.053278
777.885676	0.053290
778.079667	0.053361
778.273641	0.053369
778.467596	0.053271
778.661533	0.053259
778.855452	0.053077
779.049352	0.053186
779.243235	0.053204
779.437099	0.052994
779.630945	0.052814
779.824773	0.052872
780.018582	0.052797
780.212373	0.052781
780.406146	0.052761
780.599901	0.052725
780.793638	0.052906
780.987356	0.052786
781.181056	0.053006
781.374738	0.053061
781.568402	0.053149
781.762047	0.053233
781.955674	0.053421
782.149283	0.053636
782.342874	0.053806
782.536447	0.053593
782.730001	0.053463
782.923537	0.053359
783.117055	0.053360
783.310555	0.053108
783.504036	0.053126
783.697499	0.052977
783.890944	0.052695
784.084371	0.052647
784.277780	0.052652
784.471170	0.052820
784.664542	0.052879
784.857896	0.052853
785.051231	0.052962
785.244549	0.053069
785.437848	0.053011
785.631129	0.052985
785.824392	0.052925
786.017636	0.052924
786.210863	0.052895
786.404071	0.052614
786.597260	0.052636
786.790432	0.052564
786.983585	0.052367
787.176721	0.052505
787.369838	0.052533
787.562936	0.052536
787.756017	0.052513
787.949079	0.052595
788.142123	0.052814
788.335149	0.052871
788.528156	0.053064
788.721146	0.053408
788.914117	0.053398
789.107070	0.053583
789.300005	0.053705
789.492921	0.053556
789.685819	0.053444
789.878699	0.053548
790.071561	0.053561
790.264405	0.053605
790.457230	0.053497
790.650037	0.053606
790.842826	0.053472
791.035597	0.053451
791.228349	0.053632
791.421084	0.053987
791.613800	0.053959
791.806497	0.053988
791.999177	0.054070
792.191838	0.054146
792.384481	0.054112
792.577106	0.054157
792.769713	0.054156
792.962301	0.054363
793.154871	0.054231
793.347423	0.054206
793.539957	0.054552
793.732473	0.054456
793.924970	0.054450
794.117449	0.054517
794.309910	0.054479
794.502353	0.054648
794.694777	0.054634
794.887183	0.054451
795.079571	0.054442
795.271941	0.054295
795.464293	0.054504
795.656626	0.054573
795.848941	0.054611
796.041238	0.054958
796.233516	0.055048
796.425777	0.055030
796.618019	0.055211
796.810243	0.055297
797.002449	0.055316
797.194636	0.055123
797.386805	0.054918
797.578956	0.054993
797.771089	0.054807
797.963204	0.054804
798.155300	0.054612
798.347378	0.054665
798.539438	0.054668
798.731480	0.054534
798.923503	0.054789
799.115509	0.054949
799.307496	0.054776
799.499465	0.054717
799.691415	0.054595
799.883348	0.054811
800.075262	0.054713
800.267158	0.054800
800.459035	0.054757
800.650895	0.054494
800.842736	0.054391
801.034559	0.054513
801.226364	0.054656
801.418150	0.054698
801.609919	0.054707
801.801669	0.054964
801.993401	0.054916
802.185114	0.055010
802.376810	0.055056
802.568487	0.055029
802.760146	0.055043
802.951787	0.055018
803.143409	0.054932
803.335014	0.054915
803.526600	0.054785
803.718168	0.054767
803.909717	0.054859
804.101249	0.054892
804.292762	0.055000
804.484257	0.054933
804.675734	0.054870
804.867192	0.054852
805.058632	0.055033
805.250054	0.054872
805.441458	0.054925
805.632844	0.054898
805.824211	0.054873
806.015561	0.054876
806.206891	0.054925
806.398204	0.054869
806.589499	0.055103
806.780775	0.054895
806.972033	0.055113
807.163273	0.054972
807.354495	0.054790
807.545698	0.054782
807.736883	0.054727
807.928050	0.054675
808.119199	0.054854
808.310329	0.054569
808.501441	0.054693
808.692535	0.054602
808.883611	0.054697
809.074669	0.054963
809.265708	0.054789
809.456729	0.054822
809.647732	0.054948
809.838717	0.054859
810.029683	0.055110
810.220632	0.055072
810.411562	0.055235
810.602474	0.055163
810.793367	0.055038
810.984242	0.055204
811.175100	0.055250
811.365938	0.055188
811.556759	0.055245
811.747562	0.055036
811.938346	0.054982
812.129112	0.054780
812.319860	0.054915
812.510589	0.055063
812.701300	0.055025
812.891994	0.055163
813.082668	0.055233
813.273325	0.055247
813.463964	0.055553
813.654584	0.055546
813.845186	0.055718
814.035769	0.055745
814.226335	0.055593
814.416882	0.055754
814.607411	0.055867
814.797922	0.055895
814.988415	0.056103
815.178889	0.056177
815.369345	0.056674
815.559783	0.056781
815.750203	0.056989
815.940605	0.057187
816.130988	0.057301
816.321353	0.057294
816.511700	0.057385
816.702028	0.057285
816.892339	0.057153
817.082631	0.056891
817.272905	0.056836
817.463161	0.056643
817.653398	0.056592
817.843617	0.056661
818.033819	0.056541
818.224001	0.056651
818.414166	0.056724
818.604312	0.056828
818.794440	0.056801
818.984550	0.056702
819.174642	0.056743
819.364716	0.056817
819.554771	0.056723
819.744808	0.056768
819.934827	0.056520
820.124827	0.056262
820.314810	0.056120
820.504774	0.056134
820.694720	0.056272
820.884647	0.056472
821.074557	0.056307
821.264448	0.056562
821.454321	0.056408
821.644176	0.056460
821.834012	0.056768
822.023831	0.056964
822.213631	0.056724
822.403413	0.056726
822.593176	0.056478
822.782922	0.056746
822.972649	0.056593
823.162358	0.056606
823.352049	0.056699
823.541721	0.056638
823.731376	0.056416
823.921012	0.056776
824.110629	0.056821
824.300229	0.057005
824.489811	0.057011
824.679374	0.057033
824.868919	0.057214
825.058445	0.057249
825.247954	0.057469
825.437444	0.057681
825.626916	0.057737
825.816370	0.057839
826.005806	0.057891
826.195223	0.057835
826.384622	0.057787
826.574003	0.057800
826.763366	0.058208
826.952711	0.058320
827.142037	0.058395
827.331345	0.058324
827.520635	0.058315
827.709906	0.058489
827.899160	0.058605
828.088395	0.058792
828.277612	0.058946
828.466810	0.058721
828.655991	0.058577
828.845153	0.058582
829.034297	0.058586
829.223423	0.058882
829.412531	0.058647
829.601620	0.058646
829.790691	0.058709
829.979744	0.058892
830.168779	0.058832
830.357795	0.059022
830.546793	0.058972
830.735773	0.058948
830.924735	0.058681
831.113679	0.059003
831.302604	0.058925
831.491511	0.059082
831.680400	0.059157
831.869271	0.059381
832.058123	0.059309
832.246957	0.059419
832.435773	0.059648
832.624571	0.059653
832.813351	0.059632
833.002112	0.059899
833.190855	0.059680
833.379580	0.059423
833.568287	0.059100
833.756975	0.059079
833.945645	0.059224
834.134297	0.059031
834.322931	0.059079
834.511547	0.059146
834.700144	0.059045
834.888723	0.059001
835.077284	0.059027
835.265826	0.059221
835.454351	0.059071
835.642857	0.058910
835.831345	0.059007
836.019815	0.058868
836.208266	0.058792
836.396699	0.059004
836.585114	0.058970
836.773511	0.058954
836.961890	0.058924
837.150250	0.059153
837.338592	0.059362
837.526916	0.059310
837.715222	0.059447
837.903510	0.059451
838.091779	0.059215
838.280030	0.059644
838.468263	0.059715
838.656477	0.059928
838.844674	0.059890
839.032852	0.059814
839.221012	0.060077
839.409153	0.060398
839.597277	0.060334
839.785382	0.060611
839.973469	0.060621
840.161538	0.060594
840.349589	0.060472
840.537621	0.060468
840.725635	0.060574
840.913631	0.060628
841.101609	0.060489
841.289568	0.060570
841.477509	0.060325
841.665432	0.060161
841.853337	0.060293
842.041224	0.060871
842.229092	0.061304
842.416942	0.061623
842.604774	0.061892
842.792588	0.062236
842.980383	0.062436
843.168160	0.062815
843.355919	0.063187
843.543660	0.063612
843.731382	0.063481
843.919087	0.063127
844.106773	0.063190
844.294441	0.063055
844.482090	0.063231
844.669722	0.063246
844.857335	0.062970
845.044930	0.062997
845.232507	0.062879
845.420065	0.063014
845.607605	0.063119
845.795127	0.063081
845.982631	0.063236
846.170117	0.062816
846.357584	0.062883
846.545033	0.063296
846.732464	0.063191
846.919877	0.063384
847.107272	0.062957
847.294648	0.063205
847.482006	0.063058
847.669346	0.063069
847.856667	0.063344
848.043971	0.063518
848.231256	0.063211
848.418523	0.063189
848.605771	0.063098
848.793002	0.063457
848.980214	0.063515
849.167408	0.063571
849.354584	0.063569
849.541742	0.063651
849.728881	0.063546
849.916002	0.063879
850.103105	0.063966
850.290190	0.063767
850.477256	0.063961
850.664304	0.063931
850.851334	0.064040
851.038346	0.064250
851.225340	0.064311
851.412315	0.064755
851.599272	0.064901
851.786211	0.065028
851.973132	0.065399
852.160034	0.065340
852.346918	0.065492
852.533784	0.065548
852.720632	0.065596
852.907462	0.065618
853.094273	0.065322
853.281066	0.065316
853.467841	0.065474
853.654598	0.065361
853.841336	0.065415
854.028056	0.065480
854.214758	0.065633
854.401442	0.065683
854.588107	0.066101
854.774755	0.066536
854.961384	0.066628
855.147995	0.066816
855.334587	0.067141
855.521162	0.067013
855.707718	0.067227
855.894256	0.067460
856.080775	0.067220
856.267277	0.067137
856.453760	0.066769
856.640225	0.066884
856.826672	0.067039
857.013101	0.067356
857.199511	0.067669
857.385903	0.067680
857.572277	0.067308
857.758633	0.067919
857.944970	0.067818
858.131290	0.068182
858.317591	0.068259
858.503873	0.068253
858.690138	0.068284
858.876384	0.068534
859.062612	0.068406
859.248822	0.068767
859.435014	0.068618
859.621188	0.068742
859.807343	0.068783
859.993480	0.068512
860.179599	0.068461
860.365699	0.068330
860.551781	0.068129
860.737846	0.068448
860.923891	0.068463
861.109919	0.068503
861.295929	0.068395
861.481920	0.068584
861.667893	0.068992
861.853848	0.069011
862.039784	0.068896
862.225702	0.068928
862.411603	0.068874
862.597484	0.069094
862.783348	0.069186
862.969193	0.069349
863.155021	0.069203
863.340830	0.069354
863.526620	0.069258
863.712393	0.069571
863.898147	0.069616
864.083883	0.069802
864.269601	0.069721
864.455301	0.069688
864.640982	0.070023
864.826645	0.070122
865.012290	0.070277
865.197917	0.070515
865.383526	0.070377
865.569116	0.070494
865.754688	0.070465
865.940242	0.070595
866.125777	0.070768
866.311295	0.070676
866.496794	0.070406
866.682275	0.070413
866.867737	0.070453
867.053182	0.070692
867.238608	0.071194
867.424016	0.071309
867.609406	0.071235
867.794778	0.071407
867.980131	0.071494
868.165466	0.072000
868.350783	0.072240
868.536082	0.072618
868.721362	0.072385
868.906625	0.072055
869.091869	0.071902
869.277094	0.072079
869.462302	0.072125
869.647491	0.072056
869.832662	0.072016
870.017815	0.071706
870.202950	0.071388
870.388066	0.071470
870.573165	0.071657
870.758245	0.071994
870.943306	0.072009
871.128350	0.072004
871.313375	0.072387
871.498382	0.072582
871.683371	0.072677
871.868342	0.072801
872.053294	0.073141
872.238229	0.073039
872.423144	0.073079
872.608042	0.073329
872.792922	0.073278
872.977783	0.073332
873.162626	0.073344
873.347451	0.073627
873.532258	0.073578
873.717046	0.073394
873.901816	0.073586
874.086568	0.073638
874.271302	0.073364
874.456017	0.073375
874.640715	0.073245
874.825394	0.073158
875.010055	0.073005
875.194697	0.073383
875.379322	0.073464
875.563928	0.073494
875.748516	0.073564
875.933085	0.073929
876.117637	0.074055
876.302170	0.073867
876.486685	0.074105
876.671182	0.073930
876.855661	0.073983
877.040121	0.074431
877.224563	0.074237
877.408987	0.074332
877.593393	0.074582
877.777780	0.074519
877.962150	0.074550
878.146501	0.074563
878.330833	0.074669
878.515148	0.074298
878.699444	0.074041
878.883722	0.074456
879.067982	0.074282
879.252224	0.073793
879.436447	0.074014
879.620653	0.074327
879.804840	0.074128
879.989008	0.074547
880.173159	0.074670
880.357291	0.074806
880.541405	0.074796
880.725501	0.074617
880.909579	0.074840
881.093638	0.074520
881.277680	0.074232
881.461703	0.074230
881.645707	0.073867
881.829694	0.073799
882.013662	0.073822
882.197612	0.073539
882.381544	0.073736
882.565458	0.073713
882.749353	0.073939
882.933230	0.074050
883.117089	0.073861
883.300930	0.073917
883.484753	0.073944
883.668557	0.073795
883.852343	0.073985
884.036111	0.073780
884.219861	0.073674
884.403592	0.073563
884.587305	0.073564
884.771000	0.073994
884.954677	0.073980
885.138335	0.074300
885.321976	0.074463
885.505598	0.074351
885.689201	0.074601
885.872787	0.074662
886.056354	0.074777
886.239904	0.075036
886.423434	0.075021
886.606947	0.075338
886.790442	0.075234
886.973918	0.074671
887.157376	0.074647
887.340816	0.074519
887.524237	0.074619
887.707641	0.074503
887.891026	0.074011
888.074393	0.073772
888.257741	0.073254
888.441072	0.073245
888.624384	0.073121
888.807678	0.073025
888.990954	0.073179
889.174211	0.073124
889.357451	0.073037
889.540672	0.073446
889.723875	0.073587
889.907059	0.073805
890.090226	0.073575
890.273374	0.074074
890.456504	0.074062
890.639616	0.073736
890.822709	0.073534
891.005785	0.073703
891.188842	0.073564
891.371881	0.073462
891.554901	0.073508
891.737904	0.073746
891.920888	0.073621
892.103854	0.073853
892.286802	0.073933
892.469731	0.074235
892.652643	0.074349
892.835536	0.074348
893.018410	0.074710
893.201267	0.074557
893.384106	0.073956
893.566926	0.073839
893.749728	0.073743
893.932511	0.073869
894.115277	0.073407
894.298024	0.073196
894.480753	0.073158
894.663464	0.072910
894.846157	0.072962
895.028831	0.073419
895.211487	0.073523
895.394125	0.073645
895.576745	0.073773
895.759346	0.074216
895.941930	0.074291
896.124495	0.074258
896.307041	0.074279
896.489570	0.074197
896.672080	0.074456
896.854573	0.074519
897.037046	0.074524
897.219502	0.074470
897.401940	0.074329
897.584359	0.074588
897.766760	0.074485
897.949143	0.074455
898.131507	0.074545
898.313854	0.074641
898.496182	0.074510
898.678492	0.074148
898.860783	0.074088
899.043057	0.074171
899.225312	0.073898
899.407549	0.073816
899.589768	0.073687
899.771968	0.073471
899.954151	0.073080
900.136315	0.073324
900.318461	0.073428
900.500588	0.073385
900.682698	0.073510
900.864789	0.073917
901.046862	0.074028
901.228917	0.074034
901.410953	0.074298
901.592971	0.074063
901.774972	0.073866
901.956953	0.073834
902.138917	0.073566
902.320862	0.073013
902.502790	0.072449
902.684699	0.072452
902.866589	0.072388
903.048462	0.072001
903.230316	0.072138
903.412152	0.072236
903.593970	0.072029
903.775770	0.071696
903.957551	0.071681
904.139314	0.071613
904.321059	0.071036
904.502786	0.070889
904.684494	0.070998
904.866185	0.070876
905.047857	0.070375
905.229510	0.070478
905.411146	0.070868
905.592763	0.070843
905.774363	0.070612
905.955943	0.071033
906.137506	0.070776
906.319051	0.070679
906.500577	0.070597
906.682085	0.070630
906.863575	0.070422
907.045046	0.070263
907.226500	0.070124
907.407935	0.070163
907.589352	0.069851
907.770750	0.069725
907.952131	0.069603
908.133493	0.069463
908.314837	0.069150
908.496163	0.069334
908.677470	0.069273
908.858760	0.069368
909.040031	0.069082
909.221284	0.068858
909.402518	0.069327
909.583735	0.069013
909.764933	0.068717
909.946113	0.068397
910.127275	0.068188
910.308418	0.067951
910.489544	0.067587
910.670651	0.067863
910.851740	0.068062
911.032810	0.067511
911.213863	0.067422
911.394897	0.067222
911.575913	0.068154
911.756911	0.067841
911.937890	0.067615
912.118851	0.067390
912.299794	0.067227
912.480719	0.067013
912.661626	0.067311
912.842514	0.067302
913.023384	0.067359
913.204236	0.066300
913.385070	0.066285
913.565886	0.066399
913.746683	0.066530
913.927462	0.065942
914.108223	0.065929
914.288965	0.065445
914.469690	0.065237
914.650396	0.065022
914.831084	0.065302
915.011754	0.065025
915.192405	0.064844
915.373038	0.064708
915.553653	0.064766
915.734250	0.064382
915.914829	0.064262
916.095389	0.064179
916.275931	0.064319
916.456455	0.063918
916.636961	0.063502
916.817448	0.063008
916.997917	0.063068
917.178368	0.062850
917.358801	0.062730
917.539216	0.062460
917.719612	0.062735
917.899990	0.062393
918.080350	0.062814
918.260692	0.063113
918.441015	0.063622
918.621320	0.063159
918.801607	0.062885
918.981876	0.062655
919.162127	0.062588
919.342359	0.062245
919.522573	0.062014
919.702769	0.061802
919.882947	0.061614
920.063106	0.060745
920.243247	0.060082
920.423370	0.060311
920.603475	0.060354
920.783562	0.060226
920.963630	0.060363
921.143680	0.060301
921.323712	0.059763
921.503725	0.059298
921.683721	0.059464
921.863698	0.059961
922.043657	0.059527
922.223598	0.059237
922.403520	0.058859
922.583424	0.058250
922.763311	0.057882
922.943178	0.057736
923.123028	0.057787
923.302859	0.057814
923.482673	0.057446
923.662467	0.056981
923.842244	0.056846
924.022003	0.056651
924.201743	0.055880
924.381465	0.055451
924.561169	0.055233
924.740854	0.054886
924.920522	0.054539
925.100171	0.054461
925.279802	0.054260
925.459414	0.053599
925.639009	0.053152
925.818585	0.053707
925.998143	0.053595
926.177683	0.053164
926.357205	0.052861
926.536708	0.051985
926.716193	0.051489
926.895660	0.051971
927.075109	0.051969
927.254539	0.051861
927.433951	0.051173
927.613345	0.051069
927.792721	0.051095
927.972079	0.050939
928.151418	0.051360
928.330739	0.051195
928.510042	0.050386
928.689327	0.049957
928.868593	0.049638
929.047841	0.049326
929.227071	0.049601
929.406283	0.048740
929.585476	0.048259
929.764652	0.047859
929.943809	0.048097
930.122948	0.048033
930.302068	0.047878
930.481171	0.047908
930.660255	0.047737
930.839321	0.047291
931.018369	0.047370
931.197398	0.047406
931.376409	0.047060
931.555402	0.046329
931.734377	0.046074
931.913334	0.046022
932.092272	0.045680
932.271192	0.045357
932.450094	0.044694
932.628978	0.044459
932.807844	0.044369
932.986691	0.044138
933.165520	0.044126
933.344331	0.044179
933.523123	0.043711
933.701898	0.043222
933.880654	0.043295
934.059392	0.043458
934.238111	0.043566
934.416813	0.043097
934.595496	0.042982
934.774161	0.042276
934.952808	0.041370
935.131437	0.041006
935.310047	0.040963
935.488639	0.040625
935.667213	0.039804
935.845769	0.039443
936.024306	0.038861
936.202825	0.038712
936.381326	0.038240
936.559809	0.037985
936.738274	0.037448
936.916720	0.036679
937.095148	0.036664
937.273558	0.036618
937.451950	0.035954
937.630323	0.036079
937.808678	0.034980
937.987015	0.034338
938.165334	0.033859
938.343635	0.034032
938.521917	0.034410
938.700181	0.033993
938.878427	0.033631
939.056655	0.033697
939.234864	0.032937
939.413055	0.032932
939.591228	0.033043
939.769383	0.033168
939.947519	0.032557
940.125638	0.031620
940.303738	0.031504
940.481820	0.030830
940.659883	0.030110
940.837929	0.030275
941.015956	0.030247
941.193965	0.030346
941.371955	0.030620
941.549928	0.030828
941.727882	0.030515
941.905818	0.029506
942.083736	0.028994
942.261636	0.028804
942.439517	0.028479
942.617380	0.028484
942.795225	0.028950
942.973052	0.027926
943.150860	0.027614
943.328651	0.028250
943.506423	0.028420
943.684176	0.029019
943.861912	0.028859
944.039629	0.028846
944.217328	0.028270
944.395009	0.026864
944.572672	0.027169
944.750317	0.027196
944.927943	0.026667
945.105551	0.026557
945.283141	0.026808
945.460712	0.026412
945.638265	0.027009
945.815801	0.027621
945.993317	0.027451
946.170816	0.026170
946.348297	0.025726
946.525759	0.025251
946.703203	0.024476
946.880629	0.023110
947.058036	0.023679
947.235425	0.023222
947.412797	0.022718
947.590149	0.022510
947.767484	0.023127
947.944800	0.023815
948.122099	0.022792
948.299379	0.022681
948.476640	0.023750
948.653884	0.023685
948.831109	0.022213
949.008316	0.022094
949.185505	0.022856
949.362676	0.022989
949.539828	0.022181
949.716962	0.023488
949.894078	0.024328
950.071176	0.024279
950.248256	0.024052
950.425317	0.023914
950.602360	0.022654
950.779385	0.022706
950.956391	0.022584
951.133380	0.022340
951.310350	0.022664
951.487302	0.022137
951.664235	0.020012
951.841151	0.019794
952.018048	0.018722
952.194927	0.019782
952.371788	0.018427
952.548631	0.018354
952.725455	0.018700
952.902261	0.018377
953.079049	0.018130
953.255819	0.019468
953.432570	0.019491
953.609303	0.021201
953.786018	0.021580
953.962715	0.021976
954.139394	0.022400
954.316054	0.022378
954.492696	0.021830
954.669320	0.021636
954.845926	0.022195
955.022513	0.022341
955.199083	0.023013
955.375634	0.022024
955.552166	0.023431
955.728681	0.023432
955.905177	0.023676
956.081655	0.024922
956.258115	0.024409
956.434557	0.025573
956.610980	0.024852
956.787385	0.024511
956.963772	0.024789
957.140141	0.023785
957.316492	0.023470
957.492824	0.023250
957.669138	0.021093
957.845434	0.022723
958.021712	0.022341
958.197971	0.023680
958.374212	0.023266
958.550435	0.022461
958.726640	0.022719
958.902826	0.021529
959.078995	0.022993
959.255145	0.024169
959.431277	0.024430
959.607390	0.021469
959.783486	0.021130
959.959563	0.020118
960.135622	0.022681
960.311662	0.024342
960.487685	0.026444
960.663689	0.024756
960.839675	0.025410
961.015643	0.025830
961.191593	0.027109
961.367524	0.026242
961.543437	0.028214
961.719332	0.026859
961.895209	0.025416
962.071067	0.025676
962.246907	0.025505
962.422730	0.025926
962.598533	0.025481
962.774319	0.026368
962.950086	0.025135
963.125835	0.024029
963.301566	0.025171
963.477279	0.026469
963.652973	0.026746
963.828650	0.026723
964.004308	0.026958
964.179947	0.026278
964.355569	0.026062
964.531172	0.028722
964.706757	0.030351
964.882324	0.028697
965.057873	0.027986
965.233403	0.027185
965.408916	0.028558
965.584410	0.026767
965.759885	0.026079
965.935343	0.027114
966.110782	0.026625
966.286203	0.027114
966.461606	0.027558
966.636991	0.028435
966.812357	0.028528
966.987705	0.026618
967.163035	0.028191
967.338347	0.028896
967.513641	0.028769
967.688916	0.028688
967.864173	0.028508
968.039412	0.029769
968.214632	0.028795
968.389835	0.028486
968.565019	0.029295
968.740185	0.028932
968.915333	0.028269
969.090462	0.029458
969.265573	0.030086
969.440667	0.029058
969.615741	0.027699
969.790798	0.028432
969.965836	0.027512
970.140856	0.028049
970.315858	0.027046
970.490842	0.027810
970.665808	0.025933
970.840755	0.027504
971.015684	0.025476
971.190595	0.028517
971.365487	0.028090
971.540362	0.027916
971.715218	0.027274
971.890056	0.027486
972.064875	0.026689
972.239677	0.027209
972.414460	0.026278
972.589225	0.028452
972.763972	0.026289
972.938700	0.025567
973.113411	0.027067
973.288103	0.026791
973.462777	0.028796
973.637432	0.030665
973.812070	0.030624
973.986689	0.028091
974.161290	0.028787
974.335873	0.027153
974.510437	0.028831
974.684984	0.029307
974.859512	0.029982
975.034022	0.029652
975.208513	0.028433
975.382987	0.028681
975.557442	0.030239
975.731879	0.028075
975.906298	0.030121
976.080698	0.029429
976.255080	0.028603
976.429445	0.028752
976.603790	0.028892
976.778118	0.031474
976.952427	0.031617
977.126719	0.031653
977.300992	0.034832
977.475246	0.033786
977.649483	0.033714
977.823701	0.034811
977.997901	0.032646
978.172083	0.031873
978.346247	0.029940
978.520392	0.030074
978.694519	0.029413
978.868628	0.027087
979.042719	0.027393
979.216791	0.027816
979.390845	0.025365
979.564882	0.027096
979.738899	0.027207
979.912899	0.027204
980.086880	0.026103
980.260843	0.026580
980.434788	0.026727
980.608715	0.026523
980.782623	0.025058
980.956514	0.025487
981.130386	0.025198
981.304240	0.025268
981.478075	0.026235
981.651892	0.027203
981.825692	0.027391
981.999472	0.026965
982.173235	0.027552
982.346980	0.028645
982.520706	0.030286
982.694414	0.032113
982.868104	0.031274
983.041775	0.029402
983.215428	0.029464
983.389064	0.028708
983.562680	0.029147
983.736279	0.027816
983.909860	0.027087
984.083422	0.026967
984.256966	0.027814
984.430491	0.028108
984.603999	0.029823
984.777488	0.030022
984.950959	0.029846
985.124412	0.031926
985.297847	0.031228
985.471263	0.030723
985.644661	0.030688
985.818041	0.028785
985.991403	0.030190
986.164747	0.029912
986.338072	0.029803
986.511379	0.030475
986.684668	0.029157
986.857938	0.030499
987.031191	0.030132
987.204425	0.028774
987.377641	0.028973
987.550839	0.026795
987.724018	0.025995
987.897179	0.026143
988.070322	0.025037
988.243447	0.024778
988.416554	0.025186
988.589642	0.026362
988.762712	0.026548
988.935764	0.025937
989.108798	0.026858
989.281813	0.027328
989.454811	0.027691
989.627790	0.028091
989.800751	0.027736
989.973693	0.026096
990.146617	0.027194
990.319524	0.027160
990.492412	0.027514
990.665281	0.026591
990.838133	0.025667
991.010966	0.025532
991.183781	0.026547
991.356578	0.028037
991.529356	0.029767
991.702117	0.030046
991.874859	0.030424
992.047583	0.030829
992.220288	0.032199
992.392976	0.032599
992.565645	0.032322
992.738296	0.032242
992.910929	0.031912
993.083543	0.030375
993.256139	0.029613
993.428718	0.031465
993.601277	0.030523
993.773819	0.030528
993.946342	0.030514
994.118848	0.030032
994.291335	0.028823
994.463803	0.027777
994.636254	0.029848
994.808686	0.029837
994.981100	0.027850
995.153496	0.029232
995.325874	0.029126
995.498233	0.030319
995.670574	0.028886
995.842897	0.029580
996.015202	0.029444
996.187488	0.027010
996.359757	0.027427
996.532007	0.027140
996.704239	0.026596
996.876452	0.025501
997.048648	0.023513
997.220825	0.024510
997.392984	0.023683
997.565124	0.024924
997.737247	0.025831
997.909351	0.023868
998.081437	0.023402
998.253505	0.022730
998.425554	0.022459
998.597586	0.022491
998.769599	0.021865
998.941594	0.022321
999.113571	0.021523
999.285529	0.023026
999.457469	0.023234
999.629391	0.025159
999.801295	0.025328
999.973181	0.025613
1000.145048	0.027596
1000.316897	0.029198
1000.488728	0.029288
1000.660541	0.029242
1000.832335	0.028392
1001.004111	0.029864
1001.175869	0.028201
1001.347609	0.026920
1001.519331	0.027386
1001.691034	0.027115
1001.862719	0.025422
1002.034386	0.024677
1002.206035	0.026163
1002.377665	0.025853
1002.549277	0.023937
1002.720871	0.026313
1002.892447	0.027339
1003.064004	0.026875
1003.235544	0.026128
1003.407065	0.028152
1003.578568	0.030611
1003.750052	0.028276
1003.921519	0.029215
1004.092967	0.029879
1004.264397	0.028832
1004.435809	0.029855
1004.607202	0.029035
1004.778577	0.027911
1004.949934	0.026805
1005.121273	0.025367
1005.292594	0.026981
1005.463896	0.026146
1005.635180	0.025654
1005.806446	0.023977
1005.977694	0.023941
1006.148923	0.025151
1006.320135	0.026430
1006.491328	0.026920
1006.662503	0.027803
1006.833659	0.027270
1007.004798	0.027779
1007.175918	0.027344
1007.347020	0.028872
1007.518103	0.027864
1007.689169	0.029719
1007.860216	0.028269
1008.031245	0.028343
1008.202256	0.025267
1008.373248	0.024205
1008.544223	0.023783
1008.715179	0.024838
1008.886117	0.022798
1009.057036	0.023374
1009.227938	0.020991
1009.398821	0.022510
1009.569686	0.023180
1009.740533	0.024332
1009.911361	0.023397
1010.082172	0.022698
1010.252964	0.023102
1010.423738	0.023898
1010.594493	0.022628
1010.765231	0.023026
1010.935950	0.021951
1011.106651	0.019496
1011.277334	0.019276
1011.447998	0.021311
1011.618645	0.020798
1011.789273	0.020086
1011.959882	0.020610
1012.130474	0.022102
1012.301048	0.022462
1012.471603	0.021748
1012.642140	0.022346
1012.812658	0.022542
1012.983159	0.021074
1013.153641	0.021928
1013.324105	0.021967
1013.494551	0.020823
1013.664979	0.020680
1013.835388	0.021104
1014.005779	0.021414
1014.176152	0.023101
1014.346507	0.022073
1014.516843	0.022666
1014.687162	0.022403
1014.857462	0.023295
1015.027744	0.023615
1015.198007	0.023266
1015.368252	0.022923
1015.538480	0.023467
1015.708689	0.022819
1015.878879	0.023970
1016.049052	0.025138
1016.219206	0.025275
1016.389342	0.025405
1016.559460	0.024845
1016.729559	0.026260
1016.899641	0.025418
1017.069704	0.024915
1017.239749	0.023186
1017.409775	0.024293
1017.579784	0.023102
1017.749774	0.023119
1017.919746	0.022540
1018.089700	0.024124
1018.259635	0.022633
1018.429553	0.023052
1018.599452	0.024900
1018.769333	0.025103
1018.939195	0.024089
1019.109040	0.024060
1019.278866	0.024840
1019.448674	0.024287
1019.618464	0.024424
1019.788235	0.022915
1019.957989	0.023336
1020.127724	0.022554
1020.297441	0.023376
1020.467139	0.023214
1020.636820	0.023626
1020.806482	0.023128
1020.976126	0.023107
1021.145752	0.023306
1021.315359	0.024906
1021.484948	0.024139
1021.654519	0.026067
1021.824072	0.026406
1021.993607	0.028381
1022.163123	0.029693
1022.332621	0.029566
1022.502101	0.029695
1022.671563	0.029566
1022.841007	0.030048
1023.010432	0.029848
1023.179839	0.028514
1023.349228	0.028505
1023.518598	0.026322
1023.687951	0.024540
1023.857285	0.023686
1024.026601	0.023101
1024.195899	0.022026
1024.365178	0.021634
1024.534439	0.022452
1024.703682	0.022008
1024.872907	0.020976
1025.042114	0.022017
1025.211302	0.023421
1025.380472	0.024744
1025.549624	0.025365
1025.718758	0.026384
1025.887873	0.026263
1026.056970	0.026252
1026.226049	0.026141
1026.395110	0.027434
1026.564153	0.027858
1026.733177	0.025434
1026.902183	0.025010
1027.071171	0.025447
1027.240141	0.024398
1027.409092	0.023893
1027.578026	0.022418
1027.746940	0.022187
1027.915837	0.022581
1028.084716	0.023370
1028.253576	0.026019
1028.422418	0.026349
1028.591242	0.026498
1028.760048	0.026502
1028.928835	0.026506
1029.097604	0.027347
1029.266355	0.027218
1029.435088	0.027551
1029.603803	0.024754
1029.772499	0.024769
1029.941177	0.023088
1030.109837	0.021710
1030.278478	0.021215
1030.447102	0.022882
1030.615707	0.023585
1030.784294	0.023988
1030.952863	0.023053
1031.121413	0.024154
1031.289945	0.023341
1031.458460	0.025120
1031.626955	0.024998
1031.795433	0.026050
1031.963892	0.026373
1032.132334	0.025924
1032.300756	0.025665
1032.469161	0.025775
1032.637548	0.026346
1032.805916	0.025172
1032.974266	0.025382
1033.142598	0.026679
1033.310911	0.027325
1033.479207	0.025064
1033.647484	0.024509
1033.815743	0.024846
1033.983983	0.023604
1034.152206	0.023153
1034.320410	0.025549
1034.488596	0.024570
1034.656764	0.023148
1034.824914	0.023744
1034.993045	0.024331
1035.161158	0.024110
1035.329253	0.022954
1035.497330	0.022773
1035.665388	0.023749
1035.833428	0.021698
1036.001450	0.021865
1036.169454	0.023116
1036.337440	0.020976
1036.505407	0.019738
1036.673356	0.020940
1036.841287	0.020900
1037.009200	0.022674
1037.177094	0.021328
1037.344970	0.022991
1037.512828	0.024824
1037.680668	0.026074
1037.848489	0.026520
1038.016293	0.027319
1038.184078	0.026366
1038.351845	0.026153
1038.519593	0.025961
1038.687324	0.027223
1038.855036	0.025993
1039.022730	0.022695
1039.190406	0.021016
1039.358063	0.020805
1039.525702	0.021601
1039.693323	0.022378
1039.860926	0.022788
1040.028511	0.022332
1040.196077	0.022420
1040.363625	0.021309
1040.531155	0.021791
1040.698667	0.021963
1040.866161	0.021429
1041.033636	0.020331
1041.201093	0.020707
1041.368532	0.020008
1041.535952	0.019880
1041.703355	0.018726
1041.870739	0.018678
1042.038105	0.020324
1042.205452	0.018942
1042.372782	0.019676
1042.540093	0.019263
1042.707386	0.018776
1042.874661	0.019628
1043.041918	0.020241
1043.209156	0.020784
1043.376376	0.022166
1043.543578	0.021483
1043.710762	0.023013
1043.877927	0.022262
1044.045074	0.023621
1044.212203	0.023757
1044.379314	0.023022
1044.546407	0.020562
1044.713481	0.019442
1044.880537	0.019855
1045.047575	0.018477
1045.214595	0.019304
1045.381596	0.019271
1045.548579	0.017066
1045.715544	0.017490
1045.882491	0.017541
1046.049420	0.018998
1046.216330	0.018543
1046.383222	0.017373
1046.550096	0.019472
1046.716951	0.018105
1046.883789	0.018866
1047.050608	0.020893
1047.217409	0.020187
1047.384192	0.021490
1047.550956	0.021027
1047.717703	0.022800
1047.884431	0.022454
1048.051140	0.020413
1048.217832	0.018161
1048.384505	0.018696
1048.551161	0.019929
1048.717798	0.020558
1048.884416	0.019890
1049.051017	0.019926
1049.217599	0.020215
1049.384163	0.020270
1049.550709	0.020350
1049.717237	0.021027
1049.883746	0.020641
1050.050237	0.018508
1050.216710	0.017530
1050.383165	0.017237
1050.549601	0.017000
1050.716019	0.015804
1050.882420	0.016820
1051.048801	0.017593
1051.215165	0.018590
1051.381510	0.019428
1051.547837	0.018902
1051.714146	0.017281
1051.880437	0.018483
1052.046709	0.019172
1052.212964	0.018470
1052.379200	0.018299
1052.545417	0.017514
1052.711617	0.018596
1052.877798	0.017730
1053.043961	0.020097
1053.210106	0.022923
1053.376233	0.021966
1053.542341	0.021953
1053.708432	0.022705
1053.874504	0.021786
1054.040557	0.021989
1054.206593	0.018938
1054.372610	0.018565
1054.538609	0.017280
1054.704590	0.016515
1054.870553	0.017007
1055.036497	0.017125
1055.202424	0.017406
1055.368331	0.016135
1055.534221	0.016699
1055.700093	0.019779
1055.865946	0.020272
1056.031781	0.019207
1056.197598	0.018131
1056.363397	0.018343
1056.529177	0.018015
1056.694939	0.018898
1056.860683	0.020547
1057.026409	0.019796
1057.192116	0.019082
1057.357806	0.019125
1057.523477	0.019483
1057.689130	0.020207
1057.854764	0.018153
1058.020381	0.018823
1058.185979	0.017855
1058.351559	0.016941
1058.517120	0.018403
1058.682664	0.019252
1058.848189	0.019328
1059.013696	0.020538
1059.179185	0.021299
1059.344656	0.022315
1059.510108	0.022863
1059.675542	0.020423
1059.840958	0.021963
1060.006356	0.022191
1060.171735	0.021425
1060.337096	0.021765
1060.502439	0.022213
1060.667764	0.020825
1060.833071	0.019961
1060.998359	0.017863
1061.163629	0.019140
1061.328881	0.019726
1061.494115	0.018542
1061.659330	0.017457
1061.824527	0.016863
1061.989706	0.016238
1062.154867	0.016887
1062.320010	0.017835
1062.485134	0.018767
1062.650240	0.022418
1062.815328	0.020347
1062.980398	0.019774
1063.145449	0.020158
1063.310482	0.019708
1063.475497	0.021187
1063.640494	0.020836
1063.805473	0.021175
1063.970433	0.023026
1064.135375	0.020182
1064.300299	0.019839
1064.465204	0.020760
1064.630092	0.022265
1064.794961	0.022289
1064.959812	0.019817
1065.124645	0.019172
1065.289459	0.019069
1065.454256	0.018373
1065.619034	0.016539
1065.783793	0.016831
1065.948535	0.018233
1066.113258	0.018143
1066.277964	0.018845
1066.442651	0.018188
1066.607319	0.020490
1066.771970	0.019859
1066.936602	0.018874
1067.101216	0.022055
1067.265812	0.024278
1067.430389	0.023162
1067.594949	0.022852
1067.759490	0.023237
1067.924013	0.023128
1068.088518	0.021401
1068.253004	0.020246
1068.417472	0.018378
1068.581922	0.018068
1068.746354	0.015332
1068.910768	0.013915
1069.075163	0.013689
1069.239540	0.013778
1069.403899	0.016303
1069.568240	0.016265
1069.732562	0.018137
1069.896866	0.020122
1070.061152	0.019465
1070.225420	0.024299
1070.389670	0.025234
1070.553901	0.025847
1070.718114	0.024797
1070.882309	0.025113
1071.046486	0.026014
1071.210644	0.025545
1071.374784	0.024849
1071.538906	0.026089
1071.703010	0.024532
1071.867096	0.025506
1072.031163	0.023894
1072.195212	0.024686
1072.359243	0.021862
1072.523256	0.021404
1072.687250	0.022139
1072.851226	0.022991
1073.015184	0.021560
1073.179124	0.021222
1073.343045	0.020763
1073.506949	0.021331
1073.670834	0.020623
1073.834701	0.019941
1073.998549	0.019419
1074.162380	0.017910
1074.326192	0.018685
1074.489986	0.020000
1074.653761	0.019859
1074.817519	0.019660
1074.981258	0.018313
1075.144979	0.018312
1075.308682	0.020440
1075.472367	0.019938
1075.636033	0.020565
1075.799681	0.019605
1075.963311	0.018438
1076.126923	0.015990
1076.290516	0.015098
1076.454092	0.018034
1076.617649	0.019713
1076.781187	0.019307
1076.944708	0.020275
1077.108210	0.019731
1077.271695	0.020775
1077.435160	0.021832
1077.598608	0.021619
1077.762038	0.023738
1077.925449	0.021898
1078.088842	0.021244
1078.252217	0.021313
1078.415573	0.021895
1078.578912	0.022806
1078.742232	0.021817
1078.905534	0.019087
1079.068817	0.018983
1079.232083	0.016353
1079.395330	0.017048
1079.558559	0.013301
1079.721770	0.013714
1079.884962	0.013632
1080.048136	0.014247
1080.211293	0.015389
1080.374430	0.017141
1080.537550	0.017993
1080.700651	0.017535
1080.863735	0.017399
1081.026800	0.021050
1081.189846	0.019904
1081.352875	0.016892
1081.515885	0.015535
1081.678877	0.014285
1081.841851	0.014775
1082.004807	0.015740
1082.167744	0.017158
1082.330663	0.017962
1082.493564	0.017614
1082.656447	0.016970
1082.819312	0.018566
1082.982158	0.020939
1083.144986	0.021955
1083.307796	0.021164
1083.470587	0.020324
1083.633361	0.021106
1083.796116	0.020400
1083.958853	0.020603
1084.121571	0.022651
1084.284272	0.025075
1084.446954	0.024239
1084.609618	0.025328
1084.772264	0.026830
1084.934892	0.027567
1085.097501	0.025944
1085.260092	0.024683
1085.422665	0.023727
1085.585220	0.021588
1085.747756	0.019976
1085.910274	0.018440
1086.072774	0.015076
1086.235256	0.012631
1086.397720	0.011488
1086.560165	0.013324
1086.722592	0.014710
1086.885001	0.012927
1087.047392	0.016295
1087.209764	0.017255
1087.372119	0.019189
1087.534455	0.017370
1087.696772	0.019041
1087.859072	0.019967
1088.021353	0.018116
1088.183616	0.018822
1088.345861	0.020947
1088.508088	0.019990
1088.670296	0.020411
1088.832486	0.019301
1088.994658	0.024972
1089.156812	0.026232
1089.318948	0.024512
1089.481065	0.024364
1089.643164	0.023718
1089.805245	0.023090
1089.967308	0.023159
1090.129352	0.020855
1090.291378	0.022047
1090.453386	0.018328
1090.615376	0.015051
1090.777347	0.015735
1090.939301	0.016501
1091.101236	0.017566
1091.263153	0.019083
1091.425051	0.018508
1091.586932	0.019822
1091.748794	0.019284
1091.910638	0.019270
1092.072463	0.020903
1092.234271	0.018694
1092.396060	0.021922
1092.557831	0.022235
1092.719584	0.020446
1092.881319	0.019472
1093.043035	0.018886
1093.204733	0.021797
1093.366413	0.020496
1093.528075	0.019369
1093.689718	0.025292
1093.851343	0.022829
1094.012950	0.023793
1094.174539	0.024523
1094.336110	0.024729
1094.497662	0.027274
1094.659196	0.023574
1094.820712	0.025692
1094.982210	0.025880
1095.143689	0.021011
1095.305151	0.021770
1095.466594	0.018568
1095.628018	0.020035
1095.789425	0.019302
1095.950813	0.014960
1096.112183	0.013261
1096.273535	0.015074
1096.434869	0.014505
1096.596184	0.015469
1096.757482	0.015507
1096.918761	0.016473
1097.080021	0.018818
1097.241264	0.021580
1097.402488	0.025832
1097.563694	0.027551
1097.724882	0.026489
1097.886052	0.025791
1098.047203	0.028391
1098.208336	0.029336
1098.369451	0.025179
1098.530548	0.019968
1098.691627	0.018964
1098.852687	0.016034
1099.013729	0.016373
1099.174753	0.013806
1099.335758	0.017570
1099.496746	0.018647
1099.657715	0.015256
1099.818666	0.017412
1099.979599	0.019431
1100.140513	0.019084
1100.301409	0.021385
1100.462287	0.020309
1100.623147	0.025823
1100.783989	0.022941
1100.944812	0.018982
1101.105617	0.021306
1101.266404	0.020484
1101.427173	0.019832
1101.587923	0.020641
1101.748656	0.018708
1101.909370	0.017371
1102.070066	0.015427
1102.230743	0.012455
1102.391403	0.012295
1102.552044	0.011465
1102.712667	0.013140
1102.873271	0.015607
1103.033858	0.013943
1103.194426	0.013290
1103.354976	0.017045
1103.515508	0.015830
1103.676021	0.019565
1103.836517	0.023477
1103.996994	0.022983
1104.157453	0.021632
1104.317893	0.020356
1104.478316	0.020167
1104.638720	0.018646
1104.799106	0.019142
1104.959474	0.017699
1105.119823	0.017563
1105.280155	0.016908
1105.440468	0.017183
1105.600763	0.018033
1105.761039	0.015762
1105.921298	0.018091
1106.081538	0.021769
1106.241760	0.019820
1106.401964	0.020925
1106.562149	0.020598
1106.722316	0.020422
1106.882465	0.021178
1107.042596	0.022963
1107.202709	0.024884
1107.362803	0.023384
1107.522879	0.022661
1107.682937	0.023815
1107.842977	0.024171
1108.002999	0.024209
1108.163002	0.025438
1108.322987	0.022423
1108.482954	0.022509
1108.642902	0.020453
1108.802833	0.020151
1108.962745	0.023353
1109.122639	0.022486
1109.282515	0.022785
1109.442372	0.021981
1109.602211	0.014325
1109.762032	0.016739
1109.921835	0.016665
1110.081620	0.019325
1110.241386	0.019467
1110.401134	0.015621
1110.560864	0.017309
1110.720576	0.014929
1110.880269	0.018297
1111.039945	0.025863
1111.199602	0.026970
1111.359240	0.027916
1111.518861	0.028371
1111.678463	0.029059
1111.838047	0.030806
1111.997613	0.028762
1112.157161	0.030383
1112.316690	0.026497
1112.476202	0.021200
1112.635695	0.015923
1112.795169	0.015821
1112.954626	0.011525
1113.114064	0.012513
1113.273484	0.011059
1113.432886	0.008682
1113.592270	0.009249
1113.751635	0.012617
1113.910983	0.013461
1114.070312	0.018463
1114.229622	0.014479
1114.388915	0.018458
1114.548189	0.013233
1114.707445	0.016027
1114.866683	0.017984
1115.025903	0.017026
1115.185104	0.014265
1115.344287	0.017602
1115.503452	0.015865
1115.662599	0.019675
1115.821727	0.016938
1115.980838	0.024149
1116.139930	0.022453
1116.299004	0.023316
1116.458059	0.027245
1116.617097	0.028798
1116.776116	0.026240
1116.935117	0.027157
1117.094099	0.027203
1117.253064	0.030295
1117.412010	0.026872
1117.570938	0.021821
1117.729848	0.025517
1117.888740	0.020602
1118.047613	0.020147
1118.206468	0.018947
1118.365305	0.020897
1118.524124	0.021092
1118.682924	0.019468
1118.841707	0.021263
1119.000471	0.024987
1119.159216	0.021876
1119.317944	0.025364
1119.476653	0.024940
1119.635344	0.027094
1119.794017	0.027661
1119.952672	0.023365
1120.111308	0.022650
1120.269927	0.018561
1120.428527	0.020483
1120.587108	0.017316
1120.745672	0.017034
1120.904217	0.015263
1121.062744	0.014002
1121.221253	0.012877
1121.379744	0.010705
1121.538216	0.012292
1121.696671	0.015227
1121.855107	0.013139
1122.013524	0.010467
1122.171924	0.007702
1122.330305	0.005273
1122.488668	0.006595
1122.647013	0.004797
1122.805340	0.009093
1122.963648	0.007293
1123.121938	0.005937
1123.280210	0.006382
1123.438464	0.007558
1123.596700	0.009166
1123.754917	0.013317
1123.913116	0.013952
1124.071297	0.014965
1124.229459	0.017820
1124.387604	0.017639
1124.545730	0.018550
1124.703838	0.016362
1124.861928	0.017982
1125.019999	0.017908
1125.178052	0.019302
1125.336088	0.021651
1125.494104	0.024336
1125.652103	0.018917
1125.810083	0.019524
1125.968045	0.014331
1126.125989	0.011537
1126.283915	0.011916
1126.441823	0.012359
1126.599712	0.009383
1126.757583	0.004810
1126.915436	-0.000887
1127.073270	0.003109
1127.231087	0.002020
1127.388885	0.005969
1127.546665	0.007701
1127.704426	0.009142
1127.862170	0.010984
1128.019895	0.013021
1128.177602	0.014481
1128.335291	0.017051
1128.492961	0.015020
1128.650614	0.016486
1128.808248	0.021624
1128.965864	0.025291
1129.123461	0.029711
1129.281041	0.025880
1129.438602	0.027143
1129.596145	0.027408
1129.753670	0.027860
1129.911176	0.023451
1130.068665	0.021397
1130.226135	0.014996
1130.383587	0.016350
1130.541020	0.012863
1130.698436	0.013253
1130.855833	0.014074
1131.013212	0.009895
1131.170573	0.007351
1131.327915	0.013839
1131.485239	0.017396
1131.642545	0.017772
1131.799833	0.017138
1131.957103	0.019063
1132.114354	0.024854
1132.271588	0.024733
1132.428803	0.031267
1132.585999	0.036930
1132.743178	0.034603
1132.900338	0.035771
1133.057480	0.037219
1133.214604	0.028452
1133.371710	0.027593
1133.528797	0.020096
1133.685866	0.016826
1133.842917	0.015992
1133.999950	0.007948
1134.156964	0.007684
1134.313960	0.004531
1134.470938	0.003429
1134.627898	0.010679
1134.784840	0.006304
1134.941763	0.009540
1135.098668	0.009106
1135.255555	0.008984
1135.412424	0.016538
1135.569274	0.021003
1135.726107	0.023974
1135.882921	0.021141
1136.039716	0.019190
1136.196494	0.020091
1136.353253	0.018718
1136.509995	0.025820
1136.666717	0.025042
1136.823422	0.022972
1136.980109	0.021645
1137.136777	0.022077
1137.293427	0.028643
1137.450059	0.031943
1137.606672	0.032135
1137.763267	0.031010
1137.919844	0.024989
1138.076403	0.025064
1138.232944	0.018629
1138.389466	0.018860
1138.545971	0.011108
1138.702457	0.008490
1138.858924	0.009191
1139.015374	0.008513
1139.171805	0.008572
1139.328218	0.009242
1139.484613	0.007717
1139.640990	0.015314
1139.797348	0.017576
1139.953688	0.021897
1140.110010	0.020171
1140.266314	0.019396
1140.422600	0.017520
1140.578867	0.013389
1140.735116	0.014842
1140.891347	0.012441
1141.047559	0.007673
1141.203754	0.002940
1141.359930	0.008019
1141.516088	0.011799
1141.672228	0.008876
1141.828349	0.013198
1141.984452	0.011779
1142.140537	0.011376
1142.296604	0.014800
1142.452653	0.018781
1142.608683	0.018429
1142.764695	0.014979
1142.920689	0.005477
1143.076665	0.008985
1143.232622	0.010528
1143.388562	0.009665
1143.544483	0.006573
1143.700385	0.004195
1143.856270	-0.000048
1144.012136	0.000800
1144.167985	0.000015
1144.323814	0.012615
1144.479626	0.010993
1144.635420	0.010986
1144.791195	0.020170
1144.946952	0.021725
1145.102691	0.018994
1145.258411	0.021702
1145.414113	0.021166
1145.569798	0.024181
1145.725463	0.019357
1145.881111	0.014392
1146.036741	0.007075
1146.192352	0.004501
1146.347945	0.005374
1146.503519	0.010010
1146.659076	0.009077
1146.814614	0.014114
1146.970134	0.015000
1147.125636	0.011241
1147.281120	0.016885
1147.436585	0.016114
1147.592032	0.024066
1147.747461	0.024608
1147.902872	0.026644
1148.058265	0.025452
1148.213639	0.022134
1148.368995	0.015077
1148.524333	0.016321
1148.679653	0.016275
1148.834954	0.017327
1148.990237	0.009285
1149.145502	0.005605
1149.300749	0.003788
1149.455977	0.007786
1149.611188	0.001633
1149.766380	0.008637
1149.921553	0.020877
1150.076709	0.021236
1150.231846	0.022218
1150.386966	0.025369
1150.542066	0.023266
1150.697149	0.022867
1150.852214	0.019726
1151.007260	0.021193
1151.162288	0.015278
1151.317298	0.006310
1151.472289	0.001245
1151.627263	0.014927
1151.782218	0.007823
1151.937155	0.013189
1152.092073	0.018070
1152.246974	0.026257
1152.401856	0.028253
1152.556720	0.033071
1152.711566	0.035910
1152.866393	0.039176
1153.021203	0.034138
1153.175994	0.040689
1153.330767	0.040461
1153.485521	0.041083
1153.640258	0.031237
1153.794976	0.033504
1153.949676	0.027798
1154.104358	0.025733
1154.259021	0.023761
1154.413667	0.017081
1154.568294	0.015903
1154.722903	0.014068
1154.877493	0.010445
1155.032066	0.019139
1155.186620	0.016911
1155.341156	0.017708
1155.495674	0.018829
1155.650173	0.025358
1155.804654	0.027098
1155.959118	0.034740
1156.113562	0.037929
1156.267989	0.040830
1156.422397	0.033678
1156.576788	0.033416
1156.731160	0.032676
1156.885513	0.030152
1157.039849	0.031234
1157.194166	0.032460
1157.348465	0.026581
1157.502746	0.023387
1157.657009	0.013885
1157.811253	0.015307
1157.965479	0.015103
1158.119687	0.017887
1158.273877	0.019888
1158.428048	0.015476
1158.582201	0.011746
1158.736337	0.002919
1158.890453	-0.000656
1159.044552	0.007504
1159.198632	0.006640
1159.352694	0.007414
1159.506738	0.004249
1159.660764	0.005289
1159.814771	-0.001364
1159.968761	0.004329
1160.122732	0.015913
1160.276685	0.015957
1160.430619	0.014143
1160.584535	0.014632
1160.738434	0.018320
1160.892313	0.027934
1161.046175	0.026409
1161.200019	0.032692
1161.353844	0.024894
1161.507651	0.021761
1161.661440	0.033177
1161.815210	0.037317
1161.968962	0.030238
1162.122697	0.028710
1162.276412	0.017741
1162.430110	0.010520
1162.583789	0.013906
1162.737451	0.023777
1162.891094	0.023582
1163.044718	0.016364
1163.198325	0.006860
1163.351913	0.013858
1163.505483	0.001028
1163.659035	0.000360
1163.812569	0.012475
1163.966084	0.015894
1164.119581	0.015714
1164.273060	0.013593
1164.426521	0.019913
1164.579964	0.023376
1164.733388	0.023130
1164.886794	0.040082
1165.040182	0.037138
1165.193551	0.020588
1165.346903	0.016934
1165.500236	0.004197
1165.653551	-0.000570
1165.806848	-0.004777
1165.960126	-0.012250
1166.113386	-0.020439
1166.266628	-0.027699
1166.419852	-0.018496
1166.573058	-0.010333
1166.726245	-0.022713
1166.879414	-0.019694
1167.032565	-0.006057
1167.185698	-0.005068
1167.338812	-0.001604
1167.491909	0.007939
1167.644987	0.013228
1167.798046	0.007888
1167.951088	0.002504
1168.104111	0.009697
1168.257117	0.010987
1168.410103	0.003478
1168.563072	-0.005027
1168.716023	0.002435
1168.868955	0.003008
1169.021869	0.001109
1169.174765	0.009152
1169.327642	0.005524
1169.480501	0.011428
1169.633343	0.009335
1169.786165	0.008326
1169.938970	0.017382
1170.091757	0.007014
1170.244525	-0.001119
1170.397275	-0.009517
1170.550007	-0.015818
1170.702720	-0.013279
1170.855415	-0.010165
1171.008092	-0.001930
1171.160751	0.002456
1171.313392	0.003716
1171.466014	0.079969
1171.618619	0.053238
1171.771205	0.053238
1171.923772	0.053238
