sample name	sample
index	207
start time	 02-22-2021  09:42:24 AM


Wavelength (nm)	Absorbance
494.344910	-0.165141
494.563924	-0.165141
494.782919	-0.165141
495.001897	-0.123920
495.220856	-0.117296
495.439797	-0.100520
495.658719	-0.085228
495.877624	-0.067834
496.096510	-0.056852
496.315378	-0.066541
496.534227	-0.073949
496.753059	-0.081064
496.971872	-0.078068
497.190667	-0.016764
497.409444	0.001298
497.628203	0.004726
497.846943	0.005899
498.065665	0.008332
498.284369	0.010101
498.503055	0.010221
498.721723	0.011430
498.940372	0.011842
499.159003	0.012560
499.377616	0.011884
499.596210	0.012450
499.814787	0.011858
500.033345	0.011003
500.251885	0.010120
500.470406	0.011192
500.688910	0.010616
500.907395	0.011153
501.125862	0.011252
501.344311	0.011938
501.562742	0.012207
501.781154	0.013214
501.999548	0.014590
502.217924	0.015029
502.436282	0.014469
502.654621	0.013996
502.872942	0.013971
503.091245	0.013431
503.309530	0.013338
503.527797	0.013692
503.746045	0.013875
503.964275	0.013029
504.182487	0.013304
504.400681	0.013487
504.618856	0.014613
504.837013	0.014172
505.055152	0.014452
505.273273	0.014109
505.491376	0.013229
505.709460	0.013482
505.927526	0.013749
506.145574	0.013172
506.363604	0.012458
506.581615	0.012170
506.799608	0.012340
507.017583	0.012443
507.235540	0.012981
507.453478	0.013172
507.671399	0.012988
507.889301	0.012696
508.107185	0.013885
508.325050	0.014489
508.542898	0.014416
508.760727	0.015010
508.978538	0.014924
509.196330	0.014054
509.414105	0.013887
509.631861	0.013807
509.849599	0.013791
510.067319	0.013316
510.285021	0.013732
510.502704	0.014094
510.720369	0.013879
510.938016	0.013026
511.155645	0.013966
511.373255	0.014291
511.590848	0.013819
511.808422	0.014289
512.025977	0.014351
512.243515	0.014002
512.461034	0.013378
512.678536	0.012848
512.896018	0.013262
513.113483	0.012515
513.330930	0.011631
513.548358	0.011248
513.765768	0.010480
513.983160	0.009941
514.200533	0.010471
514.417889	0.011075
514.635226	0.011802
514.852545	0.012177
515.069845	0.012493
515.287128	0.012826
515.504392	0.013638
515.721638	0.013963
515.938866	0.014238
516.156075	0.014152
516.373267	0.014294
516.590440	0.014160
516.807594	0.014854
517.024731	0.015217
517.241850	0.015397
517.458950	0.015564
517.676032	0.015575
517.893095	0.015401
518.110141	0.015215
518.327168	0.014525
518.544177	0.014326
518.761168	0.014198
518.978141	0.014136
519.195095	0.013968
519.412031	0.014196
519.628949	0.014072
519.845849	0.014836
520.062731	0.014535
520.279594	0.014644
520.496439	0.014462
520.713266	0.014418
520.930074	0.013918
521.146865	0.014057
521.363637	0.013732
521.580391	0.014161
521.797127	0.013684
522.013844	0.014789
522.230543	0.015346
522.447224	0.015524
522.663887	0.015304
522.880532	0.016093
523.097158	0.016323
523.313766	0.016059
523.530356	0.016598
523.746928	0.016133
523.963481	0.015559
524.180017	0.015469
524.396534	0.015784
524.613032	0.015441
524.829513	0.015207
525.045975	0.015048
525.262420	0.014908
525.478845	0.014375
525.695253	0.014478
525.911643	0.014645
526.128014	0.014948
526.344367	0.015070
526.560702	0.015419
526.777018	0.015367
526.993316	0.015579
527.209597	0.016038
527.425858	0.016228
527.642102	0.016345
527.858328	0.016364
528.074535	0.016308
528.290724	0.015571
528.506894	0.015357
528.723047	0.015252
528.939181	0.015135
529.155297	0.015271
529.371395	0.015254
529.587475	0.015585
529.803536	0.015017
530.019579	0.014965
530.235604	0.015327
530.451611	0.015457
530.667600	0.015493
530.883570	0.015164
531.099522	0.014819
531.315456	0.014652
531.531372	0.014458
531.747269	0.014829
531.963148	0.014710
532.179009	0.015140
532.394852	0.015404
532.610676	0.015575
532.826482	0.015514
533.042271	0.015584
533.258040	0.015670
533.473792	0.015999
533.689525	0.015779
533.905240	0.016041
534.120937	0.015993
534.336616	0.015933
534.552277	0.016324
534.767919	0.017045
534.983543	0.017256
535.199149	0.016866
535.414736	0.016649
535.630306	0.016934
535.845857	0.016397
536.061390	0.015919
536.276904	0.016207
536.492401	0.015657
536.707879	0.015803
536.923339	0.015872
537.138781	0.016093
537.354204	0.016316
537.569610	0.016194
537.784997	0.016569
538.000366	0.016620
538.215716	0.015989
538.431049	0.015879
538.646363	0.015685
538.861659	0.015600
539.076937	0.015913
539.292196	0.015831
539.507438	0.016146
539.722661	0.016093
539.937866	0.016615
540.153052	0.017175
540.368221	0.017314
540.583371	0.017294
540.798503	0.017146
541.013617	0.017229
541.228712	0.017078
541.443789	0.017108
541.658848	0.016951
541.873889	0.016723
542.088912	0.016660
542.303916	0.017221
542.518902	0.017318
542.733870	0.017786
542.948820	0.018062
543.163752	0.018037
543.378665	0.017889
543.593560	0.018221
543.808437	0.018593
544.023295	0.018815
544.238136	0.018454
544.452958	0.018591
544.667762	0.018469
544.882548	0.018019
545.097315	0.018464
545.312064	0.018693
545.526795	0.018475
545.741508	0.017921
545.956203	0.017760
546.170879	0.017366
546.385537	0.017521
546.600177	0.017696
546.814799	0.017568
547.029402	0.017405
547.243988	0.017542
547.458555	0.017827
547.673103	0.018368
547.887634	0.018192
548.102146	0.018716
548.316640	0.018576
548.531116	0.018702
548.745574	0.019329
548.960013	0.019291
549.174435	0.019106
549.388838	0.019332
549.603222	0.019479
549.817589	0.019563
550.031937	0.019475
550.246267	0.019840
550.460579	0.019489
550.674873	0.019200
550.889148	0.019864
551.103405	0.019986
551.317644	0.020049
551.531865	0.019824
551.746068	0.020194
551.960252	0.020252
552.174418	0.019893
552.388566	0.020004
552.602696	0.020052
552.816807	0.019535
553.030900	0.019277
553.244975	0.019224
553.459032	0.019358
553.673070	0.019060
553.887091	0.019484
554.101093	0.019639
554.315077	0.019753
554.529042	0.019774
554.742990	0.019982
554.956919	0.020208
555.170830	0.020065
555.384722	0.020168
555.598597	0.020547
555.812453	0.020012
556.026291	0.020080
556.240111	0.020166
556.453913	0.020201
556.667696	0.020056
556.881461	0.020251
557.095208	0.020317
557.308937	0.020201
557.522647	0.020071
557.736339	0.020426
557.950013	0.020283
558.163669	0.020269
558.377307	0.020575
558.590926	0.020758
558.804527	0.021137
559.018110	0.020956
559.231675	0.020795
559.445221	0.020920
559.658749	0.020969
559.872259	0.021239
560.085751	0.021397
560.299225	0.021306
560.512680	0.021413
560.726117	0.021043
560.939536	0.021247
561.152937	0.021480
561.366319	0.021759
561.579683	0.021803
561.793029	0.021605
562.006357	0.021848
562.219667	0.021881
562.432958	0.021570
562.646231	0.021563
562.859486	0.021718
563.072723	0.021600
563.285941	0.021266
563.499141	0.021366
563.712323	0.021785
563.925487	0.021483
564.138632	0.021060
564.351760	0.021369
564.564869	0.021357
564.777960	0.021319
564.991032	0.021380
565.204087	0.021448
565.417123	0.021420
565.630141	0.020988
565.843140	0.021182
566.056122	0.021513
566.269085	0.021752
566.482030	0.021829
566.694957	0.021740
566.907866	0.022041
567.120756	0.022047
567.333628	0.022104
567.546482	0.022332
567.759318	0.022151
567.972135	0.022141
568.184935	0.021963
568.397716	0.022144
568.610478	0.022438
568.823223	0.022262
569.035949	0.022422
569.248657	0.022437
569.461347	0.022409
569.674019	0.022538
569.886672	0.022769
570.099308	0.023088
570.311925	0.022891
570.524523	0.022574
570.737104	0.022562
570.949666	0.022514
571.162210	0.022420
571.374736	0.022502
571.587244	0.022383
571.799733	0.022233
572.012205	0.021994
572.224658	0.022105
572.437092	0.022242
572.649509	0.022310
572.861907	0.022454
573.074287	0.022644
573.286649	0.022673
573.498993	0.022738
573.711318	0.022820
573.923625	0.022632
574.135914	0.022805
574.348185	0.023060
574.560438	0.023152
574.772672	0.023232
574.984888	0.023254
575.197086	0.023318
575.409266	0.023471
575.621427	0.023665
575.833570	0.023759
576.045695	0.023559
576.257802	0.023418
576.469890	0.023519
576.681961	0.023376
576.894013	0.023393
577.106046	0.023056
577.318062	0.023087
577.530059	0.023097
577.742039	0.023113
577.954000	0.023094
578.165942	0.023211
578.377867	0.023206
578.589773	0.023396
578.801661	0.023637
579.013531	0.023976
579.225382	0.024118
579.437216	0.024075
579.649031	0.024421
579.860828	0.024451
580.072606	0.024462
580.284367	0.024277
580.496109	0.024094
580.707833	0.023860
580.919539	0.023991
581.131227	0.023761
581.342896	0.023723
581.554547	0.023547
581.766180	0.023471
581.977795	0.023601
582.189391	0.023565
582.400969	0.023611
582.612529	0.023667
582.824071	0.023819
583.035595	0.023913
583.247100	0.023987
583.458587	0.024166
583.670056	0.024438
583.881506	0.024381
584.092939	0.024615
584.304353	0.024714
584.515749	0.024712
584.727127	0.024581
584.938486	0.024541
585.149828	0.024757
585.361151	0.024977
585.572456	0.024879
585.783742	0.025052
585.995011	0.025153
586.206261	0.025100
586.417493	0.025148
586.628706	0.025153
586.839902	0.025213
587.051079	0.024934
587.262238	0.024523
587.473379	0.024847
587.684502	0.024848
587.895606	0.024885
588.106692	0.024702
588.317760	0.024723
588.528810	0.024728
588.739841	0.024964
588.950855	0.025103
589.161850	0.025623
589.372827	0.025350
589.583785	0.025293
589.794726	0.025293
590.005648	0.025774
590.216552	0.025921
590.427437	0.025880
590.638305	0.025891
590.849154	0.026140
591.059985	0.025483
591.270798	0.025543
591.481592	0.025415
591.692369	0.025596
591.903127	0.025524
592.113867	0.025537
592.324588	0.025725
592.535292	0.025557
592.745977	0.025219
592.956644	0.025694
593.167293	0.025623
593.377923	0.025844
593.588536	0.025510
593.799130	0.025419
594.009706	0.025157
594.220263	0.024930
594.430803	0.025119
594.641324	0.025062
594.851827	0.025071
595.062312	0.025137
595.272778	0.024940
595.483227	0.025109
595.693657	0.025174
595.904069	0.025527
596.114462	0.025956
596.324838	0.025969
596.535195	0.026278
596.745534	0.026299
596.955855	0.026617
597.166157	0.026988
597.376441	0.026854
597.586707	0.026805
597.796955	0.026719
598.007185	0.026796
598.217396	0.026954
598.427589	0.026925
598.637764	0.026930
598.847921	0.026830
599.058060	0.026536
599.268180	0.026689
599.478282	0.026657
599.688366	0.026707
599.898431	0.026416
600.108479	0.026410
600.318508	0.026380
600.528519	0.026363
600.738511	0.026431
600.948486	0.026504
601.158442	0.026555
601.368380	0.026776
601.578300	0.026651
601.788202	0.026494
601.998085	0.026162
602.207950	0.026222
602.417797	0.026046
602.627626	0.025885
602.837436	0.025913
603.047228	0.025764
603.257002	0.025704
603.466758	0.026010
603.676496	0.026298
603.886215	0.026483
604.095916	0.026311
604.305599	0.026445
604.515264	0.026501
604.724910	0.026643
604.934538	0.026737
605.144148	0.026749
605.353740	0.026518
605.563314	0.026399
605.772869	0.026641
605.982406	0.026752
606.191925	0.027140
606.401425	0.027071
606.610908	0.027067
606.820372	0.027306
607.029818	0.027294
607.239246	0.027424
607.448655	0.027461
607.658047	0.027235
607.867420	0.027290
608.076775	0.026896
608.286111	0.026976
608.495430	0.026980
608.704730	0.026982
608.914012	0.026852
609.123275	0.026720
609.332521	0.026845
609.541748	0.026821
609.750957	0.026921
609.960148	0.026822
610.169321	0.026939
610.378475	0.026861
610.587611	0.026793
610.796729	0.027050
611.005829	0.026972
611.214910	0.027003
611.423974	0.027008
611.633019	0.027047
611.842045	0.027351
612.051054	0.027411
612.260044	0.027485
612.469017	0.027467
612.677970	0.027336
612.886906	0.027419
613.095824	0.027321
613.304723	0.027432
613.513604	0.027229
613.722467	0.027158
613.931311	0.027034
614.140138	0.026923
614.348946	0.026873
614.557736	0.026813
614.766507	0.027057
614.975261	0.027073
615.183996	0.027040
615.392713	0.027142
615.601412	0.027041
615.810092	0.027317
616.018754	0.027653
616.227399	0.027837
616.436024	0.028099
616.644632	0.028067
616.853222	0.028055
617.061793	0.028128
617.270346	0.028341
617.478880	0.028448
617.687397	0.028203
617.895895	0.028168
618.104375	0.028170
618.312837	0.028050
618.521281	0.028136
618.729706	0.028158
618.938113	0.028180
619.146502	0.028151
619.354873	0.028201
619.563226	0.028350
619.771560	0.028104
619.979876	0.028030
620.188174	0.028153
620.396453	0.028115
620.604715	0.028307
620.812958	0.028460
621.021183	0.028459
621.229390	0.028558
621.437578	0.028524
621.645748	0.028765
621.853900	0.028852
622.062034	0.028938
622.270150	0.028791
622.478247	0.028748
622.686326	0.028747
622.894387	0.028885
623.102430	0.028647
623.310454	0.028673
623.518461	0.028521
623.726449	0.028584
623.934418	0.028296
624.142370	0.028429
624.350303	0.028384
624.558218	0.028443
624.766115	0.028193
624.973994	0.028438
625.181855	0.028617
625.389697	0.028611
625.597521	0.028640
625.805327	0.028797
626.013114	0.028743
626.220883	0.028701
626.428634	0.028633
626.636367	0.028624
626.844082	0.028575
627.051778	0.028343
627.259457	0.028328
627.467117	0.028145
627.674758	0.028187
627.882382	0.028385
628.089987	0.028568
628.297574	0.028394
628.505143	0.028660
628.712694	0.028619
628.920226	0.028773
629.127740	0.028923
629.335236	0.029214
629.542714	0.029118
629.750174	0.029053
629.957615	0.029053
630.165038	0.029317
630.372443	0.029137
630.579829	0.029152
630.787198	0.029170
630.994548	0.029235
631.201880	0.029147
631.409194	0.029190
631.616489	0.029062
631.823766	0.028995
632.031025	0.028730
632.238266	0.028647
632.445489	0.028783
632.652693	0.028803
632.859879	0.028783
633.067047	0.028568
633.274197	0.028738
633.481329	0.028862
633.688442	0.028815
633.895537	0.029093
634.102614	0.029289
634.309672	0.029361
634.516713	0.029503
634.723735	0.029540
634.930739	0.029651
635.137724	0.029693
635.344692	0.029720
635.551641	0.029869
635.758572	0.029778
635.965485	0.029786
636.172379	0.029699
636.379256	0.029694
636.586114	0.029831
636.792954	0.029914
636.999775	0.029847
637.206579	0.029956
637.413364	0.029823
637.620131	0.029832
637.826880	0.029989
638.033610	0.030024
638.240323	0.030077
638.447017	0.030049
638.653692	0.030140
638.860350	0.030247
639.066990	0.030176
639.273611	0.030322
639.480214	0.030277
639.686798	0.030241
639.893365	0.030368
640.099913	0.030194
640.306443	0.030265
640.512955	0.030311
640.719449	0.030267
640.925924	0.030172
641.132381	0.029970
641.338820	0.030178
641.545241	0.029939
641.751644	0.029922
641.958028	0.029910
642.164394	0.029664
642.370742	0.029626
642.577071	0.029659
642.783383	0.029735
642.989676	0.029930
643.195951	0.029781
643.402207	0.030093
643.608446	0.029946
643.814666	0.030020
644.020868	0.030143
644.227052	0.030106
644.433218	0.030058
644.639365	0.030111
644.845494	0.030138
645.051605	0.030237
645.257698	0.030283
645.463772	0.030401
645.669828	0.030547
645.875866	0.030554
646.081886	0.030734
646.287888	0.031029
646.493871	0.031090
646.699836	0.031106
646.905783	0.030996
647.111712	0.030846
647.317622	0.030929
647.523514	0.030967
647.729388	0.031158
647.935244	0.031052
648.141082	0.031000
648.346901	0.031102
648.552702	0.031180
648.758485	0.031315
648.964250	0.031546
649.169996	0.031519
649.375724	0.031518
649.581434	0.031529
649.787126	0.031689
649.992800	0.031547
650.198455	0.031492
650.404092	0.031573
650.609711	0.031565
650.815311	0.031474
651.020894	0.031439
651.226458	0.031411
651.432004	0.031321
651.637532	0.031217
651.843041	0.031444
652.048532	0.031355
652.254006	0.031342
652.459460	0.031417
652.664897	0.031394
652.870315	0.031542
653.075716	0.031511
653.281097	0.031559
653.486461	0.031561
653.691807	0.031537
653.897134	0.031685
654.102443	0.031436
654.307734	0.031439
654.513006	0.031415
654.718261	0.031242
654.923497	0.031267
655.128715	0.031256
655.333915	0.031385
655.539096	0.031200
655.744259	0.031206
655.949404	0.031330
656.154531	0.031472
656.359640	0.031572
656.564730	0.031807
656.769802	0.031885
656.974856	0.031977
657.179892	0.031870
657.384909	0.031895
657.589908	0.031850
657.794889	0.032103
657.999852	0.031948
658.204797	0.031884
658.409723	0.031881
658.614631	0.031884
658.819521	0.031931
659.024393	0.031964
659.229246	0.032212
659.434081	0.032331
659.638898	0.032307
659.843697	0.032511
660.048478	0.032681
660.253240	0.032647
660.457984	0.032668
660.662710	0.032582
660.867417	0.032706
661.072107	0.032544
661.276778	0.032476
661.481431	0.032522
661.686066	0.032438
661.890682	0.032393
662.095281	0.032577
662.299861	0.032478
662.504422	0.032581
662.708966	0.032637
662.913491	0.032565
663.117999	0.032791
663.322488	0.032750
663.526958	0.032813
663.731411	0.032926
663.935845	0.032814
664.140261	0.033121
664.344659	0.033274
664.549038	0.033374
664.753400	0.033595
664.957743	0.033570
665.162068	0.033817
665.366375	0.033990
665.570663	0.033784
665.774933	0.033851
665.979185	0.033708
666.183419	0.033699
666.387635	0.033559
666.591832	0.033369
666.796011	0.033350
667.000172	0.033300
667.204315	0.033225
667.408439	0.033383
667.612545	0.033257
667.816634	0.033100
668.020703	0.033030
668.224755	0.033197
668.428788	0.033437
668.632803	0.033357
668.836800	0.033059
669.040779	0.033114
669.244739	0.033173
669.448681	0.033156
669.652605	0.033362
669.856511	0.033327
670.060399	0.033249
670.264268	0.033403
670.468119	0.033392
670.671952	0.033642
670.875767	0.033584
671.079563	0.033584
671.283341	0.033856
671.487101	0.033967
671.690843	0.034065
671.894567	0.034176
672.098272	0.033970
672.301959	0.034133
672.505628	0.034202
672.709278	0.034249
672.912911	0.034514
673.116525	0.034420
673.320121	0.034366
673.523699	0.034472
673.727258	0.034421
673.930799	0.034558
674.134322	0.034570
674.337827	0.034306
674.541314	0.034512
674.744782	0.034422
674.948232	0.034493
675.151664	0.034592
675.355078	0.034368
675.558474	0.034601
675.761851	0.034493
675.965210	0.034562
676.168551	0.034805
676.371873	0.034730
676.575178	0.034828
676.778464	0.034884
676.981732	0.034810
677.184981	0.034951
677.388213	0.034783
677.591426	0.034968
677.794621	0.034994
677.997798	0.035017
678.200956	0.034927
678.404097	0.034913
678.607219	0.034872
678.810323	0.035079
679.013408	0.035100
679.216476	0.035141
679.419525	0.035010
679.622556	0.034938
679.825569	0.034894
680.028563	0.034931
680.231540	0.034858
680.434498	0.034792
680.637438	0.034694
680.840359	0.034801
681.043263	0.034810
681.246148	0.034780
681.449015	0.034903
681.651864	0.034905
681.854694	0.034996
682.057506	0.035019
682.260301	0.035210
682.463076	0.035269
682.665834	0.035283
682.868573	0.035443
683.071295	0.035536
683.273998	0.035516
683.476682	0.035732
683.679349	0.035715
683.881997	0.035761
684.084627	0.035664
684.287239	0.035756
684.489833	0.035726
684.692408	0.035627
684.894965	0.035758
685.097504	0.036035
685.300025	0.036067
685.502527	0.036224
685.705012	0.036292
685.907478	0.036485
686.109925	0.036404
686.312355	0.036451
686.514766	0.036371
686.717159	0.036375
686.919534	0.036112
687.121891	0.035891
687.324230	0.035725
687.526550	0.035815
687.728852	0.035572
687.931136	0.035646
688.133401	0.035708
688.335649	0.035885
688.537878	0.035995
688.740089	0.036156
688.942281	0.036245
689.144456	0.036404
689.346612	0.036239
689.548750	0.036498
689.750870	0.036566
689.952971	0.036533
690.155055	0.036614
690.357120	0.036606
690.559167	0.036655
690.761195	0.036897
690.963206	0.037007
691.165198	0.037114
691.367172	0.037095
691.569128	0.037061
691.771065	0.037169
691.972984	0.037020
692.174885	0.036925
692.376768	0.036810
692.578633	0.036727
692.780479	0.036608
692.982308	0.036572
693.184118	0.036677
693.385909	0.036611
693.587683	0.036591
693.789438	0.036809
693.991175	0.036972
694.192894	0.036976
694.394595	0.036862
694.596277	0.037002
694.797941	0.036978
694.999587	0.036870
695.201215	0.037062
695.402824	0.037002
695.604416	0.036873
695.805989	0.036883
696.007543	0.036963
696.209080	0.037020
696.410598	0.036924
696.612099	0.037075
696.813580	0.037168
697.015044	0.037039
697.216490	0.037106
697.417917	0.037239
697.619326	0.037364
697.820717	0.037333
698.022089	0.037440
698.223444	0.037510
698.424780	0.037440
698.626098	0.037456
698.827397	0.037466
699.028679	0.037564
699.229942	0.037510
699.431187	0.037355
699.632414	0.037482
699.833622	0.037502
700.034813	0.037514
700.235985	0.037585
700.437139	0.037544
700.638274	0.037618
700.839392	0.037678
701.040491	0.037736
701.241572	0.037813
701.442635	0.037896
701.643679	0.037957
701.844706	0.037887
702.045714	0.037740
702.246704	0.037742
702.447675	0.037886
702.648629	0.037836
702.849564	0.037761
703.050481	0.037837
703.251380	0.037683
703.452260	0.037634
703.653122	0.037740
703.853966	0.037855
704.054792	0.037847
704.255600	0.037752
704.456389	0.037794
704.657160	0.037789
704.857913	0.037608
705.058648	0.037620
705.259365	0.037594
705.460063	0.037351
705.660743	0.037413
705.861405	0.037416
706.062048	0.037383
706.262674	0.037237
706.463281	0.037295
706.663870	0.037363
706.864441	0.037353
707.064993	0.037235
707.265527	0.037571
707.466043	0.037600
707.666541	0.037678
707.867021	0.037710
708.067482	0.037850
708.267925	0.037758
708.468350	0.037833
708.668757	0.037953
708.869145	0.038184
709.069516	0.038079
709.269868	0.038096
709.470201	0.037973
709.670517	0.038034
709.870814	0.037996
710.071093	0.038072
710.271354	0.038025
710.471597	0.037909
710.671821	0.037826
710.872028	0.037821
711.072216	0.037726
711.272385	0.037751
711.472537	0.037683
711.672670	0.037597
711.872785	0.037629
712.072882	0.037741
712.272961	0.037858
712.473021	0.037975
712.673063	0.037992
712.873087	0.038061
713.073093	0.038241
713.273081	0.038216
713.473050	0.038390
713.673001	0.038409
713.872934	0.038373
714.072849	0.038276
714.272745	0.038225
714.472623	0.038295
714.672483	0.038053
714.872325	0.037908
715.072148	0.037987
715.271954	0.037960
715.471741	0.037953
715.671509	0.037749
715.871260	0.037780
716.070992	0.037734
716.270707	0.037533
716.470403	0.037817
716.670080	0.037835
716.869740	0.037736
717.069381	0.037586
717.269004	0.037424
717.468609	0.037592
717.668195	0.037564
717.867764	0.037516
718.067314	0.037517
718.266846	0.037456
718.466360	0.037460
718.665855	0.037624
718.865332	0.037579
719.064791	0.037591
719.264232	0.037471
719.463655	0.037436
719.663059	0.037361
719.862445	0.037469
720.061813	0.037280
720.261163	0.037280
720.460494	0.036940
720.659807	0.037006
720.859102	0.037141
721.058379	0.037182
721.257638	0.037129
721.456878	0.037216
721.656100	0.037148
721.855304	0.037291
722.054490	0.037132
722.253657	0.037266
722.452806	0.037285
722.651937	0.037198
722.851050	0.037244
723.050145	0.037315
723.249221	0.037206
723.448279	0.037243
723.647319	0.037255
723.846340	0.037185
724.045344	0.037206
724.244329	0.037145
724.443296	0.037272
724.642245	0.037178
724.841175	0.037101
725.040088	0.037184
725.238982	0.037149
725.437857	0.037255
725.636715	0.037480
725.835554	0.037446
726.034376	0.037405
726.233179	0.037399
726.431963	0.037403
726.630730	0.037623
726.829478	0.037684
727.028208	0.037747
727.226920	0.037597
727.425614	0.037656
727.624289	0.037719
727.822946	0.037829
728.021585	0.037957
728.220206	0.037931
728.418808	0.037668
728.617392	0.037501
728.815958	0.037422
729.014506	0.037425
729.213036	0.037422
729.411547	0.037544
729.610040	0.037679
729.808515	0.037424
730.006972	0.037547
730.205410	0.037589
730.403831	0.037591
730.602233	0.037559
730.800616	0.037524
730.998982	0.037307
731.197329	0.037103
731.395658	0.036774
731.593969	0.036787
731.792262	0.036573
731.990536	0.036642
732.188793	0.036776
732.387031	0.036878
732.585250	0.036889
732.783452	0.036951
732.981635	0.036765
733.179800	0.036796
733.377947	0.036795
733.576076	0.036818
733.774186	0.036896
733.972278	0.036919
734.170352	0.036714
734.368408	0.036622
734.566446	0.036523
734.764465	0.036668
734.962466	0.036880
735.160449	0.036677
735.358413	0.036727
735.556360	0.036555
735.754288	0.036381
735.952198	0.036256
736.150090	0.036238
736.347963	0.036359
736.545818	0.036295
736.743655	0.035985
736.941474	0.036043
737.139275	0.035826
737.337057	0.035932
737.534821	0.035792
737.732567	0.036002
737.930295	0.035975
738.128005	0.036024
738.325696	0.036050
738.523369	0.036095
738.721024	0.036035
738.918660	0.036057
739.116279	0.035979
739.313879	0.036061
739.511461	0.035783
739.709024	0.035720
739.906570	0.035494
740.104097	0.035471
740.301606	0.035331
740.499097	0.035380
740.696569	0.035389
740.894024	0.035352
741.091460	0.035251
741.288878	0.035322
741.486277	0.035399
741.683659	0.035472
741.881022	0.035413
742.078367	0.035475
742.275694	0.035489
742.473002	0.035465
742.670293	0.035425
742.867565	0.035505
743.064819	0.035493
743.262054	0.035514
743.459272	0.035427
743.656471	0.035199
743.853652	0.035083
744.050815	0.035129
744.247959	0.035154
744.445085	0.034972
744.642194	0.035112
744.839283	0.035238
745.036355	0.035034
745.233408	0.034950
745.430444	0.035006
745.627461	0.035127
745.824459	0.034954
746.021440	0.035042
746.218402	0.035308
746.415346	0.035037
746.612272	0.034974
746.809180	0.034961
747.006069	0.035198
747.202940	0.035341
747.399793	0.035364
747.596628	0.035398
747.793444	0.035234
747.990243	0.034897
748.187023	0.034910
748.383784	0.034791
748.580528	0.035062
748.777253	0.034788
748.973960	0.034605
749.170649	0.034576
749.367320	0.034548
749.563973	0.034647
749.760607	0.034801
749.957223	0.034957
750.153821	0.034957
750.350400	0.034800
750.546962	0.034897
750.743505	0.035040
750.940030	0.035033
751.136536	0.035098
751.333025	0.034940
751.529495	0.034798
751.725947	0.034647
751.922381	0.034604
752.118796	0.034476
752.315194	0.034328
752.511573	0.034319
752.707934	0.034347
752.904276	0.034239
753.100601	0.034429
753.296907	0.034550
753.493195	0.034637
753.689465	0.034615
753.885716	0.034686
754.081949	0.034789
754.278164	0.034704
754.474361	0.034725
754.670540	0.034658
754.866700	0.034624
755.062843	0.034560
755.258967	0.034559
755.455072	0.034681
755.651160	0.034680
755.847229	0.034810
756.043280	0.034858
756.239313	0.034863
756.435328	0.035109
756.631324	0.034958
756.827302	0.034960
757.023262	0.034851
757.219204	0.034798
757.415127	0.034860
757.611033	0.034631
757.806920	0.034527
758.002788	0.034484
758.198639	0.034270
758.394471	0.034299
758.590286	0.034261
758.786081	0.034405
758.981859	0.034366
759.177619	0.034257
759.373360	0.034354
759.569083	0.034390
759.764788	0.034337
759.960474	0.034292
760.156143	0.034306
760.351793	0.034242
760.547425	0.034034
760.743038	0.033992
760.938634	0.033904
761.134211	0.033907
761.329770	0.033913
761.525311	0.033959
761.720833	0.033876
761.916338	0.033817
762.111824	0.033897
762.307292	0.034002
762.502741	0.033904
762.698173	0.034082
762.893586	0.034040
763.088981	0.033988
763.284358	0.033668
763.479716	0.033782
763.675057	0.033923
763.870379	0.034056
764.065683	0.033942
764.260968	0.034121
764.456236	0.034020
764.651485	0.034069
764.846716	0.034052
765.041929	0.034204
765.237123	0.034246
765.432299	0.034002
765.627457	0.033865
765.822597	0.033957
766.017719	0.033999
766.212822	0.033954
766.407907	0.033889
766.602974	0.033985
766.798023	0.034028
766.993054	0.033830
767.188066	0.033680
767.383060	0.033608
767.578036	0.033356
767.772993	0.033243
767.967933	0.033324
768.162854	0.033359
768.357757	0.033343
768.552642	0.033430
768.747508	0.033455
768.942356	0.033622
769.137186	0.033619
769.331998	0.033918
769.526792	0.033958
769.721567	0.033963
769.916324	0.033935
770.111063	0.033958
770.305784	0.033947
770.500486	0.033987
770.695171	0.034079
770.889837	0.034168
771.084484	0.034213
771.279114	0.034355
771.473725	0.034406
771.668318	0.034408
771.862893	0.034453
772.057450	0.034435
772.251988	0.034353
772.446509	0.034359
772.641011	0.034299
772.835494	0.034087
773.029960	0.033937
773.224407	0.033806
773.418836	0.033761
773.613247	0.033833
773.807640	0.033830
774.002014	0.034061
774.196370	0.033925
774.390708	0.034143
774.585028	0.034237
774.779330	0.034203
774.973613	0.034104
775.167878	0.034192
775.362125	0.034040
775.556354	0.033979
775.750564	0.033923
775.944756	0.033969
776.138930	0.033789
776.333086	0.033761
776.527223	0.033925
776.721343	0.034037
776.915444	0.034034
777.109526	0.034003
777.303591	0.033939
777.497637	0.033927
777.691666	0.034059
777.885676	0.034148
778.079667	0.034327
778.273641	0.034001
778.467596	0.034007
778.661533	0.034037
778.855452	0.034239
779.049352	0.034241
779.243235	0.034244
779.437099	0.034188
779.630945	0.034014
779.824773	0.033881
780.018582	0.034189
780.212373	0.034303
780.406146	0.034250
780.599901	0.034155
780.793638	0.034367
780.987356	0.034264
781.181056	0.034320
781.374738	0.034584
781.568402	0.034681
781.762047	0.034588
781.955674	0.034487
782.149283	0.034356
782.342874	0.034116
782.536447	0.034033
782.730001	0.034222
782.923537	0.034203
783.117055	0.034116
783.310555	0.033913
783.504036	0.034023
783.697499	0.033949
783.890944	0.034039
784.084371	0.034314
784.277780	0.034338
784.471170	0.034372
784.664542	0.034326
784.857896	0.034123
785.051231	0.034106
785.244549	0.033988
785.437848	0.034108
785.631129	0.033954
785.824392	0.033859
786.017636	0.033707
786.210863	0.033625
786.404071	0.033692
786.597260	0.033845
786.790432	0.033929
786.983585	0.033871
787.176721	0.033753
787.369838	0.033969
787.562936	0.034009
787.756017	0.034149
787.949079	0.034151
788.142123	0.034037
788.335149	0.034156
788.528156	0.034244
788.721146	0.034410
788.914117	0.034602
789.107070	0.034654
789.300005	0.034688
789.492921	0.034825
789.685819	0.034920
789.878699	0.034942
790.071561	0.035013
790.264405	0.035041
790.457230	0.035082
790.650037	0.034986
790.842826	0.035031
791.035597	0.034994
791.228349	0.034960
791.421084	0.035018
791.613800	0.035046
791.806497	0.034868
791.999177	0.034734
792.191838	0.034547
792.384481	0.034514
792.577106	0.034458
792.769713	0.034505
792.962301	0.034645
793.154871	0.034508
793.347423	0.034484
793.539957	0.034414
793.732473	0.034601
793.924970	0.034683
794.117449	0.034844
794.309910	0.034857
794.502353	0.034683
794.694777	0.034667
794.887183	0.034752
795.079571	0.034837
795.271941	0.034937
795.464293	0.034833
795.656626	0.034982
795.848941	0.034910
796.041238	0.034863
796.233516	0.035177
796.425777	0.035051
796.618019	0.034933
796.810243	0.035023
797.002449	0.035106
797.194636	0.035257
797.386805	0.035167
797.578956	0.035259
797.771089	0.035289
797.963204	0.035277
798.155300	0.035426
798.347378	0.035483
798.539438	0.035713
798.731480	0.035770
798.923503	0.035745
799.115509	0.035676
799.307496	0.035605
799.499465	0.035651
799.691415	0.035681
799.883348	0.035814
800.075262	0.035987
800.267158	0.035798
800.459035	0.035828
800.650895	0.035808
800.842736	0.035912
801.034559	0.036056
801.226364	0.036156
801.418150	0.036138
801.609919	0.036014
801.801669	0.035925
801.993401	0.035884
802.185114	0.035797
802.376810	0.035874
802.568487	0.036049
802.760146	0.035996
802.951787	0.035956
803.143409	0.035774
803.335014	0.035942
803.526600	0.036022
803.718168	0.036081
803.909717	0.036132
804.101249	0.036137
804.292762	0.036084
804.484257	0.036150
804.675734	0.036223
804.867192	0.036478
805.058632	0.036177
805.250054	0.036016
805.441458	0.036097
805.632844	0.036158
805.824211	0.036096
806.015561	0.036134
806.206891	0.036021
806.398204	0.036073
806.589499	0.035953
806.780775	0.036041
806.972033	0.036171
807.163273	0.036149
807.354495	0.036153
807.545698	0.036115
807.736883	0.036069
807.928050	0.036234
808.119199	0.036195
808.310329	0.036310
808.501441	0.036405
808.692535	0.036412
808.883611	0.036609
809.074669	0.036514
809.265708	0.036837
809.456729	0.036911
809.647732	0.036832
809.838717	0.036967
810.029683	0.037075
810.220632	0.037128
810.411562	0.037050
810.602474	0.036976
810.793367	0.037027
810.984242	0.036940
811.175100	0.036907
811.365938	0.036994
811.556759	0.036878
811.747562	0.036787
811.938346	0.036867
812.129112	0.037073
812.319860	0.037082
812.510589	0.037154
812.701300	0.037076
812.891994	0.037298
813.082668	0.037340
813.273325	0.037598
813.463964	0.037566
813.654584	0.037468
813.845186	0.037512
814.035769	0.037608
814.226335	0.037905
814.416882	0.038065
814.607411	0.038007
814.797922	0.038021
814.988415	0.037881
815.178889	0.037946
815.369345	0.038160
815.559783	0.038302
815.750203	0.038276
815.940605	0.038076
816.130988	0.038100
816.321353	0.038114
816.511700	0.038351
816.702028	0.038454
816.892339	0.038864
817.082631	0.038843
817.272905	0.038976
817.463161	0.039168
817.653398	0.039243
817.843617	0.039323
818.033819	0.039461
818.224001	0.039369
818.414166	0.039375
818.604312	0.039123
818.794440	0.039138
818.984550	0.039015
819.174642	0.038829
819.364716	0.038925
819.554771	0.038976
819.744808	0.038978
819.934827	0.039130
820.124827	0.039222
820.314810	0.039466
820.504774	0.039497
820.694720	0.039482
820.884647	0.039709
821.074557	0.039763
821.264448	0.039841
821.454321	0.039740
821.644176	0.039721
821.834012	0.039837
822.023831	0.039767
822.213631	0.039783
822.403413	0.039792
822.593176	0.039693
822.782922	0.039882
822.972649	0.039812
823.162358	0.039999
823.352049	0.040023
823.541721	0.039867
823.731376	0.039725
823.921012	0.039747
824.110629	0.039869
824.300229	0.039902
824.489811	0.039806
824.679374	0.039866
824.868919	0.039902
825.058445	0.040102
825.247954	0.040346
825.437444	0.040551
825.626916	0.040469
825.816370	0.040567
826.005806	0.040686
826.195223	0.040644
826.384622	0.040594
826.574003	0.040524
826.763366	0.040177
826.952711	0.040024
827.142037	0.040078
827.331345	0.040178
827.520635	0.040061
827.709906	0.040037
827.899160	0.039912
828.088395	0.039938
828.277612	0.039821
828.466810	0.040003
828.655991	0.040085
828.845153	0.039913
829.034297	0.040181
829.223423	0.040354
829.412531	0.040380
829.601620	0.040635
829.790691	0.040744
829.979744	0.040752
830.168779	0.040634
830.357795	0.040689
830.546793	0.040919
830.735773	0.040818
830.924735	0.040758
831.113679	0.040746
831.302604	0.040935
831.491511	0.041157
831.680400	0.041253
831.869271	0.041523
832.058123	0.041613
832.246957	0.041655
832.435773	0.041712
832.624571	0.041785
832.813351	0.041999
833.002112	0.041930
833.190855	0.041946
833.379580	0.042171
833.568287	0.042113
833.756975	0.042033
833.945645	0.042117
834.134297	0.042298
834.322931	0.042578
834.511547	0.042439
834.700144	0.042473
834.888723	0.042609
835.077284	0.042933
835.265826	0.043196
835.454351	0.043533
835.642857	0.043616
835.831345	0.043436
836.019815	0.043458
836.208266	0.043453
836.396699	0.043553
836.585114	0.043204
836.773511	0.043102
836.961890	0.042922
837.150250	0.042567
837.338592	0.042635
837.526916	0.042787
837.715222	0.042491
837.903510	0.042760
838.091779	0.042856
838.280030	0.043154
838.468263	0.042987
838.656477	0.043080
838.844674	0.043501
839.032852	0.043600
839.221012	0.043420
839.409153	0.043450
839.597277	0.043258
839.785382	0.042854
839.973469	0.042739
840.161538	0.042805
840.349589	0.042873
840.537621	0.042784
840.725635	0.042675
840.913631	0.043020
841.101609	0.043384
841.289568	0.043721
841.477509	0.044001
841.665432	0.044204
841.853337	0.044651
842.041224	0.044651
842.229092	0.044901
842.416942	0.045097
842.604774	0.045109
842.792588	0.045154
842.980383	0.045199
843.168160	0.045244
843.355919	0.045385
843.543660	0.045125
843.731382	0.045237
843.919087	0.045193
844.106773	0.045257
844.294441	0.045339
844.482090	0.045338
844.669722	0.045561
844.857335	0.045848
845.044930	0.045978
845.232507	0.046095
845.420065	0.046216
845.607605	0.046427
845.795127	0.046671
845.982631	0.046941
846.170117	0.046952
846.357584	0.046926
846.545033	0.047112
846.732464	0.047301
846.919877	0.047391
847.107272	0.047439
847.294648	0.047341
847.482006	0.047118
847.669346	0.046948
847.856667	0.047209
848.043971	0.047682
848.231256	0.047675
848.418523	0.047541
848.605771	0.047765
848.793002	0.048202
848.980214	0.048585
849.167408	0.048756
849.354584	0.048857
849.541742	0.049076
849.728881	0.048791
849.916002	0.048847
850.103105	0.049079
850.290190	0.049271
850.477256	0.049080
850.664304	0.048844
850.851334	0.048795
851.038346	0.049008
851.225340	0.048700
851.412315	0.048828
851.599272	0.048992
851.786211	0.049080
851.973132	0.048809
852.160034	0.048987
852.346918	0.049287
852.533784	0.049437
852.720632	0.049248
852.907462	0.049570
853.094273	0.049513
853.281066	0.049507
853.467841	0.049319
853.654598	0.049538
853.841336	0.049717
854.028056	0.049844
854.214758	0.049970
854.401442	0.050192
854.588107	0.050046
854.774755	0.050321
854.961384	0.050185
855.147995	0.050562
855.334587	0.050772
855.521162	0.050750
855.707718	0.050555
855.894256	0.050514
856.080775	0.050752
856.267277	0.050969
856.453760	0.050888
856.640225	0.051368
856.826672	0.051319
857.013101	0.051320
857.199511	0.051264
857.385903	0.051319
857.572277	0.051599
857.758633	0.051569
857.944970	0.051489
858.131290	0.051654
858.317591	0.051500
858.503873	0.051567
858.690138	0.051617
858.876384	0.051914
859.062612	0.052037
859.248822	0.052105
859.435014	0.052418
859.621188	0.052778
859.807343	0.052777
859.993480	0.052995
860.179599	0.052974
860.365699	0.053151
860.551781	0.053137
860.737846	0.053231
860.923891	0.053176
861.109919	0.052965
861.295929	0.052928
861.481920	0.053128
861.667893	0.053093
861.853848	0.053146
862.039784	0.053125
862.225702	0.053103
862.411603	0.053090
862.597484	0.053351
862.783348	0.053565
862.969193	0.053871
863.155021	0.053894
863.340830	0.054056
863.526620	0.054349
863.712393	0.054455
863.898147	0.054855
864.083883	0.055360
864.269601	0.055181
864.455301	0.055497
864.640982	0.055665
864.826645	0.055768
865.012290	0.055993
865.197917	0.055906
865.383526	0.055828
865.569116	0.055590
865.754688	0.055556
865.940242	0.056006
866.125777	0.055893
866.311295	0.055815
866.496794	0.056074
866.682275	0.055821
866.867737	0.055984
867.053182	0.056202
867.238608	0.056403
867.424016	0.056187
867.609406	0.056229
867.794778	0.056228
867.980131	0.056136
868.165466	0.056237
868.350783	0.056349
868.536082	0.056366
868.721362	0.056596
868.906625	0.056621
869.091869	0.056819
869.277094	0.056937
869.462302	0.057006
869.647491	0.057173
869.832662	0.057085
870.017815	0.057246
870.202950	0.057399
870.388066	0.057093
870.573165	0.057049
870.758245	0.056985
870.943306	0.056709
871.128350	0.056757
871.313375	0.056906
871.498382	0.056804
871.683371	0.056993
871.868342	0.056878
872.053294	0.057398
872.238229	0.057489
872.423144	0.057939
872.608042	0.058254
872.792922	0.058141
872.977783	0.058070
873.162626	0.058014
873.347451	0.057801
873.532258	0.057870
873.717046	0.057770
873.901816	0.058169
874.086568	0.058102
874.271302	0.057951
874.456017	0.058052
874.640715	0.058106
874.825394	0.058370
875.010055	0.058662
875.194697	0.058885
875.379322	0.058882
875.563928	0.058630
875.748516	0.058332
875.933085	0.058407
876.117637	0.058369
876.302170	0.058531
876.486685	0.058822
876.671182	0.058616
876.855661	0.058728
877.040121	0.058748
877.224563	0.058795
877.408987	0.058894
877.593393	0.058760
877.777780	0.058857
877.962150	0.058640
878.146501	0.058392
878.330833	0.058779
878.515148	0.058719
878.699444	0.058745
878.883722	0.058884
879.067982	0.059197
879.252224	0.059766
879.436447	0.059798
879.620653	0.060129
879.804840	0.060000
879.989008	0.059881
880.173159	0.060066
880.357291	0.059963
880.541405	0.059674
880.725501	0.059510
880.909579	0.059309
881.093638	0.059290
881.277680	0.059155
881.461703	0.059406
881.645707	0.059223
881.829694	0.058931
882.013662	0.059183
882.197612	0.059358
882.381544	0.058932
882.565458	0.058783
882.749353	0.059073
882.933230	0.059073
883.117089	0.058905
883.300930	0.059000
883.484753	0.059185
883.668557	0.059498
883.852343	0.059577
884.036111	0.059836
884.219861	0.059925
884.403592	0.060090
884.587305	0.060252
884.771000	0.060341
884.954677	0.060331
885.138335	0.059960
885.321976	0.059710
885.505598	0.059636
885.689201	0.059808
885.872787	0.059974
886.056354	0.059796
886.239904	0.059690
886.423434	0.059797
886.606947	0.059998
886.790442	0.060619
886.973918	0.060746
887.157376	0.060695
887.340816	0.060806
887.524237	0.060940
887.707641	0.061017
887.891026	0.061268
888.074393	0.061201
888.257741	0.061155
888.441072	0.060869
888.624384	0.060532
888.807678	0.060775
888.990954	0.060614
889.174211	0.060359
889.357451	0.060149
889.540672	0.060080
889.723875	0.060343
889.907059	0.060292
890.090226	0.060330
890.273374	0.060419
890.456504	0.060353
890.639616	0.060446
890.822709	0.060667
891.005785	0.060753
891.188842	0.060512
891.371881	0.060058
891.554901	0.059725
891.737904	0.059851
891.920888	0.059857
892.103854	0.059919
892.286802	0.060012
892.469731	0.059476
892.652643	0.059282
892.835536	0.059291
893.018410	0.059497
893.201267	0.059679
893.384106	0.059587
893.566926	0.059611
893.749728	0.059546
893.932511	0.059378
894.115277	0.059585
894.298024	0.059885
894.480753	0.059908
894.663464	0.060134
894.846157	0.060373
895.028831	0.060180
895.211487	0.060226
895.394125	0.060327
895.576745	0.060573
895.759346	0.060679
895.941930	0.060572
896.124495	0.060761
896.307041	0.060792
896.489570	0.060537
896.672080	0.060751
896.854573	0.060740
897.037046	0.060695
897.219502	0.060349
897.401940	0.060456
897.584359	0.060506
897.766760	0.060278
897.949143	0.060063
898.131507	0.060401
898.313854	0.060253
898.496182	0.059978
898.678492	0.059915
898.860783	0.060141
899.043057	0.059853
899.225312	0.059741
899.407549	0.059936
899.589768	0.059766
899.771968	0.059669
899.954151	0.059883
900.136315	0.059794
900.318461	0.059955
900.500588	0.060171
900.682698	0.060239
900.864789	0.060208
901.046862	0.059849
901.228917	0.059951
901.410953	0.059676
901.592971	0.059486
901.774972	0.059559
901.956953	0.059480
902.138917	0.059119
902.320862	0.059073
902.502790	0.058859
902.684699	0.058978
902.866589	0.059029
903.048462	0.058962
903.230316	0.058879
903.412152	0.058949
903.593970	0.058682
903.775770	0.058458
903.957551	0.058424
904.139314	0.058596
904.321059	0.058807
904.502786	0.058557
904.684494	0.058575
904.866185	0.058319
905.047857	0.058335
905.229510	0.058188
905.411146	0.058623
905.592763	0.058635
905.774363	0.058426
905.955943	0.058317
906.137506	0.058237
906.319051	0.058272
906.500577	0.058655
906.682085	0.058467
906.863575	0.058186
907.045046	0.057544
907.226500	0.057736
907.407935	0.057898
907.589352	0.057667
907.770750	0.057740
907.952131	0.057584
908.133493	0.057182
908.314837	0.057025
908.496163	0.057405
908.677470	0.057642
908.858760	0.057355
909.040031	0.057126
909.221284	0.056992
909.402518	0.056627
909.583735	0.056703
909.764933	0.056576
909.946113	0.056624
910.127275	0.056272
910.308418	0.056152
910.489544	0.056022
910.670651	0.056067
910.851740	0.055877
911.032810	0.056191
911.213863	0.055898
911.394897	0.055972
911.575913	0.056020
911.756911	0.055610
911.937890	0.055552
912.118851	0.055414
912.299794	0.055234
912.480719	0.055331
912.661626	0.054575
912.842514	0.054394
913.023384	0.054052
913.204236	0.053853
913.385070	0.054155
913.565886	0.053753
913.746683	0.053441
913.927462	0.053177
914.108223	0.052665
914.288965	0.053091
914.469690	0.052648
914.650396	0.052698
914.831084	0.052486
915.011754	0.052089
915.192405	0.052277
915.373038	0.052170
915.553653	0.052192
915.734250	0.052459
915.914829	0.052359
916.095389	0.052723
916.275931	0.052236
916.456455	0.052234
916.636961	0.052265
916.817448	0.051856
916.997917	0.051540
917.178368	0.051050
917.358801	0.050721
917.539216	0.050290
917.719612	0.049656
917.899990	0.049376
918.080350	0.049134
918.260692	0.048839
918.441015	0.048642
918.621320	0.048651
918.801607	0.048774
918.981876	0.048765
919.162127	0.048821
919.342359	0.049178
919.522573	0.049503
919.702769	0.049476
919.882947	0.049865
920.063106	0.049945
920.243247	0.050067
920.423370	0.050056
920.603475	0.049526
920.783562	0.049437
920.963630	0.048715
921.143680	0.048682
921.323712	0.047897
921.503725	0.047470
921.683721	0.047284
921.863698	0.046991
922.043657	0.046535
922.223598	0.046347
922.403520	0.046249
922.583424	0.046363
922.763311	0.045645
922.943178	0.046259
923.123028	0.045708
923.302859	0.045314
923.482673	0.044903
923.662467	0.044962
923.842244	0.045147
924.022003	0.044427
924.201743	0.044395
924.381465	0.044560
924.561169	0.044008
924.740854	0.043963
924.920522	0.043543
925.100171	0.043335
925.279802	0.042905
925.459414	0.042695
925.639009	0.042969
925.818585	0.042737
925.998143	0.042624
926.177683	0.042211
926.357205	0.042274
926.536708	0.042429
926.716193	0.042430
926.895660	0.042354
927.075109	0.042098
927.254539	0.041866
927.433951	0.041612
927.613345	0.041699
927.792721	0.041433
927.972079	0.041342
928.151418	0.041058
928.330739	0.040969
928.510042	0.041031
928.689327	0.040847
928.868593	0.040481
929.047841	0.040369
929.227071	0.039555
929.406283	0.039297
929.585476	0.039010
929.764652	0.038538
929.943809	0.038019
930.122948	0.037668
930.302068	0.037257
930.481171	0.036959
930.660255	0.036653
930.839321	0.036690
931.018369	0.036823
931.197398	0.036620
931.376409	0.036862
931.555402	0.036846
931.734377	0.036289
931.913334	0.035723
932.092272	0.035997
932.271192	0.035600
932.450094	0.035334
932.628978	0.035219
932.807844	0.035334
932.986691	0.034955
933.165520	0.034361
933.344331	0.034426
933.523123	0.034801
933.701898	0.033862
933.880654	0.033969
934.059392	0.033732
934.238111	0.033272
934.416813	0.032437
934.595496	0.032610
934.774161	0.032569
934.952808	0.032385
935.131437	0.031113
935.310047	0.030903
935.488639	0.030415
935.667213	0.030075
935.845769	0.029852
936.024306	0.029326
936.202825	0.028582
936.381326	0.028275
936.559809	0.027316
936.738274	0.028314
936.916720	0.028012
937.095148	0.027701
937.273558	0.027205
937.451950	0.026878
937.630323	0.026497
937.808678	0.026242
937.987015	0.026078
938.165334	0.026183
938.343635	0.024835
938.521917	0.024548
938.700181	0.024412
938.878427	0.024751
939.056655	0.024273
939.234864	0.024671
939.413055	0.024804
939.591228	0.024522
939.769383	0.024995
939.947519	0.024998
940.125638	0.025030
940.303738	0.025083
940.481820	0.024366
940.659883	0.024177
940.837929	0.023470
941.015956	0.022539
941.193965	0.022095
941.371955	0.021413
941.549928	0.021930
941.727882	0.021670
941.905818	0.020918
942.083736	0.020506
942.261636	0.020281
942.439517	0.020941
942.617380	0.020732
942.795225	0.020821
942.973052	0.019597
943.150860	0.019248
943.328651	0.018383
943.506423	0.018008
943.684176	0.018017
943.861912	0.017827
944.039629	0.017028
944.217328	0.017659
944.395009	0.017105
944.572672	0.017514
944.750317	0.017043
944.927943	0.017746
945.105551	0.017507
945.283141	0.017315
945.460712	0.017391
945.638265	0.016655
945.815801	0.015603
945.993317	0.015593
946.170816	0.015003
946.348297	0.014695
946.525759	0.014205
946.703203	0.014708
946.880629	0.013863
947.058036	0.013801
947.235425	0.013943
947.412797	0.014643
947.590149	0.015043
947.767484	0.014718
947.944800	0.014216
948.122099	0.014243
948.299379	0.012620
948.476640	0.012958
948.653884	0.012018
948.831109	0.011626
949.008316	0.009627
949.185505	0.008335
949.362676	0.008987
949.539828	0.008926
949.716962	0.007290
949.894078	0.008322
950.071176	0.008835
950.248256	0.008971
950.425317	0.008847
950.602360	0.009989
950.779385	0.010240
950.956391	0.009682
951.133380	0.010693
951.310350	0.011561
951.487302	0.009651
951.664235	0.008664
951.841151	0.008688
952.018048	0.007342
952.194927	0.007839
952.371788	0.007326
952.548631	0.006900
952.725455	0.005782
952.902261	0.006095
953.079049	0.006597
953.255819	0.006953
953.432570	0.007074
953.609303	0.008913
953.786018	0.007907
953.962715	0.008271
954.139394	0.008528
954.316054	0.008887
954.492696	0.008417
954.669320	0.010414
954.845926	0.008641
955.022513	0.006434
955.199083	0.005320
955.375634	0.007181
955.552166	0.007061
955.728681	0.007702
955.905177	0.006627
956.081655	0.007009
956.258115	0.005776
956.434557	0.006351
956.610980	0.007358
956.787385	0.007724
956.963772	0.005141
957.140141	0.004914
957.316492	0.003220
957.492824	0.003367
957.669138	0.003433
957.845434	0.002879
958.021712	0.003092
958.197971	0.004264
958.374212	0.004505
958.550435	0.004094
958.726640	0.004524
958.902826	0.006682
959.078995	0.005949
959.255145	0.004966
959.431277	0.004767
959.607390	0.006040
959.783486	0.004355
959.959563	0.004879
960.135622	0.005918
960.311662	0.006479
960.487685	0.005407
960.663689	0.005648
960.839675	0.006670
961.015643	0.006607
961.191593	0.006067
961.367524	0.008488
961.543437	0.009187
961.719332	0.008152
961.895209	0.006856
962.071067	0.006585
962.246907	0.008488
962.422730	0.007371
962.598533	0.008270
962.774319	0.006984
962.950086	0.007337
963.125835	0.004956
963.301566	0.005233
963.477279	0.006520
963.652973	0.008559
963.828650	0.007899
964.004308	0.006713
964.179947	0.006278
964.355569	0.005926
964.531172	0.004203
964.706757	0.006222
964.882324	0.008262
965.057873	0.006600
965.233403	0.005063
965.408916	0.004572
965.584410	0.006329
965.759885	0.007911
965.935343	0.009949
966.110782	0.010463
966.286203	0.008724
966.461606	0.007330
966.636991	0.008574
966.812357	0.008692
966.987705	0.008599
967.163035	0.008732
967.338347	0.007924
967.513641	0.006365
967.688916	0.007253
967.864173	0.007168
968.039412	0.006576
968.214632	0.006957
968.389835	0.007106
968.565019	0.008187
968.740185	0.007471
968.915333	0.007006
969.090462	0.007438
969.265573	0.007682
969.440667	0.008254
969.615741	0.008689
969.790798	0.007671
969.965836	0.008283
970.140856	0.007525
970.315858	0.007468
970.490842	0.006245
970.665808	0.006692
970.840755	0.005220
971.015684	0.004734
971.190595	0.004613
971.365487	0.006107
971.540362	0.005136
971.715218	0.004324
971.890056	0.005643
972.064875	0.007921
972.239677	0.010161
972.414460	0.010633
972.589225	0.011089
972.763972	0.011007
972.938700	0.009038
973.113411	0.009096
973.288103	0.009149
973.462777	0.009709
973.637432	0.010232
973.812070	0.008376
973.986689	0.007990
974.161290	0.007312
974.335873	0.006866
974.510437	0.007312
974.684984	0.007763
974.859512	0.009604
975.034022	0.009061
975.208513	0.007204
975.382987	0.006854
975.557442	0.008950
975.731879	0.009285
975.906298	0.009606
976.080698	0.009042
976.255080	0.007923
976.429445	0.005968
976.603790	0.005141
976.778118	0.005614
976.952427	0.004943
977.126719	0.002655
977.300992	0.002980
977.475246	0.003709
977.649483	0.004366
977.823701	0.005373
977.997901	0.005206
978.172083	0.006280
978.346247	0.007165
978.520392	0.008433
978.694519	0.007852
978.868628	0.009616
979.042719	0.009194
979.216791	0.008324
979.390845	0.008344
979.564882	0.009928
979.738899	0.009359
979.912899	0.009901
980.086880	0.009813
980.260843	0.009992
980.434788	0.009276
980.608715	0.010402
980.782623	0.012242
980.956514	0.011015
981.130386	0.010002
981.304240	0.009470
981.478075	0.009215
981.651892	0.009672
981.825692	0.010741
981.999472	0.010545
982.173235	0.010486
982.346980	0.011509
982.520706	0.012651
982.694414	0.014118
982.868104	0.014343
983.041775	0.013041
983.215428	0.012721
983.389064	0.012041
983.562680	0.012283
983.736279	0.011172
983.909860	0.010003
984.083422	0.010592
984.256966	0.008807
984.430491	0.009712
984.603999	0.007856
984.777488	0.007842
984.950959	0.008688
985.124412	0.006922
985.297847	0.008801
985.471263	0.007959
985.644661	0.006825
985.818041	0.006273
985.991403	0.006222
986.164747	0.007936
986.338072	0.007627
986.511379	0.006609
986.684668	0.007494
986.857938	0.007602
987.031191	0.008138
987.204425	0.008603
987.377641	0.009775
987.550839	0.008676
987.724018	0.008958
987.897179	0.008052
988.070322	0.008255
988.243447	0.008569
988.416554	0.007403
988.589642	0.006808
988.762712	0.006579
988.935764	0.007128
989.108798	0.005758
989.281813	0.006239
989.454811	0.006648
989.627790	0.008861
989.800751	0.008085
989.973693	0.007295
990.146617	0.007984
990.319524	0.008326
990.492412	0.006674
990.665281	0.008896
990.838133	0.009651
991.010966	0.008816
991.183781	0.008185
991.356578	0.008214
991.529356	0.011104
991.702117	0.011319
991.874859	0.010396
992.047583	0.012168
992.220288	0.012202
992.392976	0.011470
992.565645	0.011626
992.738296	0.011278
992.910929	0.010382
993.083543	0.007245
993.256139	0.006876
993.428718	0.007727
993.601277	0.006595
993.773819	0.006456
993.946342	0.006270
994.118848	0.007265
994.291335	0.007674
994.463803	0.010048
994.636254	0.011786
994.808686	0.012041
994.981100	0.012289
995.153496	0.013512
995.325874	0.013834
995.498233	0.014349
995.670574	0.015282
995.842897	0.014132
996.015202	0.013404
996.187488	0.012351
996.359757	0.011861
996.532007	0.012669
996.704239	0.012763
996.876452	0.013608
997.048648	0.014309
997.220825	0.012285
997.392984	0.012270
997.565124	0.011791
997.737247	0.012115
997.909351	0.012714
998.081437	0.010682
998.253505	0.010335
998.425554	0.009691
998.597586	0.008786
998.769599	0.009959
998.941594	0.010132
999.113571	0.009860
999.285529	0.009628
999.457469	0.010219
999.629391	0.012462
999.801295	0.011658
999.973181	0.011347
1000.145048	0.010996
1000.316897	0.012211
1000.488728	0.011885
1000.660541	0.012995
1000.832335	0.014033
1001.004111	0.012697
1001.175869	0.011696
1001.347609	0.012318
1001.519331	0.013172
1001.691034	0.014304
1001.862719	0.012874
1002.034386	0.013831
1002.206035	0.013440
1002.377665	0.012070
1002.549277	0.012534
1002.720871	0.012587
1002.892447	0.011746
1003.064004	0.011173
1003.235544	0.010461
1003.407065	0.010886
1003.578568	0.009231
1003.750052	0.010225
1003.921519	0.010692
1004.092967	0.010502
1004.264397	0.010796
1004.435809	0.010355
1004.607202	0.009074
1004.778577	0.009771
1004.949934	0.009171
1005.121273	0.009975
1005.292594	0.008529
1005.463896	0.008644
1005.635180	0.008708
1005.806446	0.008354
1005.977694	0.009473
1006.148923	0.009821
1006.320135	0.010117
1006.491328	0.010662
1006.662503	0.011066
1006.833659	0.011679
1007.004798	0.012352
1007.175918	0.010794
1007.347020	0.011054
1007.518103	0.012552
1007.689169	0.012199
1007.860216	0.010656
1008.031245	0.010795
1008.202256	0.011017
1008.373248	0.011004
1008.544223	0.009784
1008.715179	0.012557
1008.886117	0.012215
1009.057036	0.011047
1009.227938	0.011683
1009.398821	0.010858
1009.569686	0.011818
1009.740533	0.011791
1009.911361	0.012515
1010.082172	0.012776
1010.252964	0.010939
1010.423738	0.011200
1010.594493	0.011519
1010.765231	0.011268
1010.935950	0.013394
1011.106651	0.012597
1011.277334	0.012121
1011.447998	0.012228
1011.618645	0.012782
1011.789273	0.014552
1011.959882	0.014549
1012.130474	0.014183
1012.301048	0.014553
1012.471603	0.013873
1012.642140	0.013565
1012.812658	0.014910
1012.983159	0.015173
1013.153641	0.014422
1013.324105	0.013185
1013.494551	0.012610
1013.664979	0.012528
1013.835388	0.010678
1014.005779	0.009542
1014.176152	0.008658
1014.346507	0.006380
1014.516843	0.004294
1014.687162	0.004441
1014.857462	0.005158
1015.027744	0.005264
1015.198007	0.005099
1015.368252	0.005814
1015.538480	0.007331
1015.708689	0.009707
1015.878879	0.010491
1016.049052	0.013450
1016.219206	0.012566
1016.389342	0.012206
1016.559460	0.012182
1016.729559	0.011368
1016.899641	0.012117
1017.069704	0.011621
1017.239749	0.010278
1017.409775	0.010318
1017.579784	0.008787
1017.749774	0.009401
1017.919746	0.009633
1018.089700	0.010384
1018.259635	0.012250
1018.429553	0.011146
1018.599452	0.010583
1018.769333	0.009783
1018.939195	0.009845
1019.109040	0.009748
1019.278866	0.009535
1019.448674	0.009775
1019.618464	0.010149
1019.788235	0.008933
1019.957989	0.010767
1020.127724	0.010640
1020.297441	0.010481
1020.467139	0.010806
1020.636820	0.010376
1020.806482	0.011182
1020.976126	0.011203
1021.145752	0.009281
1021.315359	0.009852
1021.484948	0.008926
1021.654519	0.010242
1021.824072	0.010798
1021.993607	0.010216
1022.163123	0.010241
1022.332621	0.010421
1022.502101	0.008116
1022.671563	0.010598
1022.841007	0.009433
1023.010432	0.010941
1023.179839	0.010177
1023.349228	0.011612
1023.518598	0.011323
1023.687951	0.012421
1023.857285	0.011818
1024.026601	0.012673
1024.195899	0.010617
1024.365178	0.011428
1024.534439	0.010357
1024.703682	0.009962
1024.872907	0.008053
1025.042114	0.008737
1025.211302	0.007478
1025.380472	0.007517
1025.549624	0.009080
1025.718758	0.010419
1025.887873	0.009545
1026.056970	0.009516
1026.226049	0.008916
1026.395110	0.009861
1026.564153	0.010426
1026.733177	0.010769
1026.902183	0.010508
1027.071171	0.009461
1027.240141	0.008943
1027.409092	0.010610
1027.578026	0.010582
1027.746940	0.010871
1027.915837	0.010319
1028.084716	0.009482
1028.253576	0.007726
1028.422418	0.008409
1028.591242	0.008141
1028.760048	0.009277
1028.928835	0.010010
1029.097604	0.009497
1029.266355	0.010001
1029.435088	0.010736
1029.603803	0.010295
1029.772499	0.011061
1029.941177	0.011992
1030.109837	0.012915
1030.278478	0.011938
1030.447102	0.009699
1030.615707	0.010516
1030.784294	0.011071
1030.952863	0.011710
1031.121413	0.012061
1031.289945	0.012171
1031.458460	0.010709
1031.626955	0.011101
1031.795433	0.010808
1031.963892	0.011621
1032.132334	0.010205
1032.300756	0.010963
1032.469161	0.009314
1032.637548	0.009239
1032.805916	0.010366
1032.974266	0.010294
1033.142598	0.009129
1033.310911	0.008960
1033.479207	0.009114
1033.647484	0.010190
1033.815743	0.008920
1033.983983	0.008827
1034.152206	0.008351
1034.320410	0.007607
1034.488596	0.007811
1034.656764	0.009026
1034.824914	0.009513
1034.993045	0.009453
1035.161158	0.008509
1035.329253	0.007942
1035.497330	0.008749
1035.665388	0.008982
1035.833428	0.009330
1036.001450	0.010131
1036.169454	0.007950
1036.337440	0.008564
1036.505407	0.007722
1036.673356	0.007958
1036.841287	0.009105
1037.009200	0.008939
1037.177094	0.009950
1037.344970	0.011297
1037.512828	0.011195
1037.680668	0.012401
1037.848489	0.010594
1038.016293	0.011823
1038.184078	0.012767
1038.351845	0.012173
1038.519593	0.012931
1038.687324	0.012617
1038.855036	0.012078
1039.022730	0.011642
1039.190406	0.012817
1039.358063	0.013465
1039.525702	0.012919
1039.693323	0.014004
1039.860926	0.014730
1040.028511	0.014044
1040.196077	0.015179
1040.363625	0.013473
1040.531155	0.013739
1040.698667	0.013574
1040.866161	0.012481
1041.033636	0.012085
1041.201093	0.010014
1041.368532	0.009655
1041.535952	0.009600
1041.703355	0.007687
1041.870739	0.008537
1042.038105	0.009410
1042.205452	0.008878
1042.372782	0.010410
1042.540093	0.009258
1042.707386	0.010404
1042.874661	0.009658
1043.041918	0.009701
1043.209156	0.010598
1043.376376	0.011848
1043.543578	0.011265
1043.710762	0.011824
1043.877927	0.010443
1044.045074	0.011388
1044.212203	0.009985
1044.379314	0.009980
1044.546407	0.010540
1044.713481	0.009422
1044.880537	0.007320
1045.047575	0.008715
1045.214595	0.006955
1045.381596	0.007244
1045.548579	0.007224
1045.715544	0.007986
1045.882491	0.009537
1046.049420	0.008052
1046.216330	0.008611
1046.383222	0.008664
1046.550096	0.008596
1046.716951	0.009207
1046.883789	0.012279
1047.050608	0.011694
1047.217409	0.011924
1047.384192	0.010518
1047.550956	0.010997
1047.717703	0.012252
1047.884431	0.014750
1048.051140	0.013160
1048.217832	0.013804
1048.384505	0.012057
1048.551161	0.013165
1048.717798	0.013623
1048.884416	0.013328
1049.051017	0.013883
1049.217599	0.013666
1049.384163	0.011511
1049.550709	0.010007
1049.717237	0.010813
1049.883746	0.010261
1050.050237	0.009617
1050.216710	0.010059
1050.383165	0.011023
1050.549601	0.010089
1050.716019	0.009596
1050.882420	0.010679
1051.048801	0.011721
1051.215165	0.011749
1051.381510	0.011807
1051.547837	0.013181
1051.714146	0.011322
1051.880437	0.011104
1052.046709	0.011307
1052.212964	0.011854
1052.379200	0.010864
1052.545417	0.011723
1052.711617	0.010003
1052.877798	0.009679
1053.043961	0.008608
1053.210106	0.009534
1053.376233	0.009846
1053.542341	0.010603
1053.708432	0.010358
1053.874504	0.010635
1054.040557	0.009976
1054.206593	0.010215
1054.372610	0.009846
1054.538609	0.010555
1054.704590	0.011420
1054.870553	0.009696
1055.036497	0.009222
1055.202424	0.009793
1055.368331	0.009056
1055.534221	0.009073
1055.700093	0.009067
1055.865946	0.009844
1056.031781	0.009044
1056.197598	0.008182
1056.363397	0.009588
1056.529177	0.009645
1056.694939	0.008014
1056.860683	0.008779
1057.026409	0.009530
1057.192116	0.010193
1057.357806	0.010438
1057.523477	0.011605
1057.689130	0.011590
1057.854764	0.011732
1058.020381	0.013591
1058.185979	0.013817
1058.351559	0.013871
1058.517120	0.013377
1058.682664	0.014389
1058.848189	0.012655
1059.013696	0.013432
1059.179185	0.013941
1059.344656	0.013632
1059.510108	0.011374
1059.675542	0.010412
1059.840958	0.011046
1060.006356	0.009702
1060.171735	0.007925
1060.337096	0.010107
1060.502439	0.009152
1060.667764	0.009081
1060.833071	0.010274
1060.998359	0.010470
1061.163629	0.012799
1061.328881	0.010667
1061.494115	0.010336
1061.659330	0.010689
1061.824527	0.009794
1061.989706	0.008784
1062.154867	0.010124
1062.320010	0.008635
1062.485134	0.008445
1062.650240	0.006835
1062.815328	0.008525
1062.980398	0.010927
1063.145449	0.012704
1063.310482	0.012142
1063.475497	0.012498
1063.640494	0.011678
1063.805473	0.013416
1063.970433	0.013007
1064.135375	0.014327
1064.300299	0.014200
1064.465204	0.012340
1064.630092	0.009833
1064.794961	0.007832
1064.959812	0.009382
1065.124645	0.008653
1065.289459	0.007517
1065.454256	0.008851
1065.619034	0.006645
1065.783793	0.005562
1065.948535	0.006800
1066.113258	0.006552
1066.277964	0.009723
1066.442651	0.008751
1066.607319	0.007330
1066.771970	0.008164
1066.936602	0.008087
1067.101216	0.008820
1067.265812	0.008263
1067.430389	0.007990
1067.594949	0.008030
1067.759490	0.006301
1067.924013	0.006008
1068.088518	0.006898
1068.253004	0.007510
1068.417472	0.006580
1068.581922	0.008236
1068.746354	0.010922
1068.910768	0.010989
1069.075163	0.012561
1069.239540	0.014260
1069.403899	0.014546
1069.568240	0.013901
1069.732562	0.012743
1069.896866	0.014448
1070.061152	0.013307
1070.225420	0.012039
1070.389670	0.010332
1070.553901	0.009693
1070.718114	0.009411
1070.882309	0.009499
1071.046486	0.010148
1071.210644	0.009477
1071.374784	0.009717
1071.538906	0.010251
1071.703010	0.010562
1071.867096	0.011541
1072.031163	0.013120
1072.195212	0.013778
1072.359243	0.013009
1072.523256	0.013412
1072.687250	0.013239
1072.851226	0.012230
1073.015184	0.010903
1073.179124	0.009110
1073.343045	0.009571
1073.506949	0.008067
1073.670834	0.006728
1073.834701	0.006992
1073.998549	0.007018
1074.162380	0.006628
1074.326192	0.005960
1074.489986	0.007175
1074.653761	0.009880
1074.817519	0.009357
1074.981258	0.009116
1075.144979	0.010662
1075.308682	0.011671
1075.472367	0.012472
1075.636033	0.011831
1075.799681	0.011007
1075.963311	0.008639
1076.126923	0.005795
1076.290516	0.006081
1076.454092	0.007544
1076.617649	0.006387
1076.781187	0.004870
1076.944708	0.004246
1077.108210	0.003156
1077.271695	0.004834
1077.435160	0.006579
1077.598608	0.008753
1077.762038	0.010811
1077.925449	0.010206
1078.088842	0.009711
1078.252217	0.008607
1078.415573	0.008528
1078.578912	0.011086
1078.742232	0.011071
1078.905534	0.010056
1079.068817	0.009027
1079.232083	0.006392
1079.395330	0.005789
1079.558559	0.008353
1079.721770	0.011219
1079.884962	0.009864
1080.048136	0.008695
1080.211293	0.007630
1080.374430	0.010202
1080.537550	0.008735
1080.700651	0.010021
1080.863735	0.010032
1081.026800	0.007230
1081.189846	0.004309
1081.352875	0.006908
1081.515885	0.007511
1081.678877	0.007958
1081.841851	0.005190
1082.004807	0.007175
1082.167744	0.008225
1082.330663	0.008122
1082.493564	0.007693
1082.656447	0.008800
1082.819312	0.006436
1082.982158	0.006234
1083.144986	0.004877
1083.307796	0.006224
1083.470587	0.006504
1083.633361	0.004598
1083.796116	0.004020
1083.958853	0.002662
1084.121571	0.002843
1084.284272	0.003505
1084.446954	0.004725
1084.609618	0.005787
1084.772264	0.005911
1084.934892	0.006448
1085.097501	0.007057
1085.260092	0.007953
1085.422665	0.010951
1085.585220	0.011030
1085.747756	0.010100
1085.910274	0.008805
1086.072774	0.008748
1086.235256	0.007969
1086.397720	0.005810
1086.560165	0.004132
1086.722592	0.005204
1086.885001	0.005211
1087.047392	0.004938
1087.209764	0.005368
1087.372119	0.006228
1087.534455	0.006443
1087.696772	0.008495
1087.859072	0.009094
1088.021353	0.009346
1088.183616	0.008562
1088.345861	0.007106
1088.508088	0.008845
1088.670296	0.009290
1088.832486	0.008983
1088.994658	0.009406
1089.156812	0.008608
1089.318948	0.009045
1089.481065	0.009970
1089.643164	0.008911
1089.805245	0.009821
1089.967308	0.008744
1090.129352	0.009743
1090.291378	0.009339
1090.453386	0.009527
1090.615376	0.007812
1090.777347	0.008059
1090.939301	0.007858
1091.101236	0.006689
1091.263153	0.006057
1091.425051	0.005654
1091.586932	0.002893
1091.748794	0.002602
1091.910638	0.000375
1092.072463	0.002861
1092.234271	0.002104
1092.396060	0.002419
1092.557831	0.005491
1092.719584	0.006202
1092.881319	0.004736
1093.043035	0.007378
1093.204733	0.006866
1093.366413	0.008402
1093.528075	0.005549
1093.689718	0.008063
1093.851343	0.007510
1094.012950	0.005942
1094.174539	0.006089
1094.336110	0.007644
1094.497662	0.007301
1094.659196	0.007760
1094.820712	0.005813
1094.982210	0.009463
1095.143689	0.008910
1095.305151	0.008713
1095.466594	0.008743
1095.628018	0.009006
1095.789425	0.008875
1095.950813	0.009077
1096.112183	0.010626
1096.273535	0.013585
1096.434869	0.010183
1096.596184	0.009767
1096.757482	0.011682
1096.918761	0.010893
1097.080021	0.010602
1097.241264	0.010064
1097.402488	0.009769
1097.563694	0.009408
1097.724882	0.009255
1097.886052	0.011321
1098.047203	0.012002
1098.208336	0.010902
1098.369451	0.010782
1098.530548	0.009608
1098.691627	0.009571
1098.852687	0.009049
1099.013729	0.009379
1099.174753	0.008101
1099.335758	0.005994
1099.496746	0.003707
1099.657715	0.004658
1099.818666	0.005162
1099.979599	0.006516
1100.140513	0.007008
1100.301409	0.005319
1100.462287	0.006872
1100.623147	0.008294
1100.783989	0.012228
1100.944812	0.010936
1101.105617	0.009715
1101.266404	0.011004
1101.427173	0.012550
1101.587923	0.012303
1101.748656	0.014455
1101.909370	0.010663
1102.070066	0.012446
1102.230743	0.009297
1102.391403	0.012622
1102.552044	0.009818
1102.712667	0.008420
1102.873271	0.003750
1103.033858	0.003388
1103.194426	0.003261
1103.354976	0.004814
1103.515508	0.003738
1103.676021	0.004687
1103.836517	0.000410
1103.996994	0.001988
1104.157453	0.004692
1104.317893	0.006956
1104.478316	0.009315
1104.638720	0.008199
1104.799106	0.006219
1104.959474	0.005044
1105.119823	0.006955
1105.280155	0.012561
1105.440468	0.012453
1105.600763	0.008459
1105.761039	0.007922
1105.921298	0.005401
1106.081538	0.007916
1106.241760	0.010172
1106.401964	0.008822
1106.562149	0.004673
1106.722316	0.001467
1106.882465	0.003552
1107.042596	0.005076
1107.202709	0.002470
1107.362803	0.001783
1107.522879	0.000137
1107.682937	-0.001177
1107.842977	0.000869
1108.002999	0.000440
1108.163002	0.001642
1108.322987	-0.000973
1108.482954	-0.000587
1108.642902	0.003837
1108.802833	0.005708
1108.962745	0.008355
1109.122639	0.010083
1109.282515	0.010186
1109.442372	0.011465
1109.602211	0.010030
1109.762032	0.011969
1109.921835	0.008466
1110.081620	0.006275
1110.241386	0.007084
1110.401134	0.003966
1110.560864	0.001900
1110.720576	0.001020
1110.880269	-0.001610
1111.039945	-0.001407
1111.199602	-0.002528
1111.359240	0.000122
1111.518861	0.003258
1111.678463	0.000473
1111.838047	0.001424
1111.997613	-0.000608
1112.157161	-0.001079
1112.316690	0.002301
1112.476202	0.002631
1112.635695	0.005685
1112.795169	0.003773
1112.954626	0.003776
1113.114064	0.008827
1113.273484	0.008327
1113.432886	0.009660
1113.592270	0.010441
1113.751635	0.009346
1113.910983	0.009202
1114.070312	0.010208
1114.229622	0.012723
1114.388915	0.010038
1114.548189	0.006478
1114.707445	0.003989
1114.866683	0.004544
1115.025903	0.004379
1115.185104	0.004682
1115.344287	0.005610
1115.503452	0.004009
1115.662599	0.001122
1115.821727	0.002859
1115.980838	0.002334
1116.139930	0.004591
1116.299004	0.005802
1116.458059	0.006022
1116.617097	0.007142
1116.776116	0.005948
1116.935117	0.002599
1117.094099	0.005237
1117.253064	0.003027
1117.412010	0.001427
1117.570938	0.005833
1117.729848	0.009447
1117.888740	0.005924
1118.047613	0.003864
1118.206468	0.005926
1118.365305	0.010926
1118.524124	0.010873
1118.682924	0.011179
1118.841707	0.014620
1119.000471	0.011786
1119.159216	0.008756
1119.317944	0.010505
1119.476653	0.011706
1119.635344	0.008285
1119.794017	0.007605
1119.952672	0.005519
1120.111308	0.007615
1120.269927	0.006152
1120.428527	0.006715
1120.587108	0.006174
1120.745672	0.009785
1120.904217	0.010348
1121.062744	0.014231
1121.221253	0.011316
1121.379744	0.011031
1121.538216	0.007600
1121.696671	0.008610
1121.855107	0.007238
1122.013524	0.005022
1122.171924	0.003417
1122.330305	0.005386
1122.488668	0.002755
1122.647013	0.003787
1122.805340	0.004044
1122.963648	0.004222
1123.121938	0.002855
1123.280210	0.002095
1123.438464	0.002721
1123.596700	0.001427
1123.754917	-0.001906
1123.913116	0.001274
1124.071297	-0.000689
1124.229459	0.000537
1124.387604	0.002187
1124.545730	0.001624
1124.703838	0.000376
1124.861928	0.001205
1125.019999	0.004757
1125.178052	0.006674
1125.336088	0.001426
1125.494104	0.002422
1125.652103	0.007658
1125.810083	0.004806
1125.968045	0.005504
1126.125989	0.007048
1126.283915	0.006764
1126.441823	0.005565
1126.599712	0.004987
1126.757583	0.009746
1126.915436	0.006752
1127.073270	0.001241
1127.231087	0.006937
1127.388885	0.006950
1127.546665	0.004932
1127.704426	0.007469
1127.862170	0.005093
1128.019895	0.003909
1128.177602	0.004148
1128.335291	0.010107
1128.492961	0.010854
1128.650614	0.011297
1128.808248	0.010503
1128.965864	0.011684
1129.123461	0.010451
1129.281041	0.012500
1129.438602	0.014052
1129.596145	0.013883
1129.753670	0.011491
1129.911176	0.010512
1130.068665	0.006545
1130.226135	0.010615
1130.383587	0.008742
1130.541020	0.008119
1130.698436	0.004571
1130.855833	0.003530
1131.013212	0.000044
1131.170573	0.001263
1131.327915	0.006009
1131.485239	0.008120
1131.642545	0.005269
1131.799833	0.008773
1131.957103	0.006888
1132.114354	0.009522
1132.271588	0.009448
1132.428803	0.009539
1132.585999	0.008576
1132.743178	0.005846
1132.900338	0.004521
1133.057480	0.006654
1133.214604	0.002726
1133.371710	0.005742
1133.528797	0.006573
1133.685866	0.005469
1133.842917	0.003633
1133.999950	0.000307
1134.156964	-0.004305
1134.313960	-0.004916
1134.470938	-0.003419
1134.627898	0.001131
1134.784840	0.001221
1134.941763	-0.001122
1135.098668	-0.001959
1135.255555	-0.000082
1135.412424	0.002183
1135.569274	0.004425
1135.726107	0.006508
1135.882921	0.006037
1136.039716	0.004309
1136.196494	0.006006
1136.353253	0.006605
1136.509995	0.006495
1136.666717	0.006343
1136.823422	0.004116
1136.980109	0.006598
1137.136777	0.006605
1137.293427	-0.000758
1137.450059	-0.003662
1137.606672	-0.002751
1137.763267	-0.005454
1137.919844	-0.001693
1138.076403	-0.000930
1138.232944	0.000400
1138.389466	-0.002664
1138.545971	-0.005020
1138.702457	-0.002131
1138.858924	-0.000152
1139.015374	-0.007774
1139.171805	-0.004372
1139.328218	-0.006808
1139.484613	-0.007007
1139.640990	-0.003309
1139.797348	-0.002902
1139.953688	0.001676
1140.110010	-0.001352
1140.266314	-0.000531
1140.422600	0.002204
1140.578867	0.000455
1140.735116	0.000116
1140.891347	0.001055
1141.047559	0.001945
1141.203754	0.005039
1141.359930	0.001779
1141.516088	0.002302
1141.672228	-0.002648
1141.828349	-0.000199
1141.984452	0.002888
1142.140537	0.003058
1142.296604	0.002554
1142.452653	-0.004788
1142.608683	-0.006716
1142.764695	-0.009903
1142.920689	-0.004278
1143.076665	-0.001040
1143.232622	-0.001159
1143.388562	-0.005263
1143.544483	-0.005106
1143.700385	-0.006949
1143.856270	-0.001533
1144.012136	0.002431
1144.167985	0.004205
1144.323814	0.000104
1144.479626	0.003848
1144.635420	0.001933
1144.791195	0.003118
1144.946952	-0.000936
1145.102691	-0.000360
1145.258411	0.001052
1145.414113	-0.000078
1145.569798	-0.002818
1145.725463	-0.002376
1145.881111	-0.008775
1146.036741	-0.010425
1146.192352	-0.011919
1146.347945	-0.004934
1146.503519	-0.000627
1146.659076	-0.004154
1146.814614	-0.013261
1146.970134	-0.008201
1147.125636	-0.006660
1147.281120	-0.002928
1147.436585	-0.003298
1147.592032	-0.004952
1147.747461	-0.007324
1147.902872	-0.007571
1148.058265	-0.005095
1148.213639	0.004826
1148.368995	0.002768
1148.524333	0.005739
1148.679653	0.004643
1148.834954	0.007205
1148.990237	0.009371
1149.145502	0.015340
1149.300749	0.009425
1149.455977	0.008852
1149.611188	0.007739
1149.766380	0.005854
1149.921553	0.005634
1150.076709	0.010285
1150.231846	0.007199
1150.386966	0.006087
1150.542066	0.000370
1150.697149	0.003751
1150.852214	0.001321
1151.007260	-0.000626
1151.162288	0.002998
1151.317298	0.000708
1151.472289	-0.002984
1151.627263	-0.003637
1151.782218	0.001855
1151.937155	-0.000269
1152.092073	-0.000976
1152.246974	0.000155
1152.401856	-0.000857
1152.556720	-0.002374
1152.711566	-0.004694
1152.866393	-0.002228
1153.021203	-0.003434
1153.175994	-0.004475
1153.330767	0.002382
1153.485521	0.006436
1153.640258	0.007559
1153.794976	0.004684
1153.949676	-0.000025
1154.104358	0.001928
1154.259021	0.003302
1154.413667	0.009889
1154.568294	0.003462
1154.722903	0.003699
1154.877493	-0.003332
1155.032066	-0.003954
1155.186620	-0.001390
1155.341156	0.003435
1155.495674	0.005104
1155.650173	0.005930
1155.804654	0.001576
1155.959118	0.003724
1156.113562	-0.002295
1156.267989	0.001681
1156.422397	0.003051
1156.576788	0.007434
1156.731160	0.007522
1156.885513	0.003115
1157.039849	0.001152
1157.194166	0.003490
1157.348465	0.008765
1157.502746	0.009573
1157.657009	0.008930
1157.811253	0.006582
1157.965479	0.000093
1158.119687	0.006200
1158.273877	0.006648
1158.428048	0.006407
1158.582201	0.005064
1158.736337	0.002364
1158.890453	0.003025
1159.044552	-0.001271
1159.198632	0.001085
1159.352694	0.008328
1159.506738	-0.001276
1159.660764	-0.004242
1159.814771	-0.006637
1159.968761	-0.009337
1160.122732	-0.009584
1160.276685	-0.001885
1160.430619	0.000427
1160.584535	-0.002307
1160.738434	-0.005049
1160.892313	-0.002093
1161.046175	0.008039
1161.200019	0.006137
1161.353844	0.013415
1161.507651	0.006751
1161.661440	-0.002906
1161.815210	-0.003586
1161.968962	-0.002317
1162.122697	-0.007105
1162.276412	-0.001481
1162.430110	-0.008316
1162.583789	-0.009719
1162.737451	-0.015076
1162.891094	-0.005618
1163.044718	-0.000819
1163.198325	-0.002925
1163.351913	-0.004835
1163.505483	-0.002768
1163.659035	-0.012489
1163.812569	-0.009807
1163.966084	-0.006943
1164.119581	-0.002889
1164.273060	-0.002148
1164.426521	-0.004107
1164.579964	-0.006579
1164.733388	0.000027
1164.886794	0.000578
1165.040182	0.005222
1165.193551	0.002924
1165.346903	-0.005850
1165.500236	-0.000221
1165.653551	-0.003793
1165.806848	-0.004753
1165.960126	0.005644
1166.113386	-0.003207
1166.266628	0.002686
1166.419852	0.001971
1166.573058	-0.000038
1166.726245	0.005067
1166.879414	-0.005665
1167.032565	-0.015582
1167.185698	-0.012689
1167.338812	-0.011190
1167.491909	-0.007065
1167.644987	-0.015180
1167.798046	-0.014790
1167.951088	-0.009003
1168.104111	-0.008013
1168.257117	-0.007464
1168.410103	0.010860
1168.563072	0.005794
1168.716023	0.005191
1168.868955	0.002856
1169.021869	0.008808
1169.174765	0.009336
1169.327642	-0.002857
1169.480501	0.003091
1169.633343	0.010799
1169.786165	-0.002502
1169.938970	0.001473
1170.091757	-0.001502
1170.244525	-0.000804
1170.397275	-0.006032
1170.550007	-0.000787
1170.702720	0.008289
1170.855415	0.010129
1171.008092	0.001867
1171.160751	0.002205
1171.313392	-0.004437
1171.466014	0.037262
1171.618619	-0.034399
1171.771205	-0.034399
1171.923772	-0.034399
