sample name	sample
index	473
start time	 03-11-2021  12:30:21 PM
880	0.007402
Peak Time (s)	90.035
Peak Height 	0.007402
calc peak height	90,93
Baseline Time (s)	11.536
Baseline Value 	-0.004261
subtract baseline	10,4
Abs	-0.021090
Peak Time (s)	92.035
Peak Height 	-0.02109
calc peak height	90,93
Baseline Time (s)	10.535
Baseline Value 	0.005243
subtract baseline	10,3
PK_550	-0.003090
Peak Time (s)	90.535
Peak Height 	-0.00309
calc peak height	90,93
Baseline Time (s)	11.536
Baseline Value 	4.1841E-4
subtract baseline	10,2
PK_880	-0.015215
Peak Time (s)	92.535
Peak Height 	-0.01522
calc peak height	90,93
Baseline Time (s)	9.037
Baseline Value 	0.002265
subtract baseline	10,1


Time (s)	A880-A510	A880-A775	A880-A975	A880	I510	I775	I975	I880	
0.043000	-0.001166	-0.000338	-0.003589	0.001980	7075.234943	45645.370908	3956.395195	24217.975123
0.535000	-0.007296	-0.000535	-0.003813	0.006893	6969.535689	45145.684249	3943.182749	23977.726114
1.035500	-0.001164	0.000114	-0.003746	0.004496	7050.937744	45442.775849	3949.501321	24094.593172
1.536000	-0.001631	-0.000489	-0.006601	0.001436	7076.006752	45684.008527	3950.026806	24244.727632
2.036500	-0.000610	0.000571	-0.006574	0.001819	7082.190467	45750.702811	3949.112290	24225.863437
2.536500	-0.002847	-0.000188	-0.008409	0.003935	7040.139477	45468.171753	3939.001473	24122.026164
3.037000	-0.000181	0.000479	0.000822	-0.000487	7108.829874	45969.650368	3974.333165	24339.631533
3.537500	-0.000591	-0.000595	-0.005738	-0.000288	7102.891373	45843.627819	3956.703683	24329.798235
4.034500	-0.001241	0.000269	-0.000640	0.000675	7087.177756	45833.840963	3967.454852	24282.216697
4.537500	0.001261	0.000464	-0.001084	0.000692	7111.405438	45851.356793	3966.251163	24281.382591
5.035500	0.000455	0.000076	-0.001240	0.000217	7108.178275	45860.053743	3967.086478	24304.865307
5.535500	-0.001366	0.000333	-0.003486	0.000440	7088.244781	45863.365430	3960.654002	24293.828089
6.036000	0.000561	-0.000084	-0.004462	-0.000097	7112.278485	45875.272242	3959.516499	24320.365431
6.536500	-0.000587	-0.000339	0.002483	-0.000274	7102.781884	45867.446240	3978.144259	24329.075699
7.037000	-0.002092	0.000520	-0.002867	-0.000029	7085.750000	45928.297202	3963.485374	24317.013396
7.536500	0.001001	0.000822	-0.002393	0.000258	7113.104743	45929.816768	3963.972163	24302.817323
8.038000	0.001259	0.000270	-0.003260	-0.000027	7118.418869	45903.360512	3962.455234	24316.887536
8.537000	0.000037	-0.000367	-0.005208	-0.000235	7108.508274	45860.908339	3957.941043	24327.190304
9.037500	0.000000	0.000348	0.001155	0.000093	7104.935994	45899.193697	3973.683948	24310.957174
9.535000	0.000494	0.001024	0.001103	0.000509	7105.696588	45924.916025	3972.456055	24290.416137
10.035500	-0.002268	-0.000216	0.000712	-0.000394	7087.587451	45891.545418	3973.799641	24335.040927
10.535000	0.000992	0.000426	0.000000	0.000471	7110.935613	45869.444869	3969.663000	24292.285196
11.036000	-0.002187	-0.000167	-0.000909	-0.000064	7085.165054	45863.736350	3968.684398	24318.715267
11.536000	-0.001056	0.000000	-0.003125	0.000000	7095.545621	45873.969877	3962.737574	24315.558726
12.035500	0.000237	-0.000018	-0.002699	-0.000365	7111.730150	45908.309210	3964.796513	24333.605419
12.537000	-0.001495	-0.000342	0.002451	-0.000021	7091.475155	45842.248055	3977.394892	24316.597955
13.037000	-0.000205	0.000459	-0.004783	-0.001790	7121.349581	46097.003498	3963.082211	24404.181760
13.537000	-0.003195	-0.000776	-0.001797	-0.000102	7075.743504	45807.312104	3966.462272	24320.580446
14.035000	0.001261	0.000732	-0.005314	0.000809	7110.259112	45866.357432	3954.961959	24275.617217
14.535000	-0.003143	0.000449	-0.000758	0.003520	7041.284568	45571.369198	3959.743617	24142.390237
15.035500	-0.002114	0.000252	-0.007122	0.000924	7076.283242	45807.576254	3950.005684	24269.952042
15.539500	-0.000653	0.000533	-0.004583	0.000887	7090.833932	45838.929024	3956.652145	24271.774206
16.036000	-0.001404	0.000067	0.001151	-0.000279	7094.874605	45908.233166	3974.651654	24329.343238
16.536500	0.000050	-0.000684	0.000154	0.001307	7093.588651	45677.490548	3967.878896	24251.077322
17.037000	-0.001096	-0.000351	-0.000365	-0.000244	7097.534904	45863.451472	3970.580822	24327.636250
17.537000	-0.001825	-0.001370	0.000825	-0.000748	7095.342256	45812.489705	3975.025813	24352.532510
18.040000	0.001411	0.000012	0.002492	-0.002442	7143.632200	46117.313703	3983.901594	24436.519974
18.537500	-0.002332	0.000249	-0.001614	0.001641	7067.229489	45736.577954	3962.400236	24234.661210
19.035000	-0.000815	-0.000045	-0.003871	0.001428	7083.999459	45728.579959	3957.094900	24245.132037
19.535500	-0.002082	-0.001040	-0.002336	0.001069	7075.182323	45665.913933	3962.009018	24262.795351
20.035500	-0.002120	-0.000075	-0.006745	0.001394	7071.672149	45728.963128	3949.766086	24246.797270
20.536000	-0.001862	-0.000017	-0.003877	0.002136	7066.987585	45661.637712	3955.249412	24210.312623
21.036000	-0.004330	-0.000814	-0.000150	0.001445	7049.830451	45651.207784	3966.725987	24244.303315
21.536500	-0.002985	-0.000930	-0.001794	0.001095	7066.188206	45674.106716	3963.349833	24261.518248
22.037000	-0.000906	-0.000421	-0.004665	0.001193	7085.391246	45714.632569	3955.648221	24256.682275
22.537500	-0.001772	0.000681	0.002949	0.002739	7062.023864	45670.955577	3971.449273	24180.679687
23.034500	-0.001934	-0.000008	-0.002383	0.001753	7069.993497	45700.106122	3960.109289	24229.110163
23.535000	-0.001948	0.000510	-0.000863	0.001885	7068.588419	45738.274419	3963.719792	24222.656090
24.035000	-0.003172	-0.000516	-0.003134	0.001465	7060.817853	45678.505912	3958.908526	24243.329998
24.535500	-0.001108	0.000389	-0.003585	0.002062	7074.998919	45708.782344	3956.192554	24213.925581
25.035500	-0.003243	0.001152	-0.003990	0.001915	7055.786294	45798.653588	3955.528154	24221.182318
25.536000	-0.000647	0.000148	-0.001726	0.002003	7080.045597	45690.931556	3961.167299	24216.842500
26.036500	-0.002031	0.000143	-0.002453	0.001680	7069.763006	45722.282148	3960.118688	24232.732593
26.536500	-0.001905	0.000340	-0.004224	0.002054	7067.363535	45704.825864	3954.562479	24214.340511
27.036500	0.000220	0.000170	-0.003967	0.001988	7088.621669	45694.601126	3955.398931	24217.595357
27.537000	-0.001600	-0.000610	-0.003415	0.001356	7077.085141	45679.978786	3958.462913	24248.695358
28.034500	-0.000638	-0.000401	-0.001559	-0.000597	7105.445889	45893.452640	3968.380110	24345.096428
28.535000	-0.000732	0.000227	-0.003038	0.001810	7081.103481	45717.706108	3958.264111	24226.348518
29.035500	-0.000448	0.000115	0.001994	0.000364	7097.928640	45849.411577	3975.178860	24297.601102
29.535500	-0.000176	0.001118	0.000073	0.001011	7094.268166	45884.501172	3968.440668	24265.664290
30.036000	-0.001352	-0.000206	-0.002640	0.000763	7085.239018	45778.205322	3962.013081	24277.875910
30.536000	-0.000860	-0.000040	-0.003997	0.000227	7095.241166	45847.535428	3959.880587	24304.327130
31.036000	0.000447	0.000325	-0.002199	0.000501	7105.316983	45856.598262	3963.842405	24290.824659
31.551000	0.000951	0.000413	0.003767	0.000770	7107.612598	45838.649164	3978.780187	24277.555251
32.040000	-0.002133	0.000029	0.001075	0.003412	7052.040145	45540.674825	3964.787424	24147.639489
32.537000	-0.001619	0.000447	0.000404	0.001683	7073.726009	45751.960040	3967.550045	24232.587241
33.052000	-0.000733	0.000635	-0.001117	0.001209	7086.926070	45817.200310	3964.817324	24255.910255
33.535000	0.000357	-0.000125	-0.002607	0.000398	7105.445296	45822.289964	3963.050503	24295.907893
34.035000	-0.002397	-0.000410	-0.004177	0.001132	7071.531878	45721.805685	3957.068374	24259.715484
34.535500	-0.001827	-0.000139	-0.001434	0.000324	7084.889700	45828.208415	3966.298259	24299.554510
35.036000	0.000235	0.000884	0.001052	0.001316	7095.300901	45831.235610	3970.205837	24250.628306
35.536000	0.000684	-0.000151	-0.001329	-0.001070	7123.001651	45964.904386	3970.216802	24368.465046
36.036500	-0.000863	0.000323	0.000892	0.003235	7066.025949	45587.022723	3964.775323	24156.354180
36.539500	-0.000663	0.000005	0.001866	0.002833	7071.838507	45595.178958	3968.366064	24176.037977
37.037000	-0.001176	0.000312	-0.000111	0.003035	7064.927599	45605.550089	3962.682060	24166.144158
37.534500	-0.002161	0.000097	0.001424	0.002767	7057.993122	45610.726628	3967.381901	24179.293212
38.035000	-0.001529	0.000398	-0.000958	0.003165	7060.264627	45601.284434	3960.145731	24159.791581
38.535000	-0.001963	0.000035	-0.004282	0.002759	7059.986655	45605.383059	3952.593103	24179.692897
39.035500	-0.002395	-0.000124	-0.006214	0.002643	7056.940772	45601.242923	3947.920839	24185.387218
39.535500	-0.000798	0.001171	-0.000935	0.003712	7062.043529	45623.423765	3958.783502	24132.974549
40.036000	0.000757	0.000130	0.001348	0.002999	7084.007908	45591.152604	3966.578654	24167.899180
40.536500	-0.003228	0.000405	-0.002393	0.003219	7043.356066	45596.581171	3956.283013	24157.104899
41.039500	-0.000379	0.000347	-0.007395	0.002757	7075.332475	45636.298150	3944.600802	24179.783526
41.537000	-0.002693	0.000517	-0.004427	0.002884	7051.730700	45640.515832	3951.895430	24173.532681
42.034500	-0.002177	0.000049	0.000448	0.003347	7052.251564	45549.091896	3963.326096	24150.854535
42.537500	-0.003158	0.000343	-0.000892	0.002376	7052.159615	45673.432975	3962.365223	24198.524029
43.035000	-0.002661	-0.000219	-0.001848	0.001802	7062.489045	45674.474486	3961.371816	24226.696702
43.535500	-0.002246	-0.000799	-0.004514	0.002065	7063.951238	45591.652175	3953.785157	24213.765672
44.035500	-0.000495	0.000613	0.002291	0.003849	7063.641052	45555.102760	3966.820284	24126.243405
44.536000	-0.001796	-0.000004	-0.001100	0.002731	7061.867239	45604.335048	3960.901708	24181.058704
45.036500	0.001464	0.000617	0.003402	0.003224	7088.690890	45616.877441	3971.364083	24156.871714
45.536500	-0.001290	-0.000286	-0.001505	-0.000024	7093.498925	45847.982135	3967.020670	24316.726428
46.037000	-0.002738	-0.000539	-0.004563	0.003426	7046.080745	45483.683681	3950.153551	24146.984242
46.537000	-0.004599	-0.000217	0.002447	0.003311	7029.309144	45526.489066	3968.635786	24152.623487
47.037000	-0.001243	0.000024	0.001601	0.000261	7091.184584	45850.516223	3974.413932	24302.648241
47.535000	0.000809	0.000987	0.002267	0.000730	7106.619538	45899.434006	3974.932876	24279.521834
48.035500	-0.004427	0.000432	-0.001191	0.004697	7017.685954	45454.292094	3955.571361	24084.781924
48.535500	-0.000523	-0.000222	-0.002448	0.002616	7075.305696	45594.229366	3957.703768	24186.700447
49.039500	-0.002519	0.000064	0.001088	0.000352	7077.909719	45845.519386	3972.829232	24298.181753
49.536500	-0.000432	-0.000222	-0.001384	0.002935	7073.095804	45562.893734	3959.634602	24171.045135
50.036500	-0.004507	0.000213	0.000403	0.004527	7018.549318	45449.464044	3960.140618	24093.085052
50.546000	-0.004913	-0.000159	-0.005064	0.004097	7018.772545	45455.099558	3947.140573	24114.119113
51.037000	-0.000952	-0.000296	-0.002328	0.000106	7095.523338	45834.194249	3964.537463	24310.316728
51.534500	-0.000228	-0.000006	-0.001793	0.000268	7101.004613	45846.917150	3965.507648	24302.319219
52.038000	-0.001473	0.000362	-0.002889	0.003352	7058.986035	45579.277379	3954.658721	24150.580260
52.535000	-0.000882	-0.000271	-0.002628	0.000558	7091.799868	45792.068336	3962.578450	24287.991846
53.035500	0.000487	0.000344	-0.001365	0.000526	7105.458587	45855.942812	3965.951006	24289.566779
53.535500	0.000105	0.000117	-0.002398	-0.000989	7116.538927	45983.552787	3967.212104	24364.481287
54.036000	-0.014737	-0.005704	-0.002704	0.161680	5690.189695	32137.281258	3612.238852	17646.477247
54.535500	-0.028409	-0.001932	-0.024970	0.142311	5727.488531	33736.038813	3607.055304	18320.841668
55.039500	-0.031831	-0.024438	-0.038537	-0.144397	8360.581049	59537.704945	4285.064981	32778.103613
55.536500	-0.041699	-0.168905	-0.032563	-0.332593	11150.822831	65535.000000	5103.842979	49005.334963
56.036500	-0.034517	-0.175577	-0.016981	-0.339266	11419.395022	65535.000000	5223.254331	49719.762116
56.537500	-0.044699	-0.150986	-0.025077	-0.314675	10761.189854	65535.000000	5049.935357	47140.165179
57.035000	-0.043474	-0.147070	-0.019085	-0.310758	10712.415954	65535.000000	5060.555856	46742.663911
57.535000	-0.019318	-0.119077	-0.023411	-0.282766	10643.394472	65535.000000	4900.788543	44003.431819
58.035000	-0.030736	-0.109095	-0.033442	-0.272783	10269.399862	65535.000000	4807.647589	43068.543928
58.535500	-0.016830	-0.112004	-0.024033	-0.275692	10561.699721	65535.000000	4864.467351	43338.767443
59.036000	-0.018405	-0.082016	-0.020772	-0.245705	10022.195641	65535.000000	4743.199391	40638.088728
59.538500	-0.019822	-0.050096	-0.018479	-0.203433	9337.248543	64060.206306	4575.183031	37134.293676
60.037000	-0.022482	-0.035154	-0.026504	-0.177321	8922.368983	62507.863080	4443.464058	35134.313744
60.537000	-0.017289	-0.022916	-0.025544	-0.150445	8627.393163	60533.181108	4350.158713	33197.666647
61.037000	-0.018687	-0.014226	-0.024705	-0.111012	8110.342211	56596.127471	4221.129855	30564.473246
61.534500	-0.020603	-0.010736	-0.022567	-0.089239	7831.898508	54383.514090	4159.752920	29209.781828
62.035000	-0.026871	-0.010920	-0.028567	-0.068186	7529.076526	51927.740265	4079.614422	27962.942603
62.535000	-0.027024	-0.010946	-0.022341	-0.058043	7419.809981	50793.644850	4068.419585	27383.476608
63.035500	-0.026655	-0.010538	-0.028824	-0.050574	7345.950621	50021.615378	4029.350042	26965.318097
63.536000	-0.024017	-0.008720	-0.017904	-0.048774	7354.609946	50023.627044	4054.746137	26865.633122
64.036000	-0.014126	-0.000727	-0.031659	-0.020133	7164.908615	47836.637205	3941.087299	25333.584394
64.536500	-0.021158	-0.005292	-0.027427	-0.026920	7162.480585	48067.043932	3969.569306	25687.548646
65.037000	-0.012688	-0.002801	-0.026426	-0.030932	7287.774342	48748.093851	3982.767619	25899.386115
65.537500	-0.011459	-0.002671	-0.030988	-0.032729	7318.703342	48951.875478	3975.471426	25994.936145
66.078500	-0.015871	-0.003203	-0.026947	-0.027339	7219.312064	48328.415701	3971.924786	25709.563395
66.534500	-0.013629	-0.003394	-0.025421	-0.030570	7274.533272	48647.367743	3984.472454	25880.185766
67.034500	-0.011955	-0.003344	-0.026544	-0.029904	7284.783402	48582.649602	3979.736482	25844.931486
67.535500	-0.013857	-0.003304	-0.019566	-0.028865	7254.948899	48477.734176	3995.529495	25790.002363
68.036000	-0.017959	-0.003372	-0.029608	-0.021876	7144.264529	47743.435815	3950.814112	25423.956254
68.535500	-0.016420	-0.004000	-0.024789	-0.024993	7190.388900	48001.076875	3971.430872	25586.479694
69.036500	-0.016477	-0.003693	-0.025592	-0.023836	7178.311597	47912.894516	3966.304130	25526.016633
69.537000	-0.015071	-0.003925	-0.026986	-0.022214	7176.164058	47721.220257	3958.458850	25441.513597
70.037000	-0.019860	-0.004158	-0.026874	-0.015782	7066.216616	47039.091638	3942.196486	25109.573266
70.536500	-0.016256	-0.003394	-0.024135	-0.017838	7121.319145	47326.513570	3954.515365	25215.155218
71.037000	-0.017142	-0.003189	-0.025521	-0.014295	7078.134923	46986.512269	3941.854706	25033.514189
71.535000	-0.015000	-0.003471	-0.026681	-0.011754	7074.269947	46701.022645	3932.443147	24904.175039
72.035000	-0.016775	-0.002810	-0.024709	-0.009377	7034.215997	46528.306310	3931.416982	24783.837066
72.535500	-0.018549	-0.003029	-0.028285	-0.007627	7000.524571	46331.127751	3918.024463	24695.665783
73.035500	-0.015176	-0.002424	-0.026389	-0.007218	7028.844804	46350.705949	3921.749006	24675.128175
73.539000	-0.013234	-0.002603	-0.026710	-0.007595	7051.139479	46370.504389	3921.889350	24694.079813
74.036500	-0.018788	-0.002536	-0.028137	-0.001774	6942.928348	45798.678015	3903.863314	24403.382190
74.536500	-0.012931	-0.000964	-0.022132	-0.006014	7038.845964	46376.356097	3929.431976	24614.753679
75.037000	-0.011792	-0.001572	-0.024018	-0.005096	7040.966624	46223.933469	3922.374399	24568.815653
75.537000	-0.011372	-0.001131	-0.022413	-0.004181	7036.212395	46176.677453	3924.106432	24523.119510
76.035000	-0.016010	-0.000996	-0.024098	0.001627	6937.080957	45615.361464	3905.436515	24235.324035
76.535500	-0.012872	-0.001690	-0.020261	-0.003086	7011.353619	46012.237746	3926.763205	24468.531895
77.035500	-0.011074	-0.001023	-0.021781	-0.003612	7033.606988	46130.815759	3924.263834	24494.760187
77.536000	-0.014801	-0.001413	-0.028344	-0.003695	6998.775858	46100.264630	3908.097936	24498.886617
78.039000	-0.017539	-0.000962	-0.024795	0.001527	6923.700555	45628.484123	3903.961588	24240.235689
78.536000	-0.013481	-0.001464	-0.020396	-0.002344	6998.480049	45961.018567	3924.555884	24431.650640
79.037000	-0.012775	-0.001007	-0.026981	-0.002696	7008.563573	46041.356870	3909.000729	24449.179403
79.536500	-0.012888	-0.001114	-0.023839	-0.002623	7006.786302	46023.452781	3916.630974	24445.533450
80.034500	-0.015660	-0.001424	-0.026903	0.002687	6930.430628	45469.373172	3895.934342	24183.239943
80.537500	-0.014466	-0.001963	-0.024322	-0.001193	6978.201388	45797.923432	3911.867494	24374.573219
81.035000	-0.012570	-0.000395	-0.027423	-0.000961	6993.989167	45929.966312	3903.617261	24363.086541
81.534500	-0.013211	-0.000804	-0.023053	-0.000826	6986.617376	45876.151997	3914.111325	24356.403857
82.035500	-0.011941	-0.000411	-0.021845	-0.000138	6992.147170	45846.996398	3915.406610	24322.387059
82.539000	-0.012705	-0.000486	-0.020170	0.001056	6973.582142	45721.767324	3916.606702	24263.466691
83.036500	-0.013651	-0.000855	-0.022500	0.000507	6969.827297	45739.470784	3912.172229	24290.523340
83.536500	-0.013458	-0.000719	-0.024989	0.001032	6966.692035	45701.098432	3904.705033	24264.622716
84.037000	-0.017333	-0.001518	-0.032857	0.004521	6897.732312	45280.814200	3877.036102	24093.348406
84.537000	-0.014758	-0.001142	-0.027672	0.002784	6937.974162	45487.509038	3893.814862	24178.482959
85.037500	-0.015344	-0.001487	-0.026838	0.001375	6945.700261	45591.915904	3899.309601	24247.752990
85.535000	-0.014597	-0.001268	-0.019547	0.002276	6944.244885	45524.902592	3915.116300	24203.392004
86.035000	-0.021474	-0.003031	-0.027064	0.006726	6839.243180	44919.851273	3885.699568	23985.855976
86.535000	-0.015693	-0.003082	-0.027935	0.002726	6929.752645	45303.364533	3893.312823	24181.306118
87.036000	-0.019150	-0.002492	-0.025846	0.002369	6900.846626	45395.885094	3899.302251	24198.825165
87.536000	-0.014686	-0.002635	-0.029546	0.002399	6942.263804	45379.061628	3890.183772	24197.378858
88.036000	-0.019475	-0.003038	-0.026816	0.007287	6852.417993	44864.951117	3884.940424	23958.566350
88.536500	-0.014927	-0.003557	-0.026668	0.002406	6939.930836	45288.350564	3897.196800	24197.043039
89.037000	-0.015891	-0.003048	-0.024969	0.003285	6922.683580	45252.286675	3899.208177	24153.908381
89.537000	-0.016865	-0.002877	-0.025972	0.003375	6912.748479	45260.068036	3896.527597	24149.455513
90.035000	-0.020054	-0.004271	-0.027783	0.007402	6846.058977	44735.001697	3882.324086	23952.996500
90.534500	-0.016257	-0.003090	-0.022747	0.003483	6917.407499	45228.855599	3904.189619	24144.178321
91.035000	-0.016784	-0.003200	-0.021676	0.003316	6914.048515	45234.321190	3907.247885	24152.354146
91.535500	-0.016840	-0.004097	-0.024356	0.003454	6912.247231	45133.691982	3900.299031	24145.606160
92.035500	-0.016885	-0.004307	-0.021090	0.003382	6912.498078	45120.259451	3908.534460	24149.120991
92.535500	-0.015215	-0.003743	-0.024923	0.004064	6921.710827	45108.772229	3897.409356	24115.711729
93.036500	-0.015437	-0.003183	-0.023109	0.004522	6915.370833	45118.714781	3900.740960	24093.338928
93.536500	-0.016860	-0.004291	-0.020888	0.003890	6907.998993	45072.440510	3907.779223	24124.247561
94.037000	-0.020074	-0.004313	-0.024138	0.006538	6853.799107	44814.208437	3893.277965	23995.010923
94.537500	-0.019407	-0.004128	-0.024152	0.004598	6877.810577	45019.679114	3897.992007	24089.617567
95.035000	-0.017191	-0.004319	-0.020498	0.004318	6900.932004	45028.161848	3907.683273	24103.276128
95.535000	-0.021597	-0.004410	-0.023644	0.004440	6859.077906	45007.508720	3899.625164	24097.307258
96.035000	-0.020942	-0.004527	-0.025431	0.007790	6834.372000	44672.964148	3887.079820	23934.125179
96.535500	-0.017059	-0.003709	-0.024713	0.006394	6882.911703	44886.286133	3892.223931	24001.974831
97.035500	-0.017430	-0.004015	-0.015625	0.005954	6883.552679	44899.319784	3915.726597	24023.440579
97.536000	-0.017452	-0.003872	-0.020411	0.005793	6884.834878	44928.693060	3904.252208	24031.248844
98.036500	-0.021352	-0.005119	-0.026252	0.009818	6812.153612	44421.899991	3880.185671	23835.976330
98.537000	-0.016122	-0.004169	-0.022947	0.006811	6887.731449	44801.771531	3895.522331	23981.719136
99.040000	-0.019874	-0.004967	-0.025413	0.005449	6865.657729	44856.161460	3892.824089	24048.056278
99.537500	-0.019068	-0.004135	-0.021254	0.006520	6863.219175	44833.111319	3900.389558	23995.882452
