sample name	sample
index	1237
start time	 04-29-2021  11:28:17 AM
880	0.157524
Peak Time (s)	92.535
Peak Height 	0.1575
calc peak height	90,93
Baseline Time (s)	10.035
Baseline Value 	-0.005481
subtract baseline	10,4
Abs	0.101572
Peak Time (s)	91.534
Peak Height 	0.1016
calc peak height	90,93
Baseline Time (s)	8.537
Baseline Value 	0.003102
subtract baseline	10,3
PK_550	0.059091
Peak Time (s)	90.037
Peak Height 	0.05909
calc peak height	90,93
Baseline Time (s)	11.536
Baseline Value 	7.1047E-4
subtract baseline	10,2
PK_880	0.099191
Peak Time (s)	91.534
Peak Height 	0.09919
calc peak height	90,93
Baseline Time (s)	11.036
Baseline Value 	0.002815
subtract baseline	10,1


Time (s)	A880-A510	A880-A775	A880-A975	A880	I510	I775	I975	I880	
0.035000	-0.000971	0.000097	-0.001924	0.000913	6208.373979	44258.277544	3887.376379	22823.549810
0.534500	0.000144	-0.000920	-0.005202	0.003345	6198.286107	43931.052244	3873.906312	22712.116728
1.038000	-0.001909	-0.000254	-0.005987	0.004570	6173.319127	43878.169303	3869.206384	22656.223071
1.535500	0.001133	0.000288	-0.002424	0.000602	6226.938562	44305.975580	3886.924293	22837.810674
2.036000	0.000782	0.000180	0.001481	0.000284	6226.686727	44326.065690	3896.997551	22852.454978
2.536500	-0.000316	-0.000101	-0.002547	-0.000203	6221.975187	44345.691918	3888.546192	22874.859933
3.036500	0.000255	-0.000220	-0.000915	-0.000658	6229.888790	44377.794510	3893.518682	22895.839394
3.536000	0.000970	-0.000938	0.001815	-0.000227	6232.082229	44268.287297	3899.025832	22875.997941
4.037500	-0.000022	-0.000335	-0.001322	0.000091	6221.981165	44295.318326	3890.761553	22861.323980
4.534500	-0.000758	-0.000010	-0.001519	0.000896	6210.133463	44249.629558	3888.375104	22824.299268
5.035000	-0.000398	-0.000196	0.000949	0.000515	6215.820178	44268.172983	3895.169879	22841.813534
5.535000	-0.002523	-0.000232	-0.001109	0.000658	6198.438482	44251.157181	3889.918336	22835.246423
6.035500	-0.000831	-0.000152	-0.004006	-0.000273	6218.557456	44347.542413	3885.249067	22878.099076
6.535500	-0.000583	-0.000252	-0.001578	-0.000349	6221.048926	44345.244423	3891.199867	22881.612097
7.035000	-0.002143	-0.000477	0.000424	-0.000177	6207.747924	44307.378507	3895.571235	22873.688741
7.536000	0.001281	-0.000057	-0.002440	0.000582	6228.242501	44275.114836	3886.936705	22838.766127
8.036000	-0.000272	-0.000738	-0.003076	0.000241	6218.900795	44242.691404	3886.237292	22854.452333
8.536500	0.001027	0.000384	0.000000	0.000392	6227.745748	44335.285373	3893.196509	22847.489326
9.039500	0.001694	0.000442	0.000049	0.000496	6232.094779	44330.861019	3893.065943	22842.719411
9.534500	-0.002169	-0.000130	-0.000106	-0.000461	6209.719470	44367.586637	3894.980992	22886.768491
10.035000	0.000309	-0.000574	0.001376	0.000000	6225.232439	44281.228332	3897.426862	22865.522394
10.535000	-0.002003	-0.000619	-0.000082	-0.000276	6209.574604	44303.300683	3894.596987	22878.224540
11.035500	0.000000	0.000324	0.001181	0.000184	6221.433621	44349.351380	3896.519180	22857.060172
11.536000	-0.000499	0.000000	-0.001015	-0.000046	6219.359454	44340.362448	3891.818444	22867.631167
12.036500	0.000213	0.000616	0.001171	0.000294	6222.224798	44366.660593	3896.229696	22851.977779
12.536500	-0.001701	-0.000831	0.005277	-0.000682	6215.005976	44321.813328	3908.471492	22896.942092
13.036500	-0.000481	0.001111	-0.000167	-0.001471	6230.479518	44583.099879	3897.252332	22933.359353
13.540000	0.002563	0.000349	-0.001308	-0.000644	6247.639666	44430.862976	3892.544968	22895.180090
14.051000	0.000978	-0.000368	-0.000614	-0.001227	6239.871471	44417.984637	3895.598656	22922.085436
14.534500	-0.001464	-0.000509	-0.004355	0.001611	6199.246656	44134.136125	3879.971084	22791.472191
15.040500	-0.004442	-0.000098	-0.002341	-0.000096	6189.538933	44335.778974	3888.780610	22869.926046
15.551000	-0.000716	-0.000150	0.005057	-0.000962	6224.744036	44413.578062	3908.616277	22909.855494
16.035500	0.000523	-0.000064	0.002436	-0.000958	6234.271913	44421.396887	3902.276067	22909.667609
16.536000	-0.000308	-0.000001	0.003475	-0.001048	6228.553972	44436.039167	3904.999096	22913.854261
17.036000	-0.000856	-0.000435	0.000960	-0.001145	6225.079668	44403.808198	3899.177451	22918.330111
17.536500	0.002435	0.000481	0.000464	-0.002644	6262.198953	44635.306443	3901.587551	22987.639003
18.036500	-0.000008	-0.000379	0.002943	-0.003361	6248.774529	44621.521377	3909.308030	23020.865283
18.537000	-0.002195	-0.000477	0.000433	0.000276	6203.866594	44264.142253	3894.506752	22852.803010
19.034500	0.000479	-0.000050	0.004324	0.000859	6219.920734	44249.373922	3902.445640	22826.013084
19.534500	-0.001839	-0.000557	0.000235	0.000318	6206.281382	44252.561720	3893.933568	22850.894877
20.035000	-0.000156	-0.000562	-0.001855	0.000203	6220.085610	44263.022976	3889.226446	22856.184976
20.535500	-0.002766	0.000075	-0.004658	0.000409	6198.482209	44304.123180	3882.092974	22846.701726
21.035000	-0.002075	-0.000598	0.002207	-0.000165	6208.176592	44294.680418	3899.818027	22873.133156
21.536000	-0.000618	0.000106	-0.004332	0.000440	6214.711798	44304.189318	3882.790889	22845.296119
22.036500	-0.001523	-0.000495	0.000524	-0.000092	6211.849122	44297.615748	3895.606540	22869.772698
22.536500	0.000606	0.000724	0.002264	0.001201	6218.271183	44290.473393	3896.674706	22810.297908
23.039500	-0.000799	0.000851	-0.000066	0.000875	6209.976542	44333.685771	3891.885904	22825.268194
23.537500	-0.000630	-0.000533	-0.000139	0.000313	6215.594777	44255.351754	3893.053463	22851.108448
24.037500	-0.002107	-0.000358	-0.001589	0.000150	6205.507103	44287.540682	3889.984454	22858.602646
24.535000	-0.000263	0.000072	0.002556	0.000137	6219.771570	44329.839228	3899.931328	22859.235149
25.035000	-0.000782	0.000768	0.000211	0.000906	6209.877576	44322.803954	3892.472911	22823.864725
25.535000	0.000040	-0.000154	-0.000290	0.000330	6220.614923	44289.823127	3892.651659	22850.334054
26.036000	-0.002190	-0.001058	-0.001338	-0.000590	6210.547061	44291.373016	3892.346390	22892.701534
26.536000	-0.001378	0.000076	-0.001373	0.000212	6210.624830	44323.086744	3890.352071	22855.778494
27.036500	-0.004528	-0.000876	-0.003208	-0.000574	6192.530220	44307.153396	3887.856695	22891.946904
27.537000	-0.002010	-0.000553	-0.000853	0.000419	6204.193430	44243.330318	3891.095965	22846.226543
28.037000	0.002920	0.000293	0.005762	-0.002251	6262.913647	44579.509906	3913.461953	22969.430056
28.537000	0.000486	0.000648	0.004113	-0.001105	6235.120849	44503.601341	3906.676578	22916.443449
29.066000	0.000948	-0.000004	0.003715	-0.001843	6244.411071	44511.855923	3907.499878	22950.553380
29.535500	0.000407	0.000058	0.006233	-0.001908	6240.729350	44523.992735	3913.773677	22953.565594
30.035000	-0.001110	-0.000141	-0.000092	-0.001982	6229.567487	44512.029618	3898.659110	22956.965127
30.535500	-0.001003	-0.000474	0.001281	0.002375	6196.926435	44064.988778	3891.520611	22756.452832
31.036000	0.001620	0.000008	0.000216	-0.001599	6247.738532	44489.663490	3898.479088	22939.290081
31.536000	-0.000776	-0.000500	0.005054	-0.000920	6223.960715	44376.091068	3908.508089	22907.935386
32.037500	-0.000685	-0.001414	-0.004952	0.000186	6216.143310	44183.621411	3881.924382	22856.954078
32.561000	-0.001257	-0.000582	0.000343	0.002703	6192.483924	44023.672197	3888.508167	22741.450574
33.037500	-0.001234	0.000043	0.005184	-0.001608	6225.728549	44493.762098	3910.491355	22939.670992
33.543000	0.001069	0.000623	0.003598	-0.001357	6241.586735	44525.320662	3906.042612	22928.088386
34.037000	0.000875	0.000776	0.007750	-0.001048	6237.689199	44510.415440	3915.372871	22913.811215
34.543000	-0.001531	0.000863	-0.000019	0.003553	6183.917289	44080.063941	3885.630972	22702.594885
35.035500	-0.000899	-0.000571	-0.001135	-0.001157	6224.836924	44391.954524	3894.186697	22918.878899
35.536000	0.000012	0.000113	0.001092	0.000657	6217.884859	44284.066963	3895.171979	22835.274064
36.036000	-0.000129	-0.000036	-0.000132	0.000643	6216.905287	44271.195472	3892.281856	22835.921674
36.536500	-0.001347	-0.000120	-0.001400	0.001966	6197.429018	44137.425181	3886.118655	22775.218783
37.036500	-0.000749	-0.000005	0.002483	0.000660	6212.015283	44272.559691	3898.497421	22835.153473
37.536500	-0.001540	-0.000622	-0.000510	0.000271	6208.932541	44250.919234	3892.268033	22853.057160
38.035500	-0.000277	0.000246	0.001446	0.001393	6210.010139	44226.635813	3894.258668	22801.471501
38.534500	-0.003047	0.000256	0.005298	0.001377	6188.952504	44229.206926	3903.545204	22802.231430
39.035500	-0.001639	0.000367	0.000508	0.000670	6205.106202	44307.078945	3893.743855	22834.679161
39.534500	-0.000496	-0.000195	-0.001736	0.000585	6214.533137	44261.577147	3888.599830	22838.585794
40.035500	-0.000556	0.000289	0.004144	0.000735	6212.922372	44293.458052	3902.310925	22831.703403
40.536000	-0.002509	-0.000567	0.001210	0.001612	6191.262152	44128.564918	3893.171653	22791.445841
41.036000	-0.001115	-0.000036	-0.001895	0.000939	6207.064111	44242.991680	3887.379684	22822.316775
41.536500	-0.001960	-0.000140	-0.000730	0.000837	6201.377346	44242.942278	3890.396260	22827.046356
42.039500	-0.003547	0.000192	0.004501	0.001051	6187.626233	44254.121021	3902.410627	22817.189954
42.536500	-0.002288	-0.000294	-0.001049	0.000548	6201.077338	44255.720367	3890.321500	22840.303246
43.037500	-0.000411	-0.000141	-0.004328	0.000377	6216.786953	44286.568623	3882.948360	22848.167105
43.540000	-0.002751	0.000084	0.000386	0.000930	6194.624347	44255.355728	3892.833178	22822.767564
44.035500	-0.002285	0.000054	0.001776	0.000958	6197.965643	44249.827624	3896.091005	22821.483120
44.540500	-0.001319	0.000581	0.001450	0.002772	6191.493235	44127.444854	3890.978532	22738.313524
45.035500	0.000764	-0.000297	0.001609	-0.002245	6246.104545	44522.240311	3903.384496	22969.133524
45.536500	0.000266	0.000569	0.001498	-0.001315	6235.050294	44516.107131	3900.876123	22926.152185
46.036500	0.000567	0.000378	0.003620	-0.000914	6234.270776	44459.441972	3905.024418	22907.625375
46.540000	-0.001602	-0.000249	-0.001072	-0.000970	6217.984565	44404.879080	3893.889398	22910.250123
47.037000	0.002237	0.000302	-0.004089	-0.000558	6244.443878	44418.111603	3885.728419	22891.235643
47.540000	-0.000405	-0.000196	-0.000565	-0.001530	6231.526532	44463.487460	3896.440892	22936.078975
48.037500	0.001048	0.000044	0.003153	-0.001604	6243.341476	44493.594720	3905.563191	22939.516498
48.549000	-0.002168	-0.000001	-0.006754	0.003805	6177.156039	43974.366118	3869.200445	22691.082789
49.035500	-0.000635	0.000297	0.001422	0.002109	6201.776814	44163.406239	3892.492001	22768.645142
49.535000	-0.001867	0.000327	0.002428	0.001468	6197.260733	44227.207033	3896.429324	22798.041166
50.061500	0.001393	0.000046	0.002934	-0.001577	6245.802413	44491.152386	3904.970762	22938.274710
50.536000	-0.002813	-0.000373	-0.003320	0.003872	6171.755250	43932.877453	3877.085608	22688.044341
51.036500	0.000628	-0.000011	0.000913	-0.000810	6233.946064	44412.365859	3898.258580	22902.871254
51.537000	-0.000019	0.000984	0.005577	-0.002924	6245.299435	44710.611800	3914.647552	23000.588142
52.034500	0.001209	-0.000128	0.003895	-0.000581	6236.664468	44379.195167	3904.884298	22892.279982
52.537500	0.003475	-0.007145	0.005886	0.019234	6103.648713	41893.671416	3862.717034	21999.298374
53.035000	0.013799	-0.016502	0.003129	0.236233	4882.204830	26051.772567	3463.030585	14476.584925
53.535500	0.001997	-0.035944	-0.006532	-0.007349	6295.610826	41695.209590	3896.088371	23206.777612
54.035500	0.002664	-0.107687	-0.016644	-0.287082	9396.138873	65532.270976	4790.865747	41596.845570
54.538500	0.002807	-0.094669	-0.013472	-0.271000	9161.245558	65091.810006	4734.202338	40189.007940
55.036000	0.006116	-0.081095	-0.001526	-0.254829	8977.896030	64721.001263	4716.019950	38824.980870
55.536500	0.004580	-0.053073	-0.007602	-0.216010	8436.627031	63202.895453	4533.368151	35750.659550
56.039500	0.002041	-0.038154	-0.005838	-0.191286	8098.405969	61856.516451	4447.001453	33931.091157
56.536500	-0.007043	-0.035294	-0.009664	-0.188021	7952.057343	61801.619188	4421.241339	33698.475557
57.037000	-0.003083	-0.037429	-0.008076	-0.194316	8073.291109	62368.507556	4449.903523	34148.535564
57.534500	0.004891	-0.027080	0.001148	-0.172158	7906.360602	60773.094428	4403.144985	32592.755232
58.035000	0.008419	-0.012176	0.006402	-0.114289	7314.958329	55321.085187	4226.638882	28884.797249
58.534500	0.008638	-0.007095	0.006905	-0.074472	6928.296430	51291.152885	4108.031963	26605.824061
59.035500	0.016089	0.000342	0.015347	-0.039990	6683.883045	48369.071432	4035.178832	24794.116938
59.536000	0.017883	0.003088	0.020997	0.001786	6349.150467	44460.425933	3941.076179	22783.459131
60.036000	0.020203	0.005915	0.017835	0.026359	6175.774875	42430.301626	3873.960552	21688.028461
60.536500	0.024738	0.007694	0.029167	0.038792	6116.337248	41472.117887	3871.381929	21156.941862
61.037000	0.030017	0.015293	0.026877	0.027852	6239.564003	43154.643261	3891.804311	21623.429408
61.537000	0.034931	0.016186	0.033310	0.005585	6456.673239	45360.069206	3962.553955	22610.021660
62.037500	0.044409	0.023494	0.044380	0.057125	6126.329762	41247.833573	3864.114723	20401.069527
62.534500	0.040927	0.028495	0.035467	0.067589	6023.680145	40768.383473	3820.133765	19983.723559
63.035500	0.046785	0.028500	0.046805	0.078869	5984.647468	39797.703172	3820.261268	19544.945923
63.535000	0.051864	0.031198	0.054834	0.097237	5891.025715	38489.884609	3797.582642	18854.420052
64.035500	0.054934	0.035202	0.053470	0.096942	5914.465578	38844.011574	3795.267890	18865.292458
64.535500	0.053384	0.035211	0.051374	0.103740	5856.653835	38286.330235	3776.231475	18616.862567
65.036500	0.058613	0.038518	0.059032	0.101333	5909.486639	38755.105905	3797.804063	18704.378695
65.566500	0.061487	0.040846	0.054000	0.098094	5952.465915	39217.808345	3793.925870	18822.937129
66.037000	0.062586	0.042757	0.061051	0.099147	5952.787663	39289.582212	3806.966178	18784.288244
66.539500	0.063989	0.043465	0.063433	0.105392	5918.700377	38828.595191	3798.547578	18557.105597
67.037000	0.064828	0.043672	0.071877	0.100479	5959.240950	39254.726316	3827.979939	18735.560396
67.537500	0.069400	0.044741	0.064739	0.101740	5982.820146	39238.610630	3809.366071	18689.570663
68.035000	0.068063	0.044840	0.063575	0.102721	5966.292377	39164.895684	3804.670361	18653.866222
68.535500	0.066469	0.045272	0.062931	0.108704	5912.878134	38704.219523	3790.306813	18437.913392
69.035500	0.068459	0.045902	0.067006	0.105132	5951.997424	39052.315994	3806.898408	18566.469456
69.536000	0.070931	0.047535	0.069747	0.107582	5952.150936	38984.392788	3807.536660	18478.169243
70.036000	0.068550	0.048828	0.069211	0.109732	5920.246021	38913.271605	3801.671963	18401.107819
70.535500	0.067766	0.048240	0.068751	0.117548	5860.598211	38222.916548	3783.824451	18124.099712
71.037000	0.071091	0.048622	0.076832	0.113647	5910.634447	38573.082601	3809.774261	18261.729833
71.537500	0.074009	0.050132	0.070719	0.116982	5907.726117	38423.418495	3789.252624	18143.985501
72.037500	0.074968	0.049421	0.072524	0.118773	5901.927788	38219.289184	3789.281474	18081.120901
72.535500	0.070596	0.048926	0.072456	0.126609	5818.109363	37548.147302	3772.455083	17809.138150
73.035500	0.075919	0.050398	0.076156	0.123947	5872.667461	37879.663252	3785.976620	17900.999906
73.535500	0.074961	0.051533	0.076628	0.125091	5858.210301	37878.903340	3784.540010	17861.459611
74.038500	0.076078	0.052384	0.076106	0.126253	5857.900065	37853.828569	3780.947170	17821.402682
74.539000	0.075494	0.053178	0.074990	0.132791	5809.428644	37394.515656	3764.791186	17597.997592
75.039500	0.080680	0.053915	0.079975	0.128834	5871.796192	37769.435403	3783.692973	17732.805883
75.536500	0.081575	0.054780	0.080466	0.130423	5867.021755	37711.330805	3781.351383	17678.539584
76.037000	0.080726	0.055074	0.077707	0.131620	5852.963469	37638.952318	3772.960807	17637.752299
76.538000	0.079642	0.055105	0.086099	0.135838	5816.874498	37305.690335	3781.814950	17495.046491
77.037500	0.080179	0.054972	0.077489	0.135782	5820.883500	37299.485359	3763.761493	17496.909118
77.535500	0.079155	0.056085	0.082369	0.136975	5805.898163	37293.174236	3771.499926	17456.782611
78.035500	0.079145	0.056959	0.081680	0.138451	5795.903871	37245.577422	3766.948467	17407.317243
78.535500	0.079838	0.056160	0.082887	0.140392	5787.532350	37029.495541	3765.411777	17342.497249
79.036000	0.082596	0.058512	0.086525	0.141200	5800.619661	37151.121348	3771.354538	17315.589588
79.539000	0.084196	0.057547	0.087464	0.141354	5810.368442	37062.906798	3773.011742	17310.474437
80.036500	0.085266	0.058531	0.082405	0.142378	5810.674627	37059.757673	3760.257613	17276.451773
80.536500	0.079742	0.056558	0.082060	0.146766	5744.504061	36562.991750	3750.460103	17131.641826
81.037500	0.087226	0.058922	0.088595	0.144327	5810.749431	36937.374372	3769.128213	17211.929699
81.534500	0.084699	0.058532	0.087273	0.144915	5789.792638	36860.900556	3765.124927	17192.557174
82.035000	0.085987	0.059102	0.091125	0.146498	5787.812891	36781.705242	3769.885102	17140.429975
82.535000	0.083124	0.059501	0.089802	0.151999	5732.310401	36385.937652	3755.642068	16960.828287
83.035500	0.086299	0.059832	0.089278	0.150331	5764.323916	36540.439934	3758.012955	17015.052893
83.536000	0.086744	0.059927	0.096606	0.151386	5760.269853	36466.158895	3771.133049	16980.720729
84.036000	0.089318	0.059465	0.091961	0.152227	5771.795659	36365.552100	3759.650535	16953.437389
84.536000	0.085699	0.060096	0.086756	0.159484	5700.221192	35858.718289	3734.093527	16720.045438
85.036500	0.089587	0.060543	0.098025	0.155380	5752.643510	36206.014528	3765.725687	16851.564499
85.537000	0.092350	0.062183	0.096706	0.156865	5761.111477	36217.927620	3759.871663	16803.831445
86.037000	0.090061	0.061257	0.095534	0.156695	5747.077055	36159.971796	3757.789055	16809.290298
86.538000	0.088619	0.060846	0.097622	0.158689	5724.465969	35976.176805	3757.983657	16745.415078
87.035500	0.093136	0.059948	0.095218	0.155291	5776.820993	36167.221891	3760.050927	16854.414398
87.535000	0.093793	0.061368	0.095280	0.156198	5775.152025	36206.519372	3758.293126	16825.225751
88.035500	0.092721	0.059798	0.093688	0.154811	5777.258060	36192.557149	3757.868325	16869.883604
88.535500	0.092310	0.059061	0.095903	0.157799	5754.648851	35908.056375	3756.262590	16773.876377
89.036500	0.092147	0.059906	0.094087	0.155482	5768.959120	36149.388791	3757.303627	16848.277858
89.536500	0.094212	0.059633	0.101708	0.156127	5778.424149	36079.126379	3771.894896	16827.518255
90.036500	0.092512	0.059091	0.095341	0.155760	5769.535766	36065.772145	3759.331013	16839.322376
90.534500	0.094805	0.058388	0.095400	0.155582	5786.033001	36025.712903	3759.823344	16845.059627
91.034500	0.092510	0.058449	0.097086	0.155403	5771.897441	36043.980954	3763.711607	16850.800934
91.534000	0.099191	0.058601	0.101572	0.156527	5809.167867	35969.929018	3770.765432	16814.668863
92.035000	0.094892	0.058295	0.099782	0.155941	5784.212201	35991.263559	3768.233234	16833.504844
92.535500	0.093057	0.057527	0.098398	0.157524	5761.432335	35812.534931	3762.023832	16782.700226
93.035500	0.096820	0.058106	0.100753	0.156445	5793.753664	35938.436647	3769.213111	16817.295926
93.537000	0.094281	0.057985	0.102066	0.156253	5778.042271	35943.871769	3772.385436	16823.485646
94.036000	0.095198	0.057332	0.100186	0.156169	5784.735387	35900.594902	3768.602367	16826.165799
94.536500	0.091759	0.056684	0.096765	0.159816	5737.693550	35575.761855	3753.873146	16709.460757
95.040000	0.097503	0.057955	0.104099	0.156994	5794.652701	35885.210600	3775.112597	16799.671296
95.537000	0.095242	0.057221	0.098215	0.156407	5783.436340	35874.120755	3763.975322	16818.538798
96.034500	0.096469	0.057783	0.107708	0.156820	5788.882337	35885.376860	3783.151634	16805.262050
96.538000	0.094595	0.057149	0.100017	0.158783	5763.286387	35688.693331	3762.776211	16742.433094
97.035500	0.097721	0.056924	0.098656	0.156965	5796.316580	35809.267207	3763.730164	16800.627741
97.535500	0.098034	0.058150	0.100720	0.157678	5793.630242	35848.109686	3766.557784	16777.774403
98.036000	0.096766	0.057100	0.102497	0.157406	5786.949824	35789.123996	3770.861897	16786.484191
98.539000	0.096680	0.056862	0.105888	0.157241	5787.477803	35783.609497	3778.381991	16791.760932
99.036500	0.096747	0.058022	0.100861	0.158453	5779.817418	35779.625240	3765.228984	16752.960592
