sample name	sample
index	447
start time	 03-11-2021  11:02:59 AM
880	-0.000175
Peak Time (s)	91.035
Peak Height 	-1.7514E-4
calc peak height	90,93
Baseline Time (s)	10.536
Baseline Value 	-0.00363
subtract baseline	10,4
Abs	-0.006449
Peak Time (s)	92.035
Peak Height 	-0.006449
calc peak height	90,93
Baseline Time (s)	9.535
Baseline Value 	-0.001605
subtract baseline	10,3
PK_550	-0.004034
Peak Time (s)	92.035
Peak Height 	-0.004034
calc peak height	90,93
Baseline Time (s)	9.535
Baseline Value 	8.1416E-4
subtract baseline	10,2
PK_880	-0.007832
Peak Time (s)	92.035
Peak Height 	-0.007832
calc peak height	90,93
Baseline Time (s)	8.537
Baseline Value 	-8.3382E-4
subtract baseline	10,1


Time (s)	A880-A510	A880-A775	A880-A975	A880	I510	I775	I975	I880	
0.035000	0.004034	-0.000910	0.007444	0.000828	7079.589211	45790.765312	3917.435339	24233.165242
0.535000	0.000630	-0.000091	0.002809	0.004945	7006.035590	45465.995876	3894.391730	24030.915973
1.035500	0.001567	-0.001075	0.004816	0.002552	7038.450845	45604.422536	3905.920067	24148.261498
1.535500	-0.000762	-0.000805	0.002725	0.005984	6982.528283	45294.343301	3891.465768	23980.165474
2.036500	0.003801	0.000214	0.003321	-0.000277	7088.204019	46011.690000	3909.437925	24287.789616
2.536500	0.002867	-0.000411	0.006341	-0.000988	7085.998772	46020.211406	3919.334689	24323.007532
3.036500	0.004722	-0.000052	0.005442	-0.001782	7112.262082	46135.052191	3919.056772	24362.420707
3.537000	0.001710	0.000955	0.008485	0.000994	7055.095564	45959.028343	3919.766324	24224.992151
4.040000	0.003824	-0.000180	0.008339	0.000038	7085.323111	45941.296538	3921.927444	24272.201172
4.537500	0.003425	0.000081	0.007478	-0.000401	7085.714673	46010.785435	3920.799993	24293.909460
5.035000	0.000862	-0.000669	0.006312	-0.000793	7064.328423	45975.278045	3918.737991	24313.367955
5.535500	0.000270	-0.000561	0.006650	-0.000397	7054.612399	45946.633149	3918.582464	24293.724943
6.035500	0.001515	-0.000401	-0.003954	-0.000096	7063.886118	45932.609806	3889.909919	24278.831843
6.536000	0.000143	0.000011	-0.004175	0.000149	7048.028080	45949.243263	3888.703216	24266.731069
7.036500	-0.000957	-0.000388	-0.001604	-0.000174	7040.426985	45941.711110	3896.234653	24282.714234
7.536500	0.000385	0.000015	0.004846	0.000291	7048.999895	45935.496283	3911.966662	24259.700537
8.036500	-0.001047	-0.000388	-0.002873	-0.000126	7039.077294	45936.935612	3892.800042	24280.330613
8.537500	0.000000	0.000081	0.000176	0.000322	7044.929083	45938.988752	3899.589101	24258.169429
9.037000	-0.000639	-0.000364	0.000436	-0.000403	7045.773622	45966.742338	3902.171184	24294.020695
9.535000	-0.000234	0.000000	0.000000	0.000061	7045.202114	45956.923091	3899.813827	24271.095617
10.035000	0.001012	-0.000494	-0.000006	-0.000203	7059.989866	45934.009273	3900.488434	24284.115748
10.535500	0.000340	0.000354	-0.004574	0.000000	7051.415721	45998.037375	3888.053844	24274.089691
11.036000	-0.000118	-0.000185	0.002390	-0.000299	7049.853130	45974.309135	3907.037895	24288.887740
11.536000	0.000917	0.000981	-0.000880	0.000557	7051.607722	46005.045385	3896.214600	24246.577833
12.036500	-0.000269	-0.000634	-0.002182	-0.000375	7049.118574	45937.273829	3895.250112	24292.656148
12.537000	0.001489	-0.000098	0.000443	0.000033	7062.357915	45949.855682	3901.046367	24272.442360
13.037000	-0.001999	-0.000498	-0.002639	0.003515	6994.422380	45566.416526	3883.963560	24100.935973
13.537000	0.001451	0.000291	0.004228	0.000060	7061.723609	45985.840175	3910.942528	24271.125457
14.043000	0.001022	0.001190	0.004151	0.000528	7052.920653	46028.617545	3909.501272	24247.979468
14.537000	-0.000869	0.000107	0.000547	0.003633	7004.221954	45614.316437	3891.916631	24095.150987
15.035000	-0.004612	-0.000432	0.000030	0.003523	6969.157022	45572.183913	3890.858845	24100.567786
15.535500	0.001394	-0.000262	0.005223	-0.000552	7067.176425	45991.722462	3915.199924	24301.386663
16.036000	0.002444	0.000094	0.001323	-0.000380	7075.822261	46009.962022	3904.440785	24292.876761
16.539000	0.002618	-0.000432	0.003070	-0.000782	7081.508976	45997.710347	3910.107592	24312.806955
17.036500	-0.001679	-0.000120	-0.002755	0.005707	6976.360478	45388.437098	3878.019662	23993.708523
17.536000	0.001049	0.000455	0.006779	-0.002126	7079.284805	46219.879173	3923.539789	24379.472752
18.039500	0.001023	0.000638	0.003510	0.001488	7043.527118	45878.585449	3905.279715	24200.604253
18.534500	0.000120	-0.000092	-0.002441	0.001519	7034.399549	45803.375363	3889.647477	24199.101426
19.035000	-0.000732	-0.000419	0.000005	0.003129	7010.443713	45612.190860	3891.818960	24119.914954
19.535000	0.001033	0.001111	0.006222	0.002621	7032.550487	45813.273310	3909.443037	24144.837930
20.035500	-0.002145	-0.000287	0.000404	0.001580	7011.755310	45778.079674	3896.896127	24196.099623
20.536000	-0.001729	-0.000939	0.000692	0.001219	7019.316038	45749.342785	3898.592992	24213.910481
21.036000	-0.001560	-0.000461	0.000870	0.002813	7005.464132	45639.194203	3894.892633	24135.405278
21.536000	-0.000397	0.000698	0.001115	0.002437	7020.421305	45790.680222	3896.517080	24153.927751
22.036500	0.001126	-0.000096	0.002883	0.001302	7046.352343	45824.377199	3904.120264	24209.779569
22.537000	-0.000962	0.000386	0.002824	0.001629	7022.784808	45839.744435	3903.108232	24193.685260
23.037000	-0.000312	0.000092	0.004212	0.002189	7023.656768	45755.278631	3905.283399	24166.096751
23.537500	0.000782	-0.000260	-0.001694	0.001070	7045.256167	45831.154548	3892.754890	24221.228135
24.035000	-0.000901	-0.000888	0.001636	0.000786	7031.598386	45797.140742	3902.202960	24235.276421
24.535500	-0.000217	0.000946	0.003225	0.002117	7025.284826	45846.770316	3902.876380	24169.624605
25.035500	-0.000927	0.000062	0.003743	0.001572	7023.679743	45813.267524	3905.674530	24196.476922
25.536000	-0.001275	-0.000297	-0.000074	0.001556	7020.451346	45779.456728	3895.711286	24197.296860
26.036000	0.000639	0.000577	0.001538	0.001901	7035.737678	45831.691875	3899.022527	24180.269928
26.536500	0.000169	0.000034	0.008892	0.001955	7030.626868	45772.704409	3918.289676	24177.608244
27.036500	0.000352	0.000885	0.002017	0.002241	7029.627038	45828.593965	3899.385341	24163.559087
27.540000	0.001310	-0.000057	-0.000025	0.000431	7056.703809	45914.593435	3898.778195	24252.798684
28.037000	0.003097	0.000520	0.004878	-0.001212	7090.490593	46135.214222	3916.038700	24334.124915
28.534000	0.001810	0.000074	0.002451	-0.000301	7068.805421	46000.185108	3907.204163	24288.979392
29.043500	-0.001823	0.000136	0.001320	0.004276	6988.769115	45553.995843	3892.255863	24063.648481
29.535500	0.000336	-0.000432	0.003263	-0.000650	7057.743165	45984.484782	3910.268145	24306.236652
30.035000	0.001951	0.000668	0.006611	-0.000158	7068.787239	46044.989507	3917.843529	24281.918386
30.536000	0.002597	0.000915	-0.001170	0.000211	7071.506483	46032.859379	3896.359677	24263.644344
31.046000	-0.001219	-0.000268	0.005526	0.003284	7004.207427	45611.759515	3905.860490	24112.285907
31.536500	-0.002522	-0.000678	0.002151	0.002762	6996.644673	45622.840149	3898.373155	24137.918571
32.037000	-0.001771	-0.000407	-0.001556	0.000879	7022.212856	45835.458253	3893.612532	24230.665842
32.537500	0.001769	0.000456	0.005652	-0.000052	7065.945709	46013.332707	3915.012019	24276.637704
33.037500	-0.003620	0.000050	0.005048	0.005253	6962.072838	45449.582514	3899.437103	24015.880622
33.535000	0.002584	-0.000270	0.003871	-0.000480	7078.195053	45983.759624	3911.428267	24297.837716
34.035000	0.001052	0.000596	0.003230	-0.000177	7060.126085	46039.688694	3908.931238	24282.822521
34.537000	0.001368	0.000163	0.003722	-0.000118	7062.660492	45990.785908	3910.075574	24279.918869
35.035000	-0.002294	-0.000517	0.001103	0.003085	6995.723749	45606.839363	3894.792260	24122.044784
35.536500	-0.000368	0.000200	0.005729	0.002652	7018.604754	45720.193577	3908.059394	24143.314344
36.036500	-0.001442	0.000322	0.000452	0.002455	7010.084909	45751.702903	3894.738536	24153.018835
36.536500	0.000598	-0.000250	0.004812	0.002310	7031.355297	45709.594715	3906.547130	24160.168222
37.039500	-0.000975	-0.000331	0.001863	0.003701	7002.539843	45564.604043	3895.167624	24091.845007
37.534500	-0.001534	-0.000261	0.000946	0.002056	7013.065227	45733.544808	3897.067645	24172.642507
38.037500	-0.000351	-0.000124	0.000743	0.002432	7020.915637	45710.061070	3895.558083	24154.167496
38.535000	-0.002309	-0.000275	0.002814	0.002211	7004.039142	45716.824192	3901.552383	24165.007740
39.035000	-0.000123	0.000421	0.003024	0.002920	7018.387505	45715.579011	3900.245307	24130.174409
39.535500	-0.001449	-0.000226	0.005015	0.002160	7012.879401	45726.746547	3907.476588	24167.524767
40.036000	-0.000140	-0.000395	0.003712	0.002186	7025.364324	45707.589421	3903.978647	24166.274257
40.536500	-0.000249	0.000427	0.004693	0.003058	7015.824244	45702.603789	3904.263775	24123.400158
41.037000	-0.001766	-0.001180	0.003397	0.001792	7013.376747	45668.983626	3904.184058	24185.651747
41.537000	0.000734	0.000152	-0.000336	0.002817	7027.730446	45699.216698	3891.743082	24135.226024
42.037500	-0.000366	0.000115	0.001268	0.002457	7020.526941	45731.168961	3896.862388	24152.943244
42.534500	-0.001432	-0.000522	0.001823	0.002308	7011.612668	45683.014989	3898.703435	24160.270735
43.035000	-0.001018	-0.000886	0.000452	0.003470	7004.355702	45532.733630	3892.092676	24103.148404
43.535000	-0.000698	-0.000631	0.001289	0.002108	7020.692854	45691.963912	3897.829355	24170.087338
44.035500	-0.000146	0.000323	0.004284	0.002718	7020.130191	45725.917806	3904.083151	24140.108441
44.535500	-0.001333	0.000479	0.006779	0.002915	7006.687831	45721.858988	3910.141916	24130.427383
45.036500	-0.001084	-0.000364	0.002668	0.004296	6995.722811	45502.865325	3895.716691	24062.692364
45.536500	0.001440	-0.000160	0.006284	-0.000919	7071.251436	46038.386677	3918.998401	24319.598467
46.036500	-0.000013	0.000235	0.004143	-0.000038	7048.321270	45990.025959	3910.977094	24275.948103
46.539500	0.001141	-0.000412	0.001389	-0.000960	7068.708630	46017.431002	3906.141935	24321.632155
47.037000	-0.001797	-0.000586	-0.000278	0.004460	6987.246395	45464.968244	3887.628819	24054.656360
47.537500	0.000486	0.000495	0.006843	-0.000307	7055.856355	46042.609449	3918.856697	24289.269553
48.035000	0.003695	0.000821	0.004104	0.000058	7083.855878	46038.717715	3910.620218	24271.234049
48.540500	0.001741	0.000299	0.000495	-0.000276	7067.883262	46020.001510	3901.993417	24287.744134
49.035500	-0.000464	0.000399	-0.004039	0.004269	7001.983355	45580.546126	3878.416061	24064.005509
49.536000	0.000694	-0.000581	0.004201	0.001204	7043.088964	45786.095594	3907.849404	24214.615213
50.063500	0.002228	0.000993	0.002470	-0.000081	7070.762688	46069.664318	3906.674925	24278.118122
50.535500	0.000989	-0.001262	0.003360	-0.001640	7073.907239	46000.526437	3913.148577	24355.374167
51.040000	-0.001772	-0.000931	-0.003943	0.004906	6983.175040	45387.466174	3877.026410	24032.810297
51.536000	0.002597	0.000399	0.010200	-0.001937	7092.717976	46195.461426	3932.214668	24370.098483
52.034500	0.002404	0.000396	0.002055	0.000336	7068.389056	45968.916183	3904.485936	24257.500471
52.537000	-0.006481	-0.003955	0.002910	0.002557	6960.476995	45321.369899	3900.896711	24147.979280
53.035000	-0.048811	-0.010392	-0.010836	0.363138	4442.199145	21096.057694	3243.188454	12103.907096
53.535500	-0.037931	-0.014173	-0.022054	0.003591	6660.281320	44235.345544	3834.739770	24097.246828
54.036000	-0.046436	-0.018527	-0.027091	-0.128477	7932.433442	58381.971508	4199.123135	31667.809079
54.534000	-0.026597	-0.158258	-0.020041	-0.320834	11169.206185	65535.000000	5036.403663	47756.623158
55.036500	-0.122686	-0.302962	-0.111228	-0.465539	12161.115791	65535.000000	5334.638679	65535.000000
55.535000	-0.038392	-0.147289	-0.010509	-0.309865	10741.576526	65535.000000	5028.890335	46635.265600
56.036500	-0.031511	-0.144723	-0.005311	-0.307300	10820.932084	65535.000000	5042.674605	46377.049885
56.536000	-0.035585	-0.118374	-0.007705	-0.280951	10277.939471	65535.000000	4896.637390	43811.551437
57.037500	-0.026379	-0.126710	-0.016017	-0.289287	10586.379292	65535.000000	4896.752275	44606.410492
57.536500	-0.012527	-0.119442	-0.010278	-0.282019	10705.398225	65535.000000	4889.252546	43912.533878
58.035000	-0.011961	-0.092287	-0.009473	-0.254864	10235.624195	65535.000000	4764.041616	41420.399132
58.534500	-0.015311	-0.056173	-0.010608	-0.211037	9469.699955	64431.596797	4567.168042	37712.760699
59.035500	-0.017736	-0.035000	-0.013597	-0.174073	8890.952718	62232.898452	4408.536269	34863.839655
59.535000	-0.012877	-0.023370	-0.010084	-0.146025	8574.005700	60030.344354	4318.115039	32858.300728
60.036500	-0.005884	-0.014324	-0.008498	-0.123475	8370.649998	58279.754397	4244.796396	31337.147265
60.539000	-0.010771	-0.009644	-0.014465	-0.085735	7849.383615	54217.340911	4102.859983	28961.620256
61.037500	-0.012888	-0.008148	-0.015374	-0.063884	7577.994501	51865.711065	4034.417587	27677.693782
61.536500	-0.014725	-0.009102	-0.008672	-0.055767	7469.614986	50852.683311	4030.278536	27216.967516
62.034500	-0.015111	-0.010431	-0.009050	-0.052351	7428.873567	50331.212457	4019.249898	27025.656649
62.535000	-0.017554	-0.010023	-0.012102	-0.038677	7260.059758	48902.897508	3971.762134	26274.646850
63.035500	-0.020525	-0.009186	-0.015657	-0.023807	7080.337403	47438.833798	3921.521044	25484.322357
63.537000	-0.014779	-0.006191	-0.014225	-0.015439	7054.554690	46890.748647	3903.157068	25051.373448
64.036000	-0.011813	-0.005449	-0.012923	-0.023016	7159.224716	47742.302091	3926.721204	25443.070872
64.535500	-0.009513	-0.004343	-0.015502	-0.021220	7164.285575	47670.976378	3915.048374	25349.586897
65.037000	-0.008748	-0.004002	-0.013181	-0.019645	7156.145236	47543.891608	3917.031349	25267.951381
65.542500	-0.005440	-0.003945	-0.012971	-0.020958	7202.794720	47685.092025	3921.089340	25335.992196
66.037500	-0.005114	-0.003925	-0.003828	-0.019766	7194.018692	47564.199542	3942.498295	25274.190348
66.536000	-0.005724	-0.003272	-0.008841	-0.018023	7170.256537	47452.209639	3924.281720	25184.196145
67.035000	-0.009542	-0.002841	-0.010970	-0.010079	7053.337265	46687.298534	3897.639865	24778.367476
67.537500	-0.005156	-0.002450	-0.012343	-0.014465	7140.226920	47172.133567	3905.544032	25001.511618
68.035500	-0.004280	-0.002258	-0.009327	-0.013090	7135.241162	47051.548667	3909.870386	24931.294980
68.536000	-0.005222	-0.001744	-0.009168	-0.011376	7108.782837	46929.652174	3905.772666	24844.154440
69.036500	-0.005956	-0.002550	-0.012899	-0.005587	7044.471759	46265.413454	3880.979140	24552.181517
69.536000	-0.002534	-0.001615	-0.007079	-0.008571	7107.609831	46658.827078	3903.886915	24702.164132
70.040000	-0.004095	-0.001364	-0.007105	-0.007204	7078.631033	46546.426685	3900.229453	24633.317632
70.537000	-0.003903	-0.001245	-0.011450	-0.005736	7066.073331	46411.030479	3885.101958	24559.664769
71.034500	-0.008962	-0.000715	-0.013737	0.003217	6930.461657	45574.398773	3856.415073	24115.568424
71.536500	-0.001922	0.000445	-0.014965	-0.001244	7041.442971	46130.917676	3864.590168	24335.697703
72.035000	-0.004440	0.000383	-0.005991	-0.001251	7016.965777	46125.455015	3887.623414	24336.072030
72.535500	-0.001454	0.000230	-0.007770	-0.001350	7047.064813	46120.047194	3883.277970	24340.958297
73.036000	-0.005921	-0.000493	-0.013269	0.004320	6948.962899	45487.869593	3854.817825	24061.491308
73.535500	-0.003348	0.000250	-0.004936	-0.000947	7024.633573	46081.943203	3889.571289	24320.993725
74.036000	-0.000409	0.000963	-0.009774	-0.000365	7047.657418	46094.982420	3875.591677	24292.168783
74.535500	-0.001634	0.000371	-0.009057	-0.001293	7044.743307	46128.354272	3879.812924	24338.119588
75.037000	-0.005994	-0.000090	-0.016820	0.002598	6964.774295	45696.977650	3850.226396	24146.009749
75.536000	0.000353	0.000402	-0.008221	-0.001530	7066.571270	46155.213657	3882.581191	24349.913963
76.037000	-0.000144	-0.000399	-0.009865	-0.001917	7065.471635	46113.860492	3879.340044	24369.083564
76.537500	-0.002533	0.000815	-0.006847	-0.001119	7034.254782	46155.385668	3885.067547	24329.510754
77.035500	-0.003356	-0.000599	-0.011862	-0.000939	7024.479765	45996.735340	3871.714912	24320.579216
77.537000	-0.002647	0.000252	-0.010294	-0.001445	7036.332704	46131.750500	3877.027908	24345.680897
78.035500	-0.002114	-0.000855	-0.012134	-0.001638	7043.418568	46040.691991	3872.805164	24355.228517
78.536000	-0.000809	-0.000198	-0.009787	-0.001840	7058.187397	46126.259860	3879.343797	24365.286637
79.036000	-0.006391	-0.001581	-0.009086	0.001424	6972.231562	45665.731064	3872.771580	24203.774030
79.535000	-0.002472	-0.000646	-0.005069	-0.001932	7042.797553	46090.761131	3891.785978	24369.871134
80.037000	-0.002233	-0.000644	-0.010747	-0.002022	7046.007077	46099.876150	3877.343092	24374.301350
80.536000	-0.003978	-0.002194	-0.008170	-0.003296	7041.415599	46072.465010	3887.276901	24437.739108
81.035000	-0.005566	-0.001027	-0.010246	0.001850	6976.074057	45678.337289	3868.722453	24182.800734
81.537500	-0.002917	-0.001645	-0.008636	-0.002776	7046.694397	46075.331327	3884.722687	24411.800312
82.035500	-0.004414	-0.001111	-0.010238	-0.002654	7030.883644	46116.360998	3880.279056	24405.756814
82.536000	-0.003990	-0.001864	-0.007534	-0.003068	7039.067314	46082.678779	3888.334084	24426.375129
83.036000	-0.006101	-0.002010	-0.009427	0.002003	6969.459007	45566.434049	3870.421659	24175.267645
83.539000	-0.004284	-0.002100	-0.009938	-0.003631	7041.692632	46115.142935	3883.569330	24454.423508
84.039500	-0.004521	-0.001967	-0.013091	-0.003645	7039.507642	46129.810100	3875.494540	24455.119152
84.536500	-0.004826	-0.001439	-0.009381	-0.003497	7035.082769	46167.702291	3884.662886	24447.736433
85.036500	-0.007519	-0.002635	-0.007151	-0.000403	6978.955459	45741.980427	3882.431224	24294.025270
85.537000	-0.005634	-0.003270	-0.008375	-0.004572	7037.693067	46092.357804	3890.052294	24501.392424
86.035000	-0.004656	-0.002183	-0.007887	-0.003979	7041.460412	46141.566929	3889.781745	24471.781356
86.538000	-0.007178	-0.003253	-0.009421	-0.004652	7023.411455	46102.019818	3887.548275	24505.391581
87.035500	-0.008649	-0.003230	-0.014723	-0.002543	6988.711850	45894.827241	3868.509226	24400.247967
87.536000	-0.006831	-0.002404	-0.008387	-0.003835	7018.838110	46105.172478	3888.110563	24464.590670
88.036000	-0.008045	-0.002568	-0.011080	-0.004100	7009.622594	46115.250584	3881.833924	24477.823532
88.536000	-0.007448	-0.003111	-0.005896	-0.004570	7019.994762	46108.008747	3896.505202	24501.296557
89.037000	-0.011158	-0.004282	-0.009642	-0.000030	6940.479319	45542.911401	3875.068602	24275.552152
89.537000	-0.009778	-0.003877	-0.004647	-0.005032	7001.859587	46077.718673	3900.980472	24524.391954
90.036500	-0.008078	-0.004398	-0.011317	-0.004873	7016.806781	46010.057842	3883.214554	24516.429310
90.534500	-0.011259	-0.004164	-0.007246	-0.004918	6986.426215	46037.765670	3893.888933	24518.673865
91.035000	-0.013314	-0.004352	-0.012297	-0.000175	6921.336607	45550.321641	3868.657851	24282.753095
91.535000	-0.009635	-0.005169	-0.009197	-0.005613	7008.875192	46007.066701	3890.623757	24553.493516
92.035500	-0.007832	-0.004034	-0.006449	-0.004319	7013.819051	45991.243821	3894.406379	24488.766228
92.535500	-0.010044	-0.005419	-0.011961	-0.005223	7001.130170	45943.449581	3882.457820	24533.950045
93.036000	-0.010073	-0.005172	-0.009972	-0.003991	6988.935226	45845.845279	3884.411565	24472.377763
93.538500	-0.008595	-0.005333	-0.008461	-0.004771	7010.795797	45907.223753	3890.346890	24511.361024
94.036500	-0.012106	-0.005622	-0.009851	-0.004849	6977.607053	45886.302320	3886.944210	24515.252435
94.536500	-0.011085	-0.004693	-0.005565	-0.004538	6984.445628	45947.584645	3897.285537	24499.711970
95.034000	-0.010168	-0.004210	-0.006653	-0.002557	6974.194659	45799.167734	3889.292099	24400.917619
95.612500	-0.009434	-0.005294	-0.006380	-0.004000	6995.199476	45834.677944	3893.754752	24472.835922
96.035000	-0.012007	-0.005369	-0.008303	-0.004091	6971.266417	45836.282857	3888.992476	24477.390913
96.565500	-0.010293	-0.004405	-0.006991	-0.003286	6980.010577	45851.969084	3890.305646	24437.193537
97.036000	-0.009415	-0.005336	-0.006292	-0.004307	6998.353168	45860.878035	3894.785426	24488.152376
97.535500	-0.011989	-0.005528	-0.006332	-0.004083	6971.357428	45819.730388	3894.095929	24476.955852
98.036500	-0.012997	-0.005586	-0.002876	-0.004441	6965.109531	45849.396250	3904.080225	24494.843751
98.596500	-0.012655	-0.006177	-0.010345	-0.004989	6973.668755	45845.202940	3886.028041	24522.268051
99.036500	-0.012879	-0.005942	-0.008233	-0.004452	6966.348003	45815.321067	3890.111199	24495.410799
