sample name	sample
index	464
start time	 03-11-2021  11:58:52 AM
880	0.076242
Peak Time (s)	92.536
Peak Height 	0.07624
calc peak height	90,93
Baseline Time (s)	11.536
Baseline Value 	-0.003458
subtract baseline	10,4
Abs	0.027492
Peak Time (s)	90.538
Peak Height 	0.02749
calc peak height	90,93
Baseline Time (s)	9.534
Baseline Value 	0.002724
subtract baseline	10,3
PK_550	0.016902
Peak Time (s)	90.038
Peak Height 	0.0169
calc peak height	90,93
Baseline Time (s)	9.037
Baseline Value 	1.2277E-4
subtract baseline	10,2
PK_880	0.029071
Peak Time (s)	92.041
Peak Height 	0.02907
calc peak height	90,93
Baseline Time (s)	8.537
Baseline Value 	0.001607
subtract baseline	10,1


Time (s)	A880-A510	A880-A775	A880-A975	A880	I510	I775	I975	I880	
0.034500	-0.006111	-0.000397	-0.003389	0.006666	6969.647253	45189.051480	3926.065892	23989.882237
0.535000	-0.003728	-0.000650	-0.002020	0.004602	7012.170983	45365.863895	3934.974294	24090.666749
1.035500	-0.002749	-0.000193	-0.001412	0.003732	7029.979271	45495.759408	3938.829266	24133.263022
1.538000	-0.000731	-0.000065	-0.002146	0.001498	7071.218283	45728.129919	3942.756450	24243.110226
2.036000	-0.005799	-0.001209	-0.003221	0.006103	6977.982656	45164.774724	3927.954794	24017.305331
2.536500	0.001157	-0.000027	0.001164	0.000992	7094.620053	45781.824958	3952.810841	24268.075193
3.036500	-0.000019	-0.000490	0.002740	-0.001753	7110.035588	46007.965206	3964.303270	24404.016527
3.537000	-0.001590	-0.000158	-0.000667	0.000151	7075.986643	45852.142761	3950.194192	24309.653782
4.037000	-0.000731	0.000022	-0.000129	0.001423	7071.962078	45744.266497	3948.259382	24246.848770
4.537500	-0.000798	0.000604	-0.000463	0.000633	7079.007970	45879.791427	3949.460146	24285.812386
5.037000	0.000534	-0.000121	-0.002845	0.000235	7095.946274	45847.437539	3944.239553	24305.497810
5.535000	-0.001598	-0.000319	-0.000793	0.000031	7077.078471	45847.988105	3950.177599	24315.551088
6.035500	0.001578	0.000859	0.002491	0.000523	7103.352997	45915.925922	3957.572066	24291.231707
6.536000	0.001110	-0.000518	0.000134	-0.000395	7107.780933	45870.462649	3953.756754	24336.668201
7.036000	-0.000460	0.000823	-0.001037	0.000085	7087.673224	45955.828588	3949.393133	24312.909979
7.539000	-0.000620	0.000950	0.000661	0.000162	7085.352904	45960.658525	3953.674335	24309.077614
8.037000	-0.000506	0.000400	-0.000503	-0.000075	7088.794994	45929.756508	3951.224712	24320.834237
8.537000	0.000000	-0.000162	-0.003904	-0.000215	7095.118139	45887.955097	3942.639844	24327.749745
9.037500	0.000023	0.000000	0.001074	-0.000110	7094.310608	45893.525993	3955.490818	24322.536650
9.534500	-0.000510	0.000061	0.000000	0.000200	7086.054999	45868.838675	3951.826522	24307.207082
10.035000	-0.000843	-0.000211	-0.000771	-0.000497	7089.619522	45910.948054	3951.631491	24341.703967
10.535000	-0.003218	-0.000512	-0.003585	0.003311	7029.522787	45505.880947	3934.260456	24153.943155
11.036000	0.002022	0.000183	0.001909	0.000022	7112.648950	45898.572763	3957.358839	24316.022208
11.536000	0.001512	0.000052	0.000074	0.000000	7107.847782	45887.847613	3952.551704	24317.105591
12.039000	0.000962	0.001338	0.002821	0.000104	7101.426018	46005.070910	3959.565558	24311.974286
12.536500	-0.002098	0.000758	0.000862	0.004098	7032.737597	45553.314723	3943.827990	24115.355334
13.037000	0.000275	0.000332	-0.000892	-0.000340	7099.038947	45949.218544	3950.896153	24333.921960
13.537000	0.001869	0.000629	0.006868	0.000546	7105.983947	45890.843295	3969.198005	24290.097732
14.034500	-0.002210	-0.000039	-0.002578	0.002829	7043.930835	45599.691551	3938.143160	24177.632730
14.535000	-0.002429	-0.000092	-0.000974	0.003852	7031.910993	45493.935793	3939.662189	24127.398864
15.035500	0.000628	-0.000060	0.000282	-0.000591	7104.962675	45935.179050	3954.667586	24346.344233
15.535000	-0.000394	-0.000287	-0.002169	-0.000631	7095.329064	45916.761474	3948.294619	24348.343543
16.036000	0.001829	0.000848	0.005656	0.000236	7108.644938	45943.281562	3966.782948	24305.443423
16.538500	-0.003548	-0.000102	-0.002846	0.005104	7009.079249	45370.285118	3931.518492	24066.096350
17.036000	0.001359	0.000590	-0.001071	-0.002195	7127.973475	46159.253341	3955.331315	24425.947682
17.537000	-0.000306	0.000015	0.000770	0.001045	7079.793861	45780.861157	3951.628255	24265.487625
18.037000	-0.001158	-0.000222	0.000299	0.000343	7078.323910	45826.763135	3952.238104	24300.138766
18.537000	-0.001116	0.001085	-0.001329	0.003131	7051.602534	45680.539898	3940.619378	24162.769921
19.034500	-0.001168	0.000196	0.000497	0.001359	7068.321317	45767.633541	3950.076760	24249.977152
19.535000	-0.003254	-0.000011	0.000722	0.001017	7051.366659	45780.982118	3951.576183	24266.859847
20.035000	-0.000654	0.000928	0.000070	0.001831	7068.731901	45793.374052	3947.707233	24226.737220
20.536000	-0.003488	-0.000422	-0.001128	0.002271	7036.960933	45616.903058	3943.399281	24205.050866
21.036000	-0.003885	-0.000058	0.000789	0.001496	7040.618443	45729.130744	3950.487894	24243.232535
21.536500	0.000665	-0.000260	0.001981	0.001181	7087.951246	45740.215718	3954.472692	24258.741503
22.036500	-0.001049	-0.000234	0.000753	0.001312	7069.947646	45729.910431	3950.879559	24252.325250
22.537000	-0.000869	0.000243	0.002014	0.001317	7071.643640	45776.404998	3954.199509	24252.044445
23.037000	-0.000027	0.000248	-0.001989	0.001523	7077.850923	45756.649167	3943.104995	24241.905015
23.537500	-0.000706	0.000431	0.001226	0.001035	7075.986248	45822.851425	3952.861931	24265.967474
24.034500	-0.000254	0.001708	0.002419	0.002286	7068.201304	45825.498087	3952.707902	24204.332448
24.535500	-0.000583	0.000366	-0.003533	0.002047	7067.318573	45716.555904	3937.692210	24216.100107
25.035000	-0.002069	0.000173	0.000822	0.001585	7057.359508	45743.101389	3950.340028	24238.845127
25.536000	-0.003586	-0.000538	0.001986	0.000897	7049.312156	45740.824438	3955.238894	24272.783174
26.036500	-0.002414	-0.000121	-0.000412	0.001171	7058.034971	45754.923660	3948.176136	24259.263855
26.536500	-0.001315	0.000700	-0.001358	0.002347	7057.288410	45719.961122	3942.599339	24201.328835
27.036500	-0.000524	0.000088	0.003133	0.001400	7074.205024	45752.967787	3956.949668	24247.961542
27.536500	-0.000687	0.000751	0.002311	-0.000156	7087.804256	45972.487864	3958.898679	24324.803918
28.034000	-0.000797	0.000173	0.002901	-0.000184	7087.014807	45918.003579	3960.545366	24326.223212
28.537500	-0.001696	0.000201	-0.004403	-0.000097	7077.370920	45912.200394	3941.023591	24321.917711
29.035000	-0.000215	0.000479	-0.000458	0.000583	7085.199590	45872.350425	3949.605310	24288.297527
29.535500	0.000133	0.001007	-0.001632	0.002740	7067.551484	45711.428969	3940.849353	24182.006695
30.035500	0.000933	0.001030	0.000620	0.000744	7094.859239	45911.020271	3952.027356	24280.337076
30.536000	0.001103	0.000530	0.001569	0.000723	7096.728904	45863.484395	3954.595995	24281.354194
31.036000	-0.001182	-0.000097	0.000362	0.002816	7054.023005	45595.299168	3945.885345	24178.277629
31.536000	-0.001213	0.001045	-0.001657	0.003236	7049.647442	45666.289778	3939.488174	24157.648637
32.037000	-0.001769	0.000552	0.005267	0.000638	7069.486171	45874.152544	3964.664811	24285.556579
32.537000	-0.002206	0.000652	-0.001466	0.005972	7013.632584	45359.156418	3932.850821	24023.718582
33.034500	-0.001205	0.000535	0.000761	0.000037	7080.855945	45931.998779	3954.271567	24315.277263
33.535000	-0.001061	0.000648	0.000942	0.001861	7064.483120	45762.783519	3949.929204	24225.260171
34.035000	0.000049	0.001524	0.000425	0.002987	7064.320616	45738.017960	3945.598185	24169.857613
34.535000	0.000472	-0.000363	-0.002486	0.002384	7074.317132	45611.528105	3939.545806	24199.507725
35.038500	-0.002162	0.000215	-0.006057	0.002550	7047.093322	45652.097281	3929.813881	24191.317671
35.536000	-0.000966	0.000811	-0.000711	0.002711	7057.131093	45694.984332	3943.340754	24183.414708
36.036500	-0.000041	-0.000298	0.000908	0.001901	7074.025770	45665.459333	3949.730247	24223.254849
36.536500	-0.000725	0.000047	0.002347	0.002066	7065.758303	45683.227467	3953.099343	24215.164451
37.037000	-0.001146	-0.000027	0.005553	0.001646	7065.749607	45717.377614	3962.736076	24235.845936
37.537500	0.000227	0.000859	0.000738	0.002653	7069.309041	45705.463826	3947.302864	24186.270625
38.034500	-0.001098	0.000354	0.004404	0.001730	7065.391692	45746.643901	3959.451878	24231.715444
38.535000	-0.001468	-0.000031	0.000247	0.001556	7063.478152	45725.839015	3948.898684	24240.259335
39.035500	-0.001699	-0.000380	0.001697	0.001581	7060.992611	45689.007580	3952.662371	24239.050244
39.535500	-0.001433	-0.000079	0.001280	0.001601	7063.388822	45716.670547	3951.507070	24238.059269
40.035000	-0.001738	0.000222	0.002792	0.001775	7058.732026	45729.227113	3955.049268	24229.483461
40.539000	-0.001993	0.000290	-0.001452	0.001752	7056.479001	45738.151189	3943.913491	24230.617771
41.036000	-0.003179	0.000547	0.004252	0.002003	7042.543544	45738.807059	3958.319935	24218.262153
41.536500	-0.002364	0.001134	0.003136	0.002757	7043.131356	45722.286304	3953.356672	24181.138114
42.034500	-0.002043	0.000445	-0.003442	0.002156	7052.070680	45713.653259	3937.645027	24210.728071
42.537000	-0.003286	0.000889	0.001035	0.003041	7031.470122	45670.125279	3947.062216	24167.221889
43.034500	-0.002800	0.000002	0.002032	0.001469	7051.385384	45737.631513	3953.844889	24244.557228
43.535000	-0.001580	0.000293	-0.000606	0.000808	7069.673725	45831.689696	3948.622197	24277.170222
44.035000	0.002705	0.000995	0.005195	-0.002770	7146.995285	46256.989242	3973.617003	24454.571625
44.536000	-0.003561	0.000206	-0.000718	0.005467	7005.474013	45364.989560	3936.112399	24048.371308
45.036000	0.000580	0.000794	0.003446	0.000340	7095.359500	45927.593193	3960.602017	24300.295033
45.536000	-0.002890	0.000328	-0.004284	0.004242	7023.702224	45496.903551	3930.025008	24108.282627
46.036500	0.000217	0.000803	0.003727	0.000164	7093.530695	45946.033914	3961.818858	24309.017124
46.536500	-0.004296	0.000343	-0.005735	0.005543	6997.697024	45370.913138	3922.907476	24044.638185
47.034000	0.001155	0.000966	0.001764	0.001016	7094.369354	45877.658545	3954.336101	24266.902076
47.537500	-0.002089	0.000113	0.000532	0.004365	7030.249486	45463.849005	3942.263051	24102.286414
48.034500	-0.001027	0.000017	-0.000934	0.000263	7080.392148	45858.354091	3949.194331	24304.109197
48.535000	-0.003166	0.000113	-0.001811	0.005471	7009.217889	45355.441164	3933.254500	24048.152955
49.038000	-0.001127	0.000011	0.002852	-0.000659	7088.432039	45949.028387	3961.682043	24349.742292
49.535500	-0.002038	-0.000168	0.002835	0.003562	7038.496053	45515.025520	3950.436046	24141.641833
50.036500	0.001222	-0.000197	0.001036	-0.001366	7118.433938	45998.526802	3958.725802	24384.763722
50.536500	-0.002454	-0.000444	-0.002611	0.003765	7032.516593	45468.050225	3935.616299	24131.692213
51.036500	-0.044789	-0.010762	-0.003841	0.385710	4417.086065	20143.837669	3272.089634	11672.685713
51.536500	-0.032623	-0.004938	-0.023369	0.153116	5612.354337	32766.422417	3568.755648	17934.134291
52.034500	-0.051760	-0.009565	-0.026407	-0.001077	6624.326344	45050.444442	3887.273440	24370.440473
52.534500	-0.031293	-0.028696	-0.030608	-0.166358	8645.165037	61918.645627	4373.864845	34344.435173
53.035000	-0.037200	-0.129879	-0.034460	-0.293363	10512.734364	65535.000000	4888.685662	45048.364222
53.538000	-0.128004	-0.301693	-0.126912	-0.465178	12086.531163	65535.000000	5306.738790	65535.000000
54.035500	-0.042297	-0.152269	-0.022822	-0.315753	10824.474274	65535.000000	5058.623077	47281.751296
54.536000	-0.044538	-0.141319	-0.016770	-0.304803	10585.545672	65535.000000	5033.333450	46175.093658
55.036000	-0.036096	-0.115976	-0.014814	-0.279461	10289.854121	65535.000000	4916.443313	43718.376932
55.536500	-0.028608	-0.111343	-0.021404	-0.274827	10339.000511	65535.000000	4862.542524	43284.536612
56.036500	-0.014758	-0.101511	-0.017668	-0.264996	10408.727892	65535.000000	4833.846017	42379.094613
56.536500	-0.009811	-0.082253	-0.014309	-0.245738	10163.312652	65535.000000	4760.865538	40663.836727
57.037000	-0.009116	-0.051260	-0.010664	-0.205800	9530.422004	64257.860301	4603.951819	37340.138964
57.535000	-0.013424	-0.030498	-0.010514	-0.170129	8941.864669	62186.981826	4462.569673	34619.293356
58.038000	0.001728	-0.018071	-0.010086	-0.146569	8824.833290	60686.160582	4376.519656	32940.896631
58.535500	-0.007609	-0.008371	-0.014576	-0.090166	7983.841109	54793.071122	4170.747080	29274.067227
59.035500	-0.003278	-0.003180	-0.007076	-0.067822	7774.792614	52783.035863	4124.809743	27948.192022
59.536000	0.000416	-0.004119	-0.008111	-0.060645	7735.361260	51859.307986	4100.063554	27536.587270
60.036500	0.001401	-0.002529	-0.002545	-0.050424	7632.299627	50895.607936	4086.241861	26961.998156
60.536500	-0.003100	-0.003063	-0.003402	-0.036609	7434.309682	49335.357683	4043.635079	26206.546562
61.037000	-0.003436	0.000192	-0.002221	-0.012335	7181.094380	47140.845470	3979.420763	24936.014723
61.537500	-0.002973	0.002543	0.005090	0.007241	6994.106463	45420.107302	3946.682274	23961.908486
62.034500	0.006376	0.007201	-0.000202	0.024422	6919.828365	44211.128463	3889.038007	23142.368820
62.535000	0.009053	0.006998	0.003175	0.009205	7091.515374	45664.720699	3936.516682	23866.547511
63.035500	0.011442	0.007601	0.004713	0.012646	7081.232932	45386.072713	3931.563954	23700.565346
63.535000	0.012876	0.008380	0.006460	0.016581	7056.862410	45078.427205	3925.895425	23512.362018
64.035500	0.014591	0.008911	0.003824	0.020916	7031.485389	44710.375391	3908.025363	23306.963157
64.536000	0.015224	0.009379	0.004935	0.024066	7007.261018	44453.002418	3902.853761	23159.031352
65.036500	0.014747	0.010377	0.010260	0.028166	6963.544864	44157.156420	3905.956509	22968.047162
65.536500	0.012225	0.009930	0.008187	0.036490	6861.796557	43332.050700	3879.882055	22585.817195
66.034000	0.014915	0.010100	0.009287	0.033339	6916.273032	43642.448377	3890.467559	22729.647056
66.537000	0.011628	0.010606	0.010231	0.039528	6828.254295	43112.554940	3877.420554	22448.112263
67.034500	0.016456	0.011617	0.010173	0.039378	6874.253564	43220.309858	3877.647156	22454.901729
67.535000	0.014507	0.012095	0.006147	0.047618	6780.663234	42505.879573	3847.738231	22086.142442
68.038500	0.019534	0.013810	0.012544	0.046106	6840.470733	42801.330243	3866.925216	22153.269285
68.535500	0.018964	0.014186	0.015048	0.049004	6808.642005	42570.257850	3865.963362	22024.818597
69.036000	0.021035	0.014556	0.013488	0.052852	6792.428869	42253.689969	3852.817344	21855.525397
69.536500	0.018344	0.014672	0.009635	0.060006	6703.795047	41620.963780	3826.560457	21544.765562
70.036500	0.019997	0.014725	0.014188	0.056595	6749.129970	41931.000205	3845.489063	21692.266101
70.537000	0.020171	0.015638	0.012467	0.063618	6687.945013	41385.659807	3824.726331	21389.798047
71.040000	0.023810	0.016333	0.015994	0.059927	6753.472923	41776.403111	3841.837317	21548.164821
71.537500	0.020993	0.015625	0.017201	0.063200	6698.943335	41421.576313	3836.908997	21407.648827
72.037500	0.025739	0.017463	0.024390	0.062255	6749.874308	41669.326640	3856.444371	21448.124084
72.535500	0.024474	0.017953	0.019623	0.063547	6726.906147	41597.737948	3841.858886	21392.803372
73.035500	0.025493	0.017293	0.011109	0.063195	6739.202181	41570.274183	3822.528545	21407.863629
73.536000	0.022894	0.018066	0.017629	0.069393	6660.975904	41090.056444	3823.283851	21144.669807
74.036000	0.030793	0.019137	0.023643	0.065267	6768.305785	41549.928437	3847.372112	21319.450889
74.536500	0.025279	0.018125	0.015577	0.069136	6684.314085	41117.882853	3819.080558	21155.524730
75.036500	0.028290	0.019275	0.021937	0.065262	6745.770146	41562.760213	3843.291656	21319.683051
75.537000	0.025769	0.018643	0.018922	0.070328	6678.093808	41058.580278	3824.124210	21105.278444
76.034500	0.028481	0.019487	0.020327	0.065709	6743.464797	41541.711154	3838.377831	21300.632146
76.537500	0.026507	0.018680	0.019246	0.069631	6690.805170	41123.150798	3826.527029	21134.645590
77.035000	0.029138	0.019014	0.020187	0.065666	6749.771094	41503.538150	3838.148389	21302.490077
77.535500	0.026081	0.018559	0.023065	0.071272	6672.510109	40968.356883	3831.668420	21065.605582
78.035500	0.031055	0.019816	0.024620	0.066890	6756.012073	41466.012099	3845.818294	21250.483439
78.535500	0.024917	0.018856	0.023157	0.071376	6661.333868	40985.300229	3831.640930	21061.261610
79.036000	0.028190	0.019092	0.025473	0.066541	6733.379494	41432.697102	3848.706764	21265.294388
79.536500	0.026266	0.018325	0.016842	0.070719	6679.026343	40996.276547	3818.335925	21088.836615
80.037500	0.029118	0.018436	0.021568	0.066857	6738.873368	41346.498027	3838.600525	21251.888175
80.537000	0.026557	0.017793	0.021323	0.071167	6677.640831	40910.462051	3827.802999	21070.022715
81.038000	0.028585	0.018292	0.027160	0.067273	6730.355795	41296.958175	3851.008073	21234.264538
81.537000	0.025344	0.018339	0.020072	0.071407	6664.821462	40937.234918	3824.292130	21059.957767
82.035000	0.029891	0.019066	0.020889	0.068568	6730.452834	41250.935841	3832.918932	21179.468011
82.535500	0.030649	0.019470	0.020355	0.069438	6729.455327	41209.842504	3829.599497	21142.773344
83.035500	0.026932	0.017659	0.026971	0.068403	6705.491190	41141.368202	3847.833045	21186.439198
83.536000	0.027488	0.018712	0.024973	0.073634	6664.090464	40775.148023	3830.596277	20966.748610
84.036500	0.028055	0.018077	0.023423	0.069140	6708.926362	41113.249958	3837.578802	21155.317658
84.537000	0.026692	0.018366	0.026197	0.070058	6688.653431	41057.956873	3842.008095	21116.652169
85.037000	0.030950	0.018414	0.026064	0.071010	6718.083131	40978.656090	3839.419849	21076.637324
85.537000	0.028582	0.017919	0.024427	0.070097	6705.098689	41015.223961	3837.692327	21114.993253
86.037500	0.029534	0.018159	0.027825	0.071033	6705.247754	40954.239056	3843.572275	21075.654285
86.535500	0.026973	0.017759	0.028715	0.070800	6684.573479	40939.614134	3846.264801	21085.451823
87.035000	0.028956	0.017976	0.026773	0.071127	6699.274717	40930.024210	3840.830914	21071.721187
87.535500	0.028047	0.017509	0.027294	0.070859	6693.569622	40912.533300	3842.717422	21082.970136
88.038500	0.028805	0.018089	0.027231	0.071231	6696.995456	40930.723714	3841.677367	21067.332092
88.536500	0.027815	0.017522	0.027148	0.071229	6688.225900	40881.293433	3841.483143	21067.409911
89.036500	0.027824	0.016748	0.030899	0.071010	6690.249325	40832.790296	3851.012652	21076.609348
89.537000	0.023917	0.016512	0.022209	0.074422	6625.877473	40515.359689	3822.231022	20933.865610
90.037500	0.028712	0.016902	0.027063	0.071578	6693.085864	40796.567086	3840.445188	21052.762690
90.537500	0.024369	0.016674	0.027492	0.075484	6620.561173	40437.515025	3832.179169	20889.655330
91.035000	0.026474	0.016243	0.024821	0.071657	6672.579281	40732.267363	3834.919860	21049.452891
91.535000	0.023720	0.016868	0.024238	0.074722	6621.547514	40520.216798	3826.295090	20921.372492
92.041000	0.029071	0.016797	0.025583	0.072059	6692.015281	40745.538558	3835.776297	21032.628281
92.536000	0.024976	0.016696	0.021636	0.076242	6619.245920	40373.882763	3816.635446	20858.177487
93.041000	0.024449	0.015844	0.028960	0.071171	6659.012362	40739.853367	3845.961271	21069.852548
93.536000	0.024148	0.016876	0.029142	0.074282	6629.117284	40559.082824	3838.955611	20939.713707
94.039000	0.026763	0.016028	0.027447	0.071484	6676.660172	40728.597555	3841.588251	21056.730685
94.536500	0.023567	0.016130	0.021750	0.076739	6602.691569	40282.298737	3815.740088	20837.559623
95.037000	0.024735	0.015660	0.026099	0.071658	6657.243293	40681.375066	3837.957247	21049.415650
95.537500	0.025009	0.015169	0.026124	0.073178	6646.306633	40506.775972	3834.403774	20985.776411
96.040500	0.024945	0.014772	0.033735	0.072231	6654.063464	40554.532529	3854.915564	21025.413682
