sample name	sample
index	132
start time	 02-15-2021  01:26:49 PM


Wavelength (nm)	Absorbance
494.344910	-0.280271
494.563924	-0.280271
494.782919	-0.280271
495.001897	NaN
495.220856	-0.533049
495.439797	-0.541410
495.658719	-0.500559
495.877624	-0.338428
496.096510	-0.331063
496.315378	-0.124382
496.534227	NaN
496.753059	0.734870
496.971872	0.019758
497.190667	0.041855
497.409444	0.025520
497.628203	0.024685
497.846943	0.020215
498.065665	0.020486
498.284369	0.018837
498.503055	0.021195
498.721723	0.020018
498.940372	0.020358
499.159003	0.019208
499.377616	0.020366
499.596210	0.019514
499.814787	0.019648
500.033345	0.018666
500.251885	0.019466
500.470406	0.017457
500.688910	0.017446
500.907395	0.018866
501.125862	0.019045
501.344311	0.019122
501.562742	0.019257
501.781154	0.020234
501.999548	0.022914
502.217924	0.019132
502.436282	0.018579
502.654621	0.017638
502.872942	0.017809
503.091245	0.016954
503.309530	0.014756
503.527797	0.014989
503.746045	0.013672
503.964275	0.011969
504.182487	0.015233
504.400681	0.016153
504.618856	0.018655
504.837013	0.017085
505.055152	0.016877
505.273273	0.017915
505.491376	0.015985
505.709460	0.017805
505.927526	0.017999
506.145574	0.016885
506.363604	0.017527
506.581615	0.015631
506.799608	0.017020
507.017583	0.018442
507.235540	0.018667
507.453478	0.019191
507.671399	0.017329
507.889301	0.017578
508.107185	0.018790
508.325050	0.017394
508.542898	0.017324
508.760727	0.015631
508.978538	0.015066
509.196330	0.013400
509.414105	0.014087
509.631861	0.014681
509.849599	0.014618
510.067319	0.014549
510.285021	0.014516
510.502704	0.014381
510.720369	0.015297
510.938016	0.015680
511.155645	0.015520
511.373255	0.014650
511.590848	0.015902
511.808422	0.015151
512.025977	0.013468
512.243515	0.014013
512.461034	0.014237
512.678536	0.013532
512.896018	0.011792
513.113483	0.013463
513.330930	0.012829
513.548358	0.011985
513.765768	0.012083
513.983160	0.011500
514.200533	0.011741
514.417889	0.012905
514.635226	0.012725
514.852545	0.015292
515.069845	0.013934
515.287128	0.013657
515.504392	0.012696
515.721638	0.012365
515.938866	0.013493
516.156075	0.012081
516.373267	0.011568
516.590440	0.012089
516.807594	0.011219
517.024731	0.012355
517.241850	0.014366
517.458950	0.014560
517.676032	0.013819
517.893095	0.013892
518.110141	0.013681
518.327168	0.014256
518.544177	0.014663
518.761168	0.014020
518.978141	0.013919
519.195095	0.012293
519.412031	0.013544
519.628949	0.014450
519.845849	0.013813
520.062731	0.014199
520.279594	0.013002
520.496439	0.014198
520.713266	0.014811
520.930074	0.013158
521.146865	0.013395
521.363637	0.012952
521.580391	0.013605
521.797127	0.014139
522.013844	0.015438
522.230543	0.015999
522.447224	0.013943
522.663887	0.012588
522.880532	0.013299
523.097158	0.012871
523.313766	0.012874
523.530356	0.013179
523.746928	0.012948
523.963481	0.011879
524.180017	0.011333
524.396534	0.011235
524.613032	0.012955
524.829513	0.012737
525.045975	0.013162
525.262420	0.012315
525.478845	0.011504
525.695253	0.011120
525.911643	0.010553
526.128014	0.011501
526.344367	0.011645
526.560702	0.009454
526.777018	0.009419
526.993316	0.010381
527.209597	0.010605
527.425858	0.010497
527.642102	0.011024
527.858328	0.011880
528.074535	0.010924
528.290724	0.011045
528.506894	0.012325
528.723047	0.013441
528.939181	0.012945
529.155297	0.013355
529.371395	0.014006
529.587475	0.013632
529.803536	0.012281
530.019579	0.013309
530.235604	0.014746
530.451611	0.015787
530.667600	0.014868
530.883570	0.015149
531.099522	0.014853
531.315456	0.013105
531.531372	0.013165
531.747269	0.013296
531.963148	0.012266
532.179009	0.011430
532.394852	0.010535
532.610676	0.010491
532.826482	0.010344
533.042271	0.009773
533.258040	0.011728
533.473792	0.010509
533.689525	0.012485
533.905240	0.012407
534.120937	0.011372
534.336616	0.011494
534.552277	0.011979
534.767919	0.012204
534.983543	0.012176
535.199149	0.011415
535.414736	0.012644
535.630306	0.011067
535.845857	0.011758
536.061390	0.012158
536.276904	0.011420
536.492401	0.011053
536.707879	0.010765
536.923339	0.011489
537.138781	0.011560
537.354204	0.011964
537.569610	0.012645
537.784997	0.012368
538.000366	0.012916
538.215716	0.013180
538.431049	0.013035
538.646363	0.013030
538.861659	0.012264
539.076937	0.011568
539.292196	0.010800
539.507438	0.010262
539.722661	0.010292
539.937866	0.009687
540.153052	0.010278
540.368221	0.010748
540.583371	0.009922
540.798503	0.009994
541.013617	0.010112
541.228712	0.010879
541.443789	0.010515
541.658848	0.010298
541.873889	0.011064
542.088912	0.009888
542.303916	0.009105
542.518902	0.010067
542.733870	0.009969
542.948820	0.010750
543.163752	0.009858
543.378665	0.009961
543.593560	0.009476
543.808437	0.007838
544.023295	0.008517
544.238136	0.009430
544.452958	0.009733
544.667762	0.009856
544.882548	0.009371
545.097315	0.009079
545.312064	0.009992
545.526795	0.010954
545.741508	0.011618
545.956203	0.012159
546.170879	0.011798
546.385537	0.010676
546.600177	0.011104
546.814799	0.011266
547.029402	0.011708
547.243988	0.011050
547.458555	0.010529
547.673103	0.011529
547.887634	0.011121
548.102146	0.011638
548.316640	0.012025
548.531116	0.011732
548.745574	0.011938
548.960013	0.011717
549.174435	0.012240
549.388838	0.012395
549.603222	0.011461
549.817589	0.010893
550.031937	0.009953
550.246267	0.009810
550.460579	0.010326
550.674873	0.010112
550.889148	0.010177
551.103405	0.010089
551.317644	0.009839
551.531865	0.009399
551.746068	0.009392
551.960252	0.009906
552.174418	0.010008
552.388566	0.010241
552.602696	0.009419
552.816807	0.009572
553.030900	0.009135
553.244975	0.009081
553.459032	0.009472
553.673070	0.009994
553.887091	0.009586
554.101093	0.009776
554.315077	0.009375
554.529042	0.009931
554.742990	0.009516
554.956919	0.009302
555.170830	0.009574
555.384722	0.009607
555.598597	0.009389
555.812453	0.009396
556.026291	0.009020
556.240111	0.008866
556.453913	0.008857
556.667696	0.009314
556.881461	0.009383
557.095208	0.008920
557.308937	0.008927
557.522647	0.008793
557.736339	0.008729
557.950013	0.008829
558.163669	0.008797
558.377307	0.008624
558.590926	0.008620
558.804527	0.008474
559.018110	0.008690
559.231675	0.009179
559.445221	0.009160
559.658749	0.009389
559.872259	0.009678
560.085751	0.008939
560.299225	0.009141
560.512680	0.008693
560.726117	0.008764
560.939536	0.008678
561.152937	0.007268
561.366319	0.007138
561.579683	0.007225
561.793029	0.006860
562.006357	0.007094
562.219667	0.006739
562.432958	0.007366
562.646231	0.007355
562.859486	0.007471
563.072723	0.008062
563.285941	0.007832
563.499141	0.008035
563.712323	0.008345
563.925487	0.008288
564.138632	0.009276
564.351760	0.008885
564.564869	0.009547
564.777960	0.009766
564.991032	0.010257
565.204087	0.010266
565.417123	0.009563
565.630141	0.008875
565.843140	0.008521
566.056122	0.008451
566.269085	0.008126
566.482030	0.007781
566.694957	0.007605
566.907866	0.007271
567.120756	0.007821
567.333628	0.007488
567.546482	0.007657
567.759318	0.008095
567.972135	0.007063
568.184935	0.007589
568.397716	0.007198
568.610478	0.007868
568.823223	0.008055
569.035949	0.007421
569.248657	0.008375
569.461347	0.008665
569.674019	0.008910
569.886672	0.009078
570.099308	0.009137
570.311925	0.009343
570.524523	0.008423
570.737104	0.008521
570.949666	0.009197
571.162210	0.009456
571.374736	0.008908
571.587244	0.008713
571.799733	0.009093
572.012205	0.008443
572.224658	0.008989
572.437092	0.009201
572.649509	0.008972
572.861907	0.008533
573.074287	0.008040
573.286649	0.008515
573.498993	0.008298
573.711318	0.007957
573.923625	0.008087
574.135914	0.007467
574.348185	0.006777
574.560438	0.006180
574.772672	0.005992
574.984888	0.005880
575.197086	0.005774
575.409266	0.005493
575.621427	0.005916
575.833570	0.006069
576.045695	0.005900
576.257802	0.006327
576.469890	0.007109
576.681961	0.006807
576.894013	0.006692
577.106046	0.007072
577.318062	0.007829
577.530059	0.007902
577.742039	0.008172
577.954000	0.008432
578.165942	0.008688
578.377867	0.008184
578.589773	0.008686
578.801661	0.008608
579.013531	0.007718
579.225382	0.007685
579.437216	0.007292
579.649031	0.007278
579.860828	0.007394
580.072606	0.006949
580.284367	0.007448
580.496109	0.007973
580.707833	0.008583
580.919539	0.008791
581.131227	0.008684
581.342896	0.008737
581.554547	0.008532
581.766180	0.008382
581.977795	0.008539
582.189391	0.008113
582.400969	0.007465
582.612529	0.007153
582.824071	0.007442
583.035595	0.007913
583.247100	0.007481
583.458587	0.007529
583.670056	0.007359
583.881506	0.007532
584.092939	0.007995
584.304353	0.008414
584.515749	0.008462
584.727127	0.008782
584.938486	0.008239
585.149828	0.008426
585.361151	0.007738
585.572456	0.007831
585.783742	0.007566
585.995011	0.007105
586.206261	0.006642
586.417493	0.006312
586.628706	0.006289
586.839902	0.005911
587.051079	0.006348
587.262238	0.007674
587.473379	0.007540
587.684502	0.007450
587.895606	0.007271
588.106692	0.007702
588.317760	0.007699
588.528810	0.007308
588.739841	0.008033
588.950855	0.007924
589.161850	0.007472
589.372827	0.008125
589.583785	0.008242
589.794726	0.008811
590.005648	0.008803
590.216552	0.009168
590.427437	0.009538
590.638305	0.009156
590.849154	0.009116
591.059985	0.009205
591.270798	0.008684
591.481592	0.008379
591.692369	0.008120
591.903127	0.007958
592.113867	0.007638
592.324588	0.007403
592.535292	0.006887
592.745977	0.006771
592.956644	0.006818
593.167293	0.006765
593.377923	0.006958
593.588536	0.006866
593.799130	0.006518
594.009706	0.006811
594.220263	0.006944
594.430803	0.007159
594.641324	0.007308
594.851827	0.006717
595.062312	0.006936
595.272778	0.006843
595.483227	0.007058
595.693657	0.007244
595.904069	0.007169
596.114462	0.006691
596.324838	0.007274
596.535195	0.007568
596.745534	0.007137
596.955855	0.006943
597.166157	0.007007
597.376441	0.007564
597.586707	0.007998
597.796955	0.007756
598.007185	0.007852
598.217396	0.007311
598.427589	0.006850
598.637764	0.007451
598.847921	0.007150
599.058060	0.007689
599.268180	0.007100
599.478282	0.006755
599.688366	0.006901
599.898431	0.006997
600.108479	0.007174
600.318508	0.007232
600.528519	0.006469
600.738511	0.007164
600.948486	0.006825
601.158442	0.006486
601.368380	0.006558
601.578300	0.006398
601.788202	0.006991
601.998085	0.007034
602.207950	0.007054
602.417797	0.007463
602.627626	0.007236
602.837436	0.007589
603.047228	0.008164
603.257002	0.008780
603.466758	0.008961
603.676496	0.008723
603.886215	0.008470
604.095916	0.008296
604.305599	0.008956
604.515264	0.008993
604.724910	0.008791
604.934538	0.009003
605.144148	0.008259
605.353740	0.008161
605.563314	0.008060
605.772869	0.008166
605.982406	0.008458
606.191925	0.008387
606.401425	0.008332
606.610908	0.008256
606.820372	0.007639
607.029818	0.007710
607.239246	0.007682
607.448655	0.007467
607.658047	0.008031
607.867420	0.007770
608.076775	0.007499
608.286111	0.007350
608.495430	0.007310
608.704730	0.008153
608.914012	0.008023
609.123275	0.008082
609.332521	0.007797
609.541748	0.007049
609.750957	0.007198
609.960148	0.007403
610.169321	0.007104
610.378475	0.006636
610.587611	0.005919
610.796729	0.006607
611.005829	0.007000
611.214910	0.007039
611.423974	0.007057
611.633019	0.006837
611.842045	0.006474
612.051054	0.006607
612.260044	0.006950
612.469017	0.007010
612.677970	0.006729
612.886906	0.006405
613.095824	0.006666
613.304723	0.006595
613.513604	0.006465
613.722467	0.006372
613.931311	0.006411
614.140138	0.006117
614.348946	0.005417
614.557736	0.005276
614.766507	0.005202
614.975261	0.005036
615.183996	0.005530
615.392713	0.005711
615.601412	0.006366
615.810092	0.006146
616.018754	0.006383
616.227399	0.006710
616.436024	0.006564
616.644632	0.006808
616.853222	0.006214
617.061793	0.006363
617.270346	0.006494
617.478880	0.006326
617.687397	0.006469
617.895895	0.006595
618.104375	0.006972
618.312837	0.006825
618.521281	0.006832
618.729706	0.007580
618.938113	0.007257
619.146502	0.006983
619.354873	0.007121
619.563226	0.006965
619.771560	0.006948
619.979876	0.007069
620.188174	0.007314
620.396453	0.006798
620.604715	0.006696
620.812958	0.006787
621.021183	0.007172
621.229390	0.006663
621.437578	0.006864
621.645748	0.006845
621.853900	0.006743
622.062034	0.006774
622.270150	0.007093
622.478247	0.007142
622.686326	0.007105
622.894387	0.006766
623.102430	0.007301
623.310454	0.007431
623.518461	0.007365
623.726449	0.006933
623.934418	0.006653
624.142370	0.006657
624.350303	0.006788
624.558218	0.007140
624.766115	0.007411
624.973994	0.007182
625.181855	0.007068
625.389697	0.007093
625.597521	0.007342
625.805327	0.007489
626.013114	0.007322
626.220883	0.006957
626.428634	0.006367
626.636367	0.006295
626.844082	0.006045
627.051778	0.006164
627.259457	0.006240
627.467117	0.006594
627.674758	0.006593
627.882382	0.006138
628.089987	0.006395
628.297574	0.006931
628.505143	0.006823
628.712694	0.006944
628.920226	0.006964
629.127740	0.006707
629.335236	0.006684
629.542714	0.006692
629.750174	0.007029
629.957615	0.007079
630.165038	0.006508
630.372443	0.006614
630.579829	0.006713
630.787198	0.006394
630.994548	0.006445
631.201880	0.006053
631.409194	0.005727
631.616489	0.006170
631.823766	0.005806
632.031025	0.005973
632.238266	0.006109
632.445489	0.006002
632.652693	0.006395
632.859879	0.006022
633.067047	0.006242
633.274197	0.006664
633.481329	0.006399
633.688442	0.006741
633.895537	0.006719
634.102614	0.006763
634.309672	0.006647
634.516713	0.006419
634.723735	0.006934
634.930739	0.006916
635.137724	0.007177
635.344692	0.007549
635.551641	0.007715
635.758572	0.007997
635.965485	0.007792
636.172379	0.008098
636.379256	0.008203
636.586114	0.008474
636.792954	0.008876
636.999775	0.008178
637.206579	0.007795
637.413364	0.007598
637.620131	0.007507
637.826880	0.007394
638.033610	0.007196
638.240323	0.007309
638.447017	0.007017
638.653692	0.006691
638.860350	0.006892
639.066990	0.006958
639.273611	0.007012
639.480214	0.006853
639.686798	0.007349
639.893365	0.007414
640.099913	0.007321
640.306443	0.007027
640.512955	0.007382
640.719449	0.007367
640.925924	0.007262
641.132381	0.007217
641.338820	0.007178
641.545241	0.006926
641.751644	0.006691
641.958028	0.006625
642.164394	0.007003
642.370742	0.006827
642.577071	0.006857
642.783383	0.006970
642.989676	0.006888
643.195951	0.006721
643.402207	0.006570
643.608446	0.007130
643.814666	0.007644
644.020868	0.007244
644.227052	0.007036
644.433218	0.007130
644.639365	0.007454
644.845494	0.007830
645.051605	0.007915
645.257698	0.008350
645.463772	0.008325
645.669828	0.008183
645.875866	0.008387
646.081886	0.008145
646.287888	0.008090
646.493871	0.007871
646.699836	0.007584
646.905783	0.007700
647.111712	0.007143
647.317622	0.006999
647.523514	0.006954
647.729388	0.007158
647.935244	0.007145
648.141082	0.007173
648.346901	0.006809
648.552702	0.006836
648.758485	0.006771
648.964250	0.006839
649.169996	0.006742
649.375724	0.006229
649.581434	0.006117
649.787126	0.006057
649.992800	0.006541
650.198455	0.006694
650.404092	0.006532
650.609711	0.006488
650.815311	0.006332
651.020894	0.005944
651.226458	0.006286
651.432004	0.006014
651.637532	0.006269
651.843041	0.005143
652.048532	0.005127
652.254006	0.004992
652.459460	0.005308
652.664897	0.005443
652.870315	0.005467
653.075716	0.005615
653.281097	0.005800
653.486461	0.005426
653.691807	0.006275
653.897134	0.006092
654.102443	0.006253
654.307734	0.006013
654.513006	0.006080
654.718261	0.006490
654.923497	0.006077
655.128715	0.006056
655.333915	0.006533
655.539096	0.006209
655.744259	0.006522
655.949404	0.006812
656.154531	0.006771
656.359640	0.007056
656.564730	0.007068
656.769802	0.007360
656.974856	0.007664
657.179892	0.007824
657.384909	0.008140
657.589908	0.008182
657.794889	0.008004
657.999852	0.008224
658.204797	0.007777
658.409723	0.007658
658.614631	0.007632
658.819521	0.007317
659.024393	0.007102
659.229246	0.006911
659.434081	0.006659
659.638898	0.006502
659.843697	0.006439
660.048478	0.006533
660.253240	0.006700
660.457984	0.006407
660.662710	0.006076
660.867417	0.005894
661.072107	0.005733
661.276778	0.005925
661.481431	0.005878
661.686066	0.005694
661.890682	0.005855
662.095281	0.005359
662.299861	0.005260
662.504422	0.005632
662.708966	0.005526
662.913491	0.005725
663.117999	0.005492
663.322488	0.005478
663.526958	0.005439
663.731411	0.005240
663.935845	0.005248
664.140261	0.005575
664.344659	0.005729
664.549038	0.005889
664.753400	0.005556
664.957743	0.005712
665.162068	0.005592
665.366375	0.005790
665.570663	0.006060
665.774933	0.006042
665.979185	0.005970
666.183419	0.006037
666.387635	0.006351
666.591832	0.006649
666.796011	0.006624
667.000172	0.006781
667.204315	0.006653
667.408439	0.006387
667.612545	0.006830
667.816634	0.006833
668.020703	0.006928
668.224755	0.006873
668.428788	0.006851
668.632803	0.006701
668.836800	0.006772
669.040779	0.006920
669.244739	0.006703
669.448681	0.006527
669.652605	0.006508
669.856511	0.006263
670.060399	0.006034
670.264268	0.006308
670.468119	0.006391
670.671952	0.006343
670.875767	0.006350
671.079563	0.006794
671.283341	0.006648
671.487101	0.006832
671.690843	0.006881
671.894567	0.007057
672.098272	0.006954
672.301959	0.007489
672.505628	0.007400
672.709278	0.007177
672.912911	0.007068
673.116525	0.007329
673.320121	0.007424
673.523699	0.007555
673.727258	0.007453
673.930799	0.007192
674.134322	0.007071
674.337827	0.007454
674.541314	0.007738
674.744782	0.007661
674.948232	0.007841
675.151664	0.007731
675.355078	0.007691
675.558474	0.008021
675.761851	0.008074
675.965210	0.007689
676.168551	0.007511
676.371873	0.007412
676.575178	0.007554
676.778464	0.007487
676.981732	0.007493
677.184981	0.007426
677.388213	0.007108
677.591426	0.007064
677.794621	0.007122
677.997798	0.007317
678.200956	0.007179
678.404097	0.007058
678.607219	0.007140
678.810323	0.006875
679.013408	0.006695
679.216476	0.006489
679.419525	0.006612
679.622556	0.006719
679.825569	0.006648
680.028563	0.006838
680.231540	0.006804
680.434498	0.006327
680.637438	0.006306
680.840359	0.006207
681.043263	0.006359
681.246148	0.006335
681.449015	0.006036
681.651864	0.005817
681.854694	0.005456
682.057506	0.005525
682.260301	0.005796
682.463076	0.005920
682.665834	0.005960
682.868573	0.005550
683.071295	0.005731
683.273998	0.005900
683.476682	0.005849
683.679349	0.005896
683.881997	0.005874
684.084627	0.005654
684.287239	0.005994
684.489833	0.006559
684.692408	0.006935
684.894965	0.006750
685.097504	0.006785
685.300025	0.006832
685.502527	0.007035
685.705012	0.007042
685.907478	0.007004
686.109925	0.006568
686.312355	0.006078
686.514766	0.006180
686.717159	0.005953
686.919534	0.005793
687.121891	0.005855
687.324230	0.006039
687.526550	0.005910
687.728852	0.006097
687.931136	0.006030
688.133401	0.006132
688.335649	0.006187
688.537878	0.006367
688.740089	0.006550
688.942281	0.006641
689.144456	0.006532
689.346612	0.006594
689.548750	0.006454
689.750870	0.006645
689.952971	0.006785
690.155055	0.006427
690.357120	0.006448
690.559167	0.006517
690.761195	0.006293
690.963206	0.006079
691.165198	0.006262
691.367172	0.006554
691.569128	0.006442
691.771065	0.006539
691.972984	0.006736
692.174885	0.006956
692.376768	0.006610
692.578633	0.006833
692.780479	0.006774
692.982308	0.006788
693.184118	0.006616
693.385909	0.006543
693.587683	0.006384
693.789438	0.006507
693.991175	0.006280
694.192894	0.006347
694.394595	0.006251
694.596277	0.006463
694.797941	0.006179
694.999587	0.006094
695.201215	0.006315
695.402824	0.006324
695.604416	0.006172
695.805989	0.006549
696.007543	0.006763
696.209080	0.006723
696.410598	0.006529
696.612099	0.006645
696.813580	0.006434
697.015044	0.006275
697.216490	0.006178
697.417917	0.006539
697.619326	0.006216
697.820717	0.005890
698.022089	0.006132
698.223444	0.006298
698.424780	0.006195
698.626098	0.006112
698.827397	0.006063
699.028679	0.005784
699.229942	0.005447
699.431187	0.005349
699.632414	0.005690
699.833622	0.005615
700.034813	0.005578
700.235985	0.005989
700.437139	0.006146
700.638274	0.006062
700.839392	0.006260
701.040491	0.006187
701.241572	0.006326
701.442635	0.005906
701.643679	0.005663
701.844706	0.005744
702.045714	0.005363
702.246704	0.005305
702.447675	0.005266
702.648629	0.004992
702.849564	0.004980
703.050481	0.004733
703.251380	0.004971
703.452260	0.005081
703.653122	0.005248
703.853966	0.005244
704.054792	0.005379
704.255600	0.005581
704.456389	0.006135
704.657160	0.005965
704.857913	0.005767
705.058648	0.005901
705.259365	0.005796
705.460063	0.005533
705.660743	0.005279
705.861405	0.005193
706.062048	0.005387
706.262674	0.004830
706.463281	0.004698
706.663870	0.005139
706.864441	0.005028
707.064993	0.004927
707.265527	0.005012
707.466043	0.005166
707.666541	0.005146
707.867021	0.004713
708.067482	0.005015
708.267925	0.005341
708.468350	0.005037
708.668757	0.005025
708.869145	0.005120
709.069516	0.005036
709.269868	0.005050
709.470201	0.005030
709.670517	0.005066
709.870814	0.004856
710.071093	0.004886
710.271354	0.004861
710.471597	0.004686
710.671821	0.004538
710.872028	0.004640
711.072216	0.004640
711.272385	0.004638
711.472537	0.004787
711.672670	0.005047
711.872785	0.004696
712.072882	0.004818
712.272961	0.004842
712.473021	0.004922
712.673063	0.004575
712.873087	0.004493
713.073093	0.004463
713.273081	0.004103
713.473050	0.003809
713.673001	0.004002
713.872934	0.003926
714.072849	0.004099
714.272745	0.003746
714.472623	0.003821
714.672483	0.004191
714.872325	0.004418
715.072148	0.004706
715.271954	0.004863
715.471741	0.004927
715.671509	0.004954
715.871260	0.004757
716.070992	0.005227
716.270707	0.005295
716.470403	0.005205
716.670080	0.005045
716.869740	0.004993
717.069381	0.004951
717.269004	0.004654
717.468609	0.004605
717.668195	0.004764
717.867764	0.004720
718.067314	0.004858
718.266846	0.004612
718.466360	0.004505
718.665855	0.004187
718.865332	0.004303
719.064791	0.004406
719.264232	0.004266
719.463655	0.004059
719.663059	0.003721
719.862445	0.003406
720.061813	0.003429
720.261163	0.003335
720.460494	0.003840
720.659807	0.003924
720.859102	0.004203
721.058379	0.004222
721.257638	0.004139
721.456878	0.004162
721.656100	0.004277
721.855304	0.004268
722.054490	0.004225
722.253657	0.004168
722.452806	0.003966
722.651937	0.003451
722.851050	0.003512
723.050145	0.003641
723.249221	0.003830
723.448279	0.003864
723.647319	0.003466
723.846340	0.003572
724.045344	0.003291
724.244329	0.003303
724.443296	0.003637
724.642245	0.003600
724.841175	0.003524
725.040088	0.003642
725.238982	0.003413
725.437857	0.003439
725.636715	0.003173
725.835554	0.003152
726.034376	0.002983
726.233179	0.002896
726.431963	0.002699
726.630730	0.002563
726.829478	0.002029
727.028208	0.002042
727.226920	0.002149
727.425614	0.002245
727.624289	0.002248
727.822946	0.002113
728.021585	0.002054
728.220206	0.002199
728.418808	0.002211
728.617392	0.002378
728.815958	0.002279
729.014506	0.002305
729.213036	0.002129
729.411547	0.002321
729.610040	0.002418
729.808515	0.002455
730.006972	0.002487
730.205410	0.002528
730.403831	0.002517
730.602233	0.002591
730.800616	0.002503
730.998982	0.002767
731.197329	0.002718
731.395658	0.002780
731.593969	0.002465
731.792262	0.002647
731.990536	0.002651
732.188793	0.002546
732.387031	0.002462
732.585250	0.002830
732.783452	0.002807
732.981635	0.002638
733.179800	0.002187
733.377947	0.002362
733.576076	0.001763
733.774186	0.001603
733.972278	0.001613
734.170352	0.001682
734.368408	0.001400
734.566446	0.001335
734.764465	0.001666
734.962466	0.002074
735.160449	0.002037
735.358413	0.002535
735.556360	0.002517
735.754288	0.002649
735.952198	0.002612
736.150090	0.002431
736.347963	0.002201
736.545818	0.001804
736.743655	0.001575
736.941474	0.001577
737.139275	0.001509
737.337057	0.001575
737.534821	0.001556
737.732567	0.001605
737.930295	0.001379
738.128005	0.001725
738.325696	0.001420
738.523369	0.001394
738.721024	0.001461
738.918660	0.001343
739.116279	0.001530
739.313879	0.001348
739.511461	0.001590
739.709024	0.001539
739.906570	0.001439
740.104097	0.001694
740.301606	0.001948
740.499097	0.001860
740.696569	0.001942
740.894024	0.001723
741.091460	0.001798
741.288878	0.001447
741.486277	0.001572
741.683659	0.001516
741.881022	0.001604
742.078367	0.001452
742.275694	0.001506
742.473002	0.001149
742.670293	0.001404
742.867565	0.001390
743.064819	0.001177
743.262054	0.001427
743.459272	0.001423
743.656471	0.001287
743.853652	0.001364
744.050815	0.001223
744.247959	0.001356
744.445085	0.001126
744.642194	0.001238
744.839283	0.001774
745.036355	0.001693
745.233408	0.001641
745.430444	0.001459
745.627461	0.001023
745.824459	0.001167
746.021440	0.001259
746.218402	0.001163
746.415346	0.000923
746.612272	0.000728
746.809180	0.000968
747.006069	0.000906
747.202940	0.001237
747.399793	0.001442
747.596628	0.001419
747.793444	0.001489
747.990243	0.001902
748.187023	0.002084
748.383784	0.002090
748.580528	0.001966
748.777253	0.002442
748.973960	0.002483
749.170649	0.002447
749.367320	0.002776
749.563973	0.002716
749.760607	0.002601
749.957223	0.002891
750.153821	0.002932
750.350400	0.002603
750.546962	0.002387
750.743505	0.002218
750.940030	0.002355
751.136536	0.002063
751.333025	0.001944
751.529495	0.002036
751.725947	0.001872
751.922381	0.001632
752.118796	0.002227
752.315194	0.002106
752.511573	0.002433
752.707934	0.002694
752.904276	0.002631
753.100601	0.002776
753.296907	0.002475
753.493195	0.002628
753.689465	0.002873
753.885716	0.002518
754.081949	0.002324
754.278164	0.001815
754.474361	0.001238
754.670540	0.001131
754.866700	0.000674
755.062843	0.000954
755.258967	0.000622
755.455072	0.000510
755.651160	0.000258
755.847229	0.000569
756.043280	0.000536
756.239313	0.000840
756.435328	0.000926
756.631324	0.001374
756.827302	0.001301
757.023262	0.001639
757.219204	0.001462
757.415127	0.001958
757.611033	0.001834
757.806920	0.001975
758.002788	0.002001
758.198639	0.001801
758.394471	0.001629
758.590286	0.001399
758.786081	0.001220
758.981859	0.001307
759.177619	0.001107
759.373360	0.001177
759.569083	0.001276
759.764788	0.001085
759.960474	0.001015
760.156143	0.001156
760.351793	0.001378
760.547425	0.001308
760.743038	0.001176
760.938634	0.000920
761.134211	0.000738
761.329770	0.000527
761.525311	0.000547
761.720833	0.000971
761.916338	0.000528
762.111824	0.000140
762.307292	0.000131
762.502741	0.000313
762.698173	0.000687
762.893586	0.000986
763.088981	0.001360
763.284358	0.001735
763.479716	0.001372
763.675057	0.001756
763.870379	0.002003
764.065683	0.001995
764.260968	0.001876
764.456236	0.002068
764.651485	0.001794
764.846716	0.001798
765.041929	0.001456
765.237123	0.001728
765.432299	0.002046
765.627457	0.002142
765.822597	0.002195
766.017719	0.002447
766.212822	0.001944
766.407907	0.001984
766.602974	0.002030
766.798023	0.002449
766.993054	0.002412
767.188066	0.002175
767.383060	0.002223
767.578036	0.002296
767.772993	0.002168
767.967933	0.002338
768.162854	0.002391
768.357757	0.002199
768.552642	0.001790
768.747508	0.001824
768.942356	0.001815
769.137186	0.001810
769.331998	0.001808
769.526792	0.001868
769.721567	0.001831
769.916324	0.001957
770.111063	0.001677
770.305784	0.002029
770.500486	0.002127
770.695171	0.002125
770.889837	0.002274
771.084484	0.002000
771.279114	0.001989
771.473725	0.001981
771.668318	0.001767
771.862893	0.002006
772.057450	0.001938
772.251988	0.001866
772.446509	0.002111
772.641011	0.002101
772.835494	0.002555
773.029960	0.002612
773.224407	0.002894
773.418836	0.002717
773.613247	0.003054
773.807640	0.002732
774.002014	0.002708
774.196370	0.002520
774.390708	0.002575
774.585028	0.002300
774.779330	0.001960
774.973613	0.001544
775.167878	0.001688
775.362125	0.001238
775.556354	0.001581
775.750564	0.001676
775.944756	0.001962
776.138930	0.001785
776.333086	0.001600
776.527223	0.001964
776.721343	0.002271
776.915444	0.002413
777.109526	0.002948
777.303591	0.003068
777.497637	0.002939
777.691666	0.002560
777.885676	0.002212
778.079667	0.002448
778.273641	0.002563
778.467596	0.002690
778.661533	0.002689
778.855452	0.002066
779.049352	0.002042
779.243235	0.002106
779.437099	0.002009
779.630945	0.002411
779.824773	0.002528
780.018582	0.002526
780.212373	0.002477
780.406146	0.002589
780.599901	0.002847
780.793638	0.002461
780.987356	0.002544
781.181056	0.002532
781.374738	0.002237
781.568402	0.002048
781.762047	0.001872
781.955674	0.001766
782.149283	0.001667
782.342874	0.002006
782.536447	0.002569
782.730001	0.002376
782.923537	0.002454
783.117055	0.002862
783.310555	0.002911
783.504036	0.002805
783.697499	0.002702
783.890944	0.002941
784.084371	0.002655
784.277780	0.002372
784.471170	0.002343
784.664542	0.002605
784.857896	0.002224
785.051231	0.002175
785.244549	0.002118
785.437848	0.002219
785.631129	0.002070
785.824392	0.002180
786.017636	0.002278
786.210863	0.002318
786.404071	0.002116
786.597260	0.002456
786.790432	0.002479
786.983585	0.002668
787.176721	0.002623
787.369838	0.002740
787.562936	0.002839
787.756017	0.002402
787.949079	0.002656
788.142123	0.002702
788.335149	0.002404
788.528156	0.002630
788.721146	0.003096
788.914117	0.003141
789.107070	0.003303
789.300005	0.002927
789.492921	0.003346
789.685819	0.003472
789.878699	0.003607
790.071561	0.003445
790.264405	0.003646
790.457230	0.003120
790.650037	0.003396
790.842826	0.003367
791.035597	0.003687
791.228349	0.003660
791.421084	0.003491
791.613800	0.003285
791.806497	0.003587
791.999177	0.003333
792.191838	0.003166
792.384481	0.003020
792.577106	0.002838
792.769713	0.002839
792.962301	0.003174
793.154871	0.003169
793.347423	0.003393
793.539957	0.003459
793.732473	0.003443
793.924970	0.003491
794.117449	0.003495
794.309910	0.003177
794.502353	0.003094
794.694777	0.002556
794.887183	0.002388
795.079571	0.002381
795.271941	0.002361
795.464293	0.002652
795.656626	0.002808
795.848941	0.003034
796.041238	0.003274
796.233516	0.003509
796.425777	0.003710
796.618019	0.003972
796.810243	0.003933
797.002449	0.003871
797.194636	0.003935
797.386805	0.004069
797.578956	0.004006
797.771089	0.004297
797.963204	0.004077
798.155300	0.003864
798.347378	0.003952
798.539438	0.003678
798.731480	0.003675
798.923503	0.003386
799.115509	0.003435
799.307496	0.003248
799.499465	0.003152
799.691415	0.003283
799.883348	0.003563
800.075262	0.003571
800.267158	0.003856
800.459035	0.003875
800.650895	0.004091
800.842736	0.004464
801.034559	0.004417
801.226364	0.004324
801.418150	0.003957
801.609919	0.003801
801.801669	0.003531
801.993401	0.003767
802.185114	0.003627
802.376810	0.004012
802.568487	0.003480
802.760146	0.003503
802.951787	0.003709
803.143409	0.003895
803.335014	0.003973
803.526600	0.004135
803.718168	0.003678
803.909717	0.003587
804.101249	0.002950
804.292762	0.003035
804.484257	0.002973
804.675734	0.002522
804.867192	0.002255
805.058632	0.002321
805.250054	0.002240
805.441458	0.002308
805.632844	0.002489
805.824211	0.002816
806.015561	0.002635
806.206891	0.002651
806.398204	0.002785
806.589499	0.003274
806.780775	0.003190
806.972033	0.003124
807.163273	0.003063
807.354495	0.003255
807.545698	0.002996
807.736883	0.002995
807.928050	0.003079
808.119199	0.003240
808.310329	0.003567
808.501441	0.003495
808.692535	0.003619
808.883611	0.003653
809.074669	0.003455
809.265708	0.003448
809.456729	0.003305
809.647732	0.003020
809.838717	0.002520
810.029683	0.001991
810.220632	0.001933
810.411562	0.001887
810.602474	0.001971
810.793367	0.001776
810.984242	0.001700
811.175100	0.002277
811.365938	0.002519
811.556759	0.003001
811.747562	0.003293
811.938346	0.003680
812.129112	0.003507
812.319860	0.003666
812.510589	0.003599
812.701300	0.003497
812.891994	0.002887
813.082668	0.002798
813.273325	0.002777
813.463964	0.002668
813.654584	0.002168
813.845186	0.002036
814.035769	0.002097
814.226335	0.002405
814.416882	0.002060
814.607411	0.002492
814.797922	0.002439
814.988415	0.002329
815.178889	0.002051
815.369345	0.002346
815.559783	0.002479
815.750203	0.002395
815.940605	0.002315
816.130988	0.002644
816.321353	0.002521
816.511700	0.002643
816.702028	0.002738
816.892339	0.002760
817.082631	0.002905
817.272905	0.003019
817.463161	0.002918
817.653398	0.003029
817.843617	0.003364
818.033819	0.003129
818.224001	0.003257
818.414166	0.003514
818.604312	0.003651
818.794440	0.003238
818.984550	0.003343
819.174642	0.003371
819.364716	0.003640
819.554771	0.003396
819.744808	0.003515
819.934827	0.003429
820.124827	0.003058
820.314810	0.002951
820.504774	0.003232
820.694720	0.003163
820.884647	0.003096
821.074557	0.002765
821.264448	0.002639
821.454321	0.002460
821.644176	0.002087
821.834012	0.001945
822.023831	0.002446
822.213631	0.002566
822.403413	0.002582
822.593176	0.002544
822.782922	0.002244
822.972649	0.002276
823.162358	0.002328
823.352049	0.002398
823.541721	0.002690
823.731376	0.002276
823.921012	0.002457
824.110629	0.002249
824.300229	0.002215
824.489811	0.002402
824.679374	0.002242
824.868919	0.002371
825.058445	0.002749
825.247954	0.002710
825.437444	0.002627
825.626916	0.002079
825.816370	0.002243
826.005806	0.002462
826.195223	0.002677
826.384622	0.003040
826.574003	0.003183
826.763366	0.002962
826.952711	0.002823
827.142037	0.002797
827.331345	0.002575
827.520635	0.002484
827.709906	0.002362
827.899160	0.002429
828.088395	0.002374
828.277612	0.002094
828.466810	0.002238
828.655991	0.002277
828.845153	0.002085
829.034297	0.002281
829.223423	0.002322
829.412531	0.002414
829.601620	0.002234
829.790691	0.001974
829.979744	0.002205
830.168779	0.002117
830.357795	0.002198
830.546793	0.002739
830.735773	0.002411
830.924735	0.001974
831.113679	0.001748
831.302604	0.001542
831.491511	0.001709
831.680400	0.001455
831.869271	0.001600
832.058123	0.001491
832.246957	0.001069
832.435773	0.001259
832.624571	0.001717
832.813351	0.001343
833.002112	0.001389
833.190855	0.001689
833.379580	0.001875
833.568287	0.001700
833.756975	0.001349
833.945645	0.001529
834.134297	0.002050
834.322931	0.001901
834.511547	0.002432
834.700144	0.002718
834.888723	0.002358
835.077284	0.002370
835.265826	0.002498
835.454351	0.003275
835.642857	0.003082
835.831345	0.002829
836.019815	0.003157
836.208266	0.002967
836.396699	0.002860
836.585114	0.002768
836.773511	0.002587
836.961890	0.002396
837.150250	0.001789
837.338592	0.001801
837.526916	0.002052
837.715222	0.001957
837.903510	0.002322
838.091779	0.002028
838.280030	0.001758
838.468263	0.001829
838.656477	0.001771
838.844674	0.002066
839.032852	0.001922
839.221012	0.001352
839.409153	0.000967
839.597277	0.000241
839.785382	0.000013
839.973469	-0.000050
840.161538	-0.000071
840.349589	0.000030
840.537621	-0.000290
840.725635	-0.000072
840.913631	0.000143
841.101609	0.000572
841.289568	0.000710
841.477509	0.001028
841.665432	0.001507
841.853337	0.001913
842.041224	0.001964
842.229092	0.002296
842.416942	0.002349
842.604774	0.002674
842.792588	0.002536
842.980383	0.002834
843.168160	0.003048
843.355919	0.002659
843.543660	0.002516
843.731382	0.002410
843.919087	0.002640
844.106773	0.002320
844.294441	0.001676
844.482090	0.001516
844.669722	0.001524
844.857335	0.001399
845.044930	0.001442
845.232507	0.001311
845.420065	0.001525
845.607605	0.001003
845.795127	0.001378
845.982631	0.001747
846.170117	0.002055
846.357584	0.001935
846.545033	0.002039
846.732464	0.002599
846.919877	0.002385
847.107272	0.002489
847.294648	0.002980
847.482006	0.003306
847.669346	0.003322
847.856667	0.002874
848.043971	0.002947
848.231256	0.002920
848.418523	0.002622
848.605771	0.003011
848.793002	0.002562
848.980214	0.002098
849.167408	0.001401
849.354584	0.001550
849.541742	0.001878
849.728881	0.001877
849.916002	0.001853
850.103105	0.001329
850.290190	0.000692
850.477256	0.000914
850.664304	0.001041
850.851334	0.001182
851.038346	0.000595
851.225340	0.000407
851.412315	0.000906
851.599272	0.000993
851.786211	0.001367
851.973132	0.001618
852.160034	0.001472
852.346918	0.001503
852.533784	0.001615
852.720632	0.001954
852.907462	0.002269
853.094273	0.001476
853.281066	0.001764
853.467841	0.002133
853.654598	0.001896
853.841336	0.002005
854.028056	0.001262
854.214758	0.001293
854.401442	0.000927
854.588107	0.000908
854.774755	0.001391
854.961384	0.001012
855.147995	0.000868
855.334587	0.001294
855.521162	0.001483
855.707718	0.002218
855.894256	0.001803
856.080775	0.002365
856.267277	0.002102
856.453760	0.001886
856.640225	0.001783
856.826672	0.001471
857.013101	0.001103
857.199511	0.000903
857.385903	0.000784
857.572277	0.001285
857.758633	0.001190
857.944970	0.000841
858.131290	0.000941
858.317591	0.000814
858.503873	0.000844
858.690138	0.001133
858.876384	0.001213
859.062612	0.001274
859.248822	0.001490
859.435014	0.001149
859.621188	0.001722
859.807343	0.001791
859.993480	0.001962
860.179599	0.002656
860.365699	0.002617
860.551781	0.002601
860.737846	0.002593
860.923891	0.001647
861.109919	0.001751
861.295929	0.001917
861.481920	0.001729
861.667893	0.001880
861.853848	0.001403
862.039784	0.001547
862.225702	0.001874
862.411603	0.002102
862.597484	0.002892
862.783348	0.003045
862.969193	0.002347
863.155021	0.002476
863.340830	0.001924
863.526620	0.001754
863.712393	0.002203
863.898147	0.002194
864.083883	0.001859
864.269601	0.001469
864.455301	0.001488
864.640982	0.002077
864.826645	0.002454
865.012290	0.003639
865.197917	0.003666
865.383526	0.003336
865.569116	0.003094
865.754688	0.003417
865.940242	0.003545
866.125777	0.003486
866.311295	0.003668
866.496794	0.003539
866.682275	0.002550
866.867737	0.002774
867.053182	0.002766
867.238608	0.002815
867.424016	0.002679
867.609406	0.002719
867.794778	0.003004
867.980131	0.002900
868.165466	0.002961
868.350783	0.003182
868.536082	0.003018
868.721362	0.003006
868.906625	0.002954
869.091869	0.003125
869.277094	0.003749
869.462302	0.003535
869.647491	0.003368
869.832662	0.003251
870.017815	0.002925
870.202950	0.003504
870.388066	0.003063
870.573165	0.002926
870.758245	0.002688
870.943306	0.002388
871.128350	0.002643
871.313375	0.002413
871.498382	0.002521
871.683371	0.002977
871.868342	0.002470
872.053294	0.002757
872.238229	0.002948
872.423144	0.003033
872.608042	0.002803
872.792922	0.002810
872.977783	0.003373
873.162626	0.003038
873.347451	0.003385
873.532258	0.003052
873.717046	0.003841
873.901816	0.003979
874.086568	0.003917
874.271302	0.003809
874.456017	0.003870
874.640715	0.002994
874.825394	0.002870
875.010055	0.002212
875.194697	0.002999
875.379322	0.002229
875.563928	0.001623
875.748516	0.002062
875.933085	0.002294
876.117637	0.002586
876.302170	0.003320
876.486685	0.003071
876.671182	0.003235
876.855661	0.002544
877.040121	0.002613
877.224563	0.003524
877.408987	0.003076
877.593393	0.003068
877.777780	0.002865
877.962150	0.002262
878.146501	0.002738
878.330833	0.002968
878.515148	0.003035
878.699444	0.003162
878.883722	0.002317
879.067982	0.002291
879.252224	0.002320
879.436447	0.001845
879.620653	0.002482
879.804840	0.002522
879.989008	0.002877
880.173159	0.002998
880.357291	0.003255
880.541405	0.003795
880.725501	0.004079
880.909579	0.003718
881.093638	0.003833
881.277680	0.003131
881.461703	0.003157
881.645707	0.002788
881.829694	0.003202
882.013662	0.003199
882.197612	0.003093
882.381544	0.002417
882.565458	0.002533
882.749353	0.002560
882.933230	0.002942
883.117089	0.002995
883.300930	0.002655
883.484753	0.002623
883.668557	0.002264
883.852343	0.002060
884.036111	0.003033
884.219861	0.003493
884.403592	0.003969
884.587305	0.004049
884.771000	0.004322
884.954677	0.004840
885.138335	0.005004
885.321976	0.005003
885.505598	0.005030
885.689201	0.004363
885.872787	0.004111
886.056354	0.004099
886.239904	0.004130
886.423434	0.003647
886.606947	0.003385
886.790442	0.003103
886.973918	0.003041
887.157376	0.002855
887.340816	0.002916
887.524237	0.002943
887.707641	0.002447
887.891026	0.002048
888.074393	0.002498
888.257741	0.002779
888.441072	0.003115
888.624384	0.003450
888.807678	0.004121
888.990954	0.004503
889.174211	0.004555
889.357451	0.004520
889.540672	0.004860
889.723875	0.004924
889.907059	0.004129
890.090226	0.003445
890.273374	0.003673
890.456504	0.003109
890.639616	0.002929
890.822709	0.002846
891.005785	0.003072
891.188842	0.003598
891.371881	0.003243
891.554901	0.003907
891.737904	0.004292
891.920888	0.003422
892.103854	0.003863
892.286802	0.004168
892.469731	0.003928
892.652643	0.004419
892.835536	0.003676
893.018410	0.003608
893.201267	0.003883
893.384106	0.003881
893.566926	0.005053
893.749728	0.004818
893.932511	0.004689
894.115277	0.005062
894.298024	0.004845
894.480753	0.005280
894.663464	0.005446
894.846157	0.005011
895.028831	0.005063
895.211487	0.004322
895.394125	0.004597
895.576745	0.004895
895.759346	0.004683
895.941930	0.004479
896.124495	0.004382
896.307041	0.004576
896.489570	0.004779
896.672080	0.004587
896.854573	0.004983
897.037046	0.004815
897.219502	0.004285
897.401940	0.004712
897.584359	0.004247
897.766760	0.004422
897.949143	0.004405
898.131507	0.004669
898.313854	0.004247
898.496182	0.004019
898.678492	0.003489
898.860783	0.003106
899.043057	0.002457
899.225312	0.002612
899.407549	0.002145
899.589768	0.001624
899.771968	0.001937
899.954151	0.002656
900.136315	0.002430
900.318461	0.002761
900.500588	0.003365
900.682698	0.003024
900.864789	0.002961
901.046862	0.003392
901.228917	0.003663
901.410953	0.002605
901.592971	0.002667
901.774972	0.002501
901.956953	0.003137
902.138917	0.003202
902.320862	0.003907
902.502790	0.004058
902.684699	0.004033
902.866589	0.004369
903.048462	0.004832
903.230316	0.005162
903.412152	0.004897
903.593970	0.004101
903.775770	0.003489
903.957551	0.003139
904.139314	0.004135
904.321059	0.004207
904.502786	0.003820
904.684494	0.004091
904.866185	0.003885
905.047857	0.004305
905.229510	0.004790
905.411146	0.004819
905.592763	0.004824
905.774363	0.004188
905.955943	0.004148
906.137506	0.004089
906.319051	0.003862
906.500577	0.003230
906.682085	0.003446
906.863575	0.002911
907.045046	0.003480
907.226500	0.003403
907.407935	0.003724
907.589352	0.003724
907.770750	0.003016
907.952131	0.002332
908.133493	0.002399
908.314837	0.001562
908.496163	0.001945
908.677470	0.002005
908.858760	0.002036
909.040031	0.001448
909.221284	0.001390
909.402518	0.002540
909.583735	0.003447
909.764933	0.003610
909.946113	0.004449
910.127275	0.004425
910.308418	0.003789
910.489544	0.004017
910.670651	0.004121
910.851740	0.004286
911.032810	0.003644
911.213863	0.003181
911.394897	0.002960
911.575913	0.002810
911.756911	0.002640
911.937890	0.003588
912.118851	0.004054
912.299794	0.004225
912.480719	0.003571
912.661626	0.004027
912.842514	0.004140
913.023384	0.004143
913.204236	0.003941
913.385070	0.003668
913.565886	0.002643
913.746683	0.001846
913.927462	0.001315
914.108223	0.001777
914.288965	0.001372
914.469690	0.000870
914.650396	0.000637
914.831084	0.000708
915.011754	0.000730
915.192405	0.000767
915.373038	0.000217
915.553653	0.000282
915.734250	-0.000625
915.914829	-0.001022
916.095389	-0.000847
916.275931	-0.000774
916.456455	-0.000388
916.636961	0.000338
916.817448	0.001035
916.997917	0.001855
917.178368	0.001716
917.358801	0.001441
917.539216	0.002057
917.719612	0.001959
917.899990	0.001806
918.080350	0.001465
918.260692	0.000429
918.441015	-0.000187
918.621320	-0.000736
918.801607	-0.000922
918.981876	-0.000113
919.162127	-0.000395
919.342359	-0.000747
919.522573	-0.000526
919.702769	-0.001820
919.882947	-0.001677
920.063106	-0.001929
920.243247	-0.001905
920.423370	-0.002085
920.603475	-0.002207
920.783562	-0.002939
920.963630	-0.001860
921.143680	-0.002237
921.323712	-0.000942
921.503725	-0.000311
921.683721	0.000238
921.863698	-0.000327
922.043657	0.000047
922.223598	-0.000227
922.403520	0.000085
922.583424	-0.000273
922.763311	0.000221
922.943178	-0.000513
923.123028	-0.000950
923.302859	-0.001907
923.482673	-0.000713
923.662467	-0.000512
923.842244	-0.000796
924.022003	-0.000927
924.201743	-0.001736
924.381465	-0.001701
924.561169	-0.001033
924.740854	-0.000942
924.920522	-0.000077
925.100171	-0.000315
925.279802	-0.000378
925.459414	-0.000670
925.639009	-0.000399
925.818585	0.000738
925.998143	0.000430
926.177683	0.001003
926.357205	0.001204
926.536708	-0.000363
926.716193	0.000215
926.895660	-0.000685
927.075109	-0.000252
927.254539	-0.000591
927.433951	-0.001040
927.613345	-0.001138
927.792721	-0.001821
927.972079	-0.002851
928.151418	-0.002000
928.330739	-0.003014
928.510042	-0.002695
928.689327	-0.002615
928.868593	-0.002692
929.047841	-0.003808
929.227071	-0.004710
929.406283	-0.005437
929.585476	-0.005218
929.764652	-0.005285
929.943809	-0.004788
930.122948	-0.005137
930.302068	-0.004557
930.481171	-0.003698
930.660255	-0.002606
930.839321	-0.002484
931.018369	-0.001213
931.197398	-0.000071
931.376409	-0.000842
931.555402	-0.002175
931.734377	-0.002593
931.913334	-0.002872
932.092272	-0.002833
932.271192	-0.003218
932.450094	-0.001331
932.628978	-0.001464
932.807844	-0.002860
932.986691	-0.001099
933.165520	-0.000244
933.344331	0.000966
933.523123	0.000607
933.701898	-0.000220
933.880654	-0.001552
934.059392	-0.003311
934.238111	-0.005626
934.416813	-0.006149
934.595496	-0.007987
934.774161	-0.008386
934.952808	-0.009091
935.131437	-0.009647
935.310047	-0.009595
935.488639	-0.008826
935.667213	-0.009395
935.845769	-0.009771
936.024306	-0.008816
936.202825	-0.008267
936.381326	-0.007223
936.559809	-0.007380
936.738274	-0.006649
936.916720	-0.006463
937.095148	-0.007589
937.273558	-0.008087
937.451950	-0.008220
937.630323	-0.009177
937.808678	-0.007775
937.987015	-0.009358
938.165334	-0.010839
938.343635	-0.012086
938.521917	-0.013399
938.700181	-0.011889
938.878427	-0.011509
939.056655	-0.010463
939.234864	-0.010343
939.413055	-0.010506
939.591228	-0.010958
939.769383	-0.009370
939.947519	-0.007448
940.125638	-0.004820
940.303738	-0.007550
940.481820	-0.005376
940.659883	-0.006789
940.837929	-0.006228
941.015956	-0.006835
941.193965	-0.005197
941.371955	-0.005276
941.549928	-0.006741
941.727882	-0.009418
941.905818	-0.006919
942.083736	-0.007742
942.261636	-0.005253
942.439517	-0.005086
942.617380	-0.006024
942.795225	-0.006898
942.973052	-0.005361
943.150860	-0.002943
943.328651	-0.002751
943.506423	0.000202
943.684176	-0.000381
943.861912	-0.000351
944.039629	-0.001319
944.217328	-0.002119
944.395009	-0.000530
944.572672	-0.001595
944.750317	-0.003695
944.927943	-0.003337
945.105551	-0.007115
945.283141	-0.006782
945.460712	-0.004742
945.638265	-0.003939
945.815801	-0.002617
945.993317	-0.002168
946.170816	-0.001577
946.348297	-0.003078
946.525759	-0.002822
946.703203	-0.002714
946.880629	-0.003565
947.058036	-0.006432
947.235425	-0.008097
947.412797	-0.006979
947.590149	-0.006671
947.767484	-0.010361
947.944800	-0.010280
948.122099	-0.008376
948.299379	-0.009122
948.476640	-0.009615
948.653884	-0.009481
948.831109	-0.006168
949.008316	-0.007645
949.185505	-0.011963
949.362676	-0.006597
949.539828	-0.007424
949.716962	-0.008967
949.894078	-0.006909
950.071176	-0.005987
950.248256	-0.005142
950.425317	-0.007100
950.602360	-0.006348
950.779385	-0.006563
950.956391	-0.010803
951.133380	-0.007953
951.310350	-0.007850
951.487302	-0.007267
951.664235	-0.005202
951.841151	-0.007620
952.018048	-0.006297
952.194927	-0.006138
952.371788	-0.000872
952.548631	0.000486
952.725455	-0.002273
952.902261	-0.001513
953.079049	-0.002684
953.255819	-0.001876
953.432570	-0.000718
953.609303	-0.001459
953.786018	-0.006132
953.962715	-0.007976
954.139394	-0.005986
954.316054	-0.003995
954.492696	-0.006091
954.669320	-0.002643
954.845926	-0.003674
955.022513	-0.003207
955.199083	-0.002553
955.375634	0.005244
955.552166	0.001512
955.728681	-0.002996
955.905177	-0.000541
956.081655	0.002882
956.258115	-0.000078
956.434557	0.005015
956.610980	0.006847
956.787385	0.011253
956.963772	0.005071
957.140141	0.007934
957.316492	0.011423
957.492824	0.009865
957.669138	0.008110
957.845434	0.010927
958.021712	0.005683
958.197971	0.006891
958.374212	0.002399
958.550435	0.007612
958.726640	0.008894
958.902826	0.007502
959.078995	0.009386
959.255145	0.013164
959.431277	0.011026
959.607390	0.011143
959.783486	0.017880
959.959563	0.018525
960.135622	0.017020
960.311662	0.019623
960.487685	0.015549
960.663689	0.014608
960.839675	0.012502
961.015643	0.011894
961.191593	0.008604
961.367524	0.002567
961.543437	0.001349
961.719332	0.001208
961.895209	-0.001535
962.071067	0.000657
962.246907	-0.000944
962.422730	-0.002577
962.598533	-0.006248
962.774319	-0.003148
962.950086	-0.005291
963.125835	0.001519
963.301566	-0.002670
963.477279	-0.002761
963.652973	-0.004221
963.828650	-0.005773
964.004308	-0.006097
964.179947	0.000030
964.355569	-0.000090
964.531172	-0.002070
964.706757	-0.009461
964.882324	-0.009851
965.057873	-0.006529
965.233403	0.005605
965.408916	0.007603
965.584410	0.009316
965.759885	0.010897
965.935343	0.007938
966.110782	0.008314
966.286203	0.010375
966.461606	0.014981
966.636991	0.014505
966.812357	0.010404
966.987705	0.007795
967.163035	0.004175
967.338347	0.004092
967.513641	0.002966
967.688916	0.002312
967.864173	0.001003
968.039412	-0.000017
968.214632	-0.003348
968.389835	-0.006897
968.565019	-0.003389
968.740185	-0.003807
968.915333	-0.005190
969.090462	-0.005461
969.265573	0.000900
969.440667	0.001444
969.615741	0.000302
969.790798	-0.000963
969.965836	-0.000407
970.140856	-0.000328
970.315858	-0.001644
970.490842	-0.004005
970.665808	0.000591
970.840755	-0.007057
971.015684	-0.004761
971.190595	0.003432
971.365487	0.001433
971.540362	0.005885
971.715218	0.005126
971.890056	0.009735
972.064875	0.009822
972.239677	0.011193
972.414460	0.018507
972.589225	0.019244
972.763972	0.017939
972.938700	0.031907
973.113411	0.030197
973.288103	0.036059
973.462777	0.036556
973.637432	0.034989
973.812070	0.035572
973.986689	0.031838
974.161290	0.030502
974.335873	0.026170
974.510437	0.016873
974.684984	0.011668
974.859512	0.005068
975.034022	0.004165
975.208513	0.009065
975.382987	0.006978
975.557442	0.012171
975.731879	0.012889
975.906298	0.015847
976.080698	0.018976
976.255080	0.020573
976.429445	0.021665
976.603790	0.024467
976.778118	0.020005
976.952427	0.021831
977.126719	0.023339
977.300992	0.024170
977.475246	0.020224
977.649483	0.022883
977.823701	0.022369
977.997901	0.018335
978.172083	0.015976
978.346247	0.017239
978.520392	0.016472
978.694519	0.009936
978.868628	0.004315
979.042719	0.001200
979.216791	-0.009076
979.390845	-0.006641
979.564882	-0.002741
979.738899	-0.002233
979.912899	0.000428
980.086880	-0.001453
980.260843	-0.000308
980.434788	0.006259
980.608715	0.009399
980.782623	0.017227
980.956514	0.020850
981.130386	0.021796
981.304240	0.023320
981.478075	0.019331
981.651892	0.021743
981.825692	0.023615
981.999472	0.014827
982.173235	0.014272
982.346980	0.010721
982.520706	0.002972
982.694414	0.001319
982.868104	0.000931
983.041775	0.006757
983.215428	0.004060
983.389064	0.000695
983.562680	0.004315
983.736279	0.010108
983.909860	0.014657
984.083422	0.019712
984.256966	0.022281
984.430491	0.019771
984.603999	0.017687
984.777488	0.014777
984.950959	0.013864
985.124412	0.016638
985.297847	0.008454
985.471263	0.005152
985.644661	0.006240
985.818041	0.002128
985.991403	0.005213
986.164747	0.002793
986.338072	0.008976
986.511379	0.007870
986.684668	0.008078
986.857938	0.011136
987.031191	0.012688
987.204425	0.010948
987.377641	0.017150
987.550839	0.015814
987.724018	0.017191
987.897179	0.015071
988.070322	0.020778
988.243447	0.015969
988.416554	0.010845
988.589642	0.012624
988.762712	0.018048
988.935764	0.023264
989.108798	0.024209
989.281813	0.021735
989.454811	0.021740
989.627790	0.018605
989.800751	0.020483
989.973693	0.026046
990.146617	0.020491
990.319524	0.021078
990.492412	0.011737
990.665281	0.008809
990.838133	0.008021
991.010966	0.008644
991.183781	0.011489
991.356578	0.010202
991.529356	0.011898
991.702117	0.010939
991.874859	0.003744
992.047583	0.006599
992.220288	0.005846
992.392976	0.005229
992.565645	0.008698
992.738296	0.005227
992.910929	0.005315
993.083543	0.004406
993.256139	0.006029
993.428718	0.005678
993.601277	0.008201
993.773819	0.016131
993.946342	0.017894
994.118848	0.017141
994.291335	0.022430
994.463803	0.027721
994.636254	0.029288
994.808686	0.032915
994.981100	0.037997
995.153496	0.033138
995.325874	0.024759
995.498233	0.025056
995.670574	0.020686
995.842897	0.011868
996.015202	0.011095
996.187488	0.006805
996.359757	0.004836
996.532007	-0.000072
996.704239	0.002873
996.876452	0.007444
997.048648	0.009632
997.220825	0.010609
997.392984	0.012583
997.565124	0.013673
997.737247	0.016065
997.909351	0.017880
998.081437	0.018505
998.253505	0.013946
998.425554	0.005693
998.597586	0.004026
998.769599	-0.001152
998.941594	0.001374
999.113571	-0.001651
999.285529	0.000218
999.457469	-0.004555
999.629391	-0.004175
999.801295	-0.004973
999.973181	-0.004763
1000.145048	-0.007809
1000.316897	-0.005268
1000.488728	-0.002501
1000.660541	-0.003078
1000.832335	-0.003964
1001.004111	-0.001079
1001.175869	0.004020
1001.347609	0.009324
1001.519331	0.010440
1001.691034	0.010756
1001.862719	0.011571
1002.034386	0.007053
1002.206035	0.008392
1002.377665	0.006927
1002.549277	0.002742
1002.720871	-0.000826
1002.892447	-0.000997
1003.064004	0.006030
1003.235544	0.009599
1003.407065	0.012215
1003.578568	0.014753
1003.750052	0.017634
1003.921519	0.017591
1004.092967	0.019532
1004.264397	0.018563
1004.435809	0.018878
1004.607202	0.017528
1004.778577	0.016119
1004.949934	0.015754
1005.121273	0.014612
1005.292594	0.012347
1005.463896	0.012671
1005.635180	0.015173
1005.806446	0.013250
1005.977694	0.013022
1006.148923	0.013355
1006.320135	0.017003
1006.491328	0.014013
1006.662503	0.013417
1006.833659	0.012396
1007.004798	0.011541
1007.175918	0.009652
1007.347020	0.010552
1007.518103	0.008945
1007.689169	0.009766
1007.860216	0.006473
1008.031245	0.008921
1008.202256	0.012867
1008.373248	0.010333
1008.544223	0.012172
1008.715179	0.014986
1008.886117	0.021555
1009.057036	0.019959
1009.227938	0.014373
1009.398821	0.010577
1009.569686	0.012500
1009.740533	0.008318
1009.911361	0.007383
1010.082172	0.002863
1010.252964	0.004400
1010.423738	-0.002430
1010.594493	-0.004568
1010.765231	-0.002414
1010.935950	-0.000203
1011.106651	-0.001514
1011.277334	0.001865
1011.447998	0.003904
1011.618645	0.006813
1011.789273	0.006388
1011.959882	0.009234
1012.130474	0.011630
1012.301048	0.012569
1012.471603	0.018051
1012.642140	0.017699
1012.812658	0.016718
1012.983159	0.020277
1013.153641	0.017912
1013.324105	0.016832
1013.494551	0.013486
1013.664979	0.014745
1013.835388	0.017901
1014.005779	0.016396
1014.176152	0.019741
1014.346507	0.018691
1014.516843	0.013677
1014.687162	0.018716
1014.857462	0.015813
1015.027744	0.020938
1015.198007	0.018796
1015.368252	0.015637
1015.538480	0.012453
1015.708689	0.011119
1015.878879	0.009730
1016.049052	0.012640
1016.219206	0.005630
1016.389342	0.007105
1016.559460	0.002376
1016.729559	0.003684
1016.899641	0.005506
1017.069704	0.010455
1017.239749	0.006791
1017.409775	0.010017
1017.579784	0.008193
1017.749774	0.016197
1017.919746	0.015876
1018.089700	0.017329
1018.259635	0.018050
1018.429553	0.013289
1018.599452	0.007775
1018.769333	0.011106
1018.939195	0.011385
1019.109040	0.007622
1019.278866	0.004008
1019.448674	0.006184
1019.618464	0.006092
1019.788235	0.006816
1019.957989	0.009262
1020.127724	0.011305
1020.297441	0.008768
1020.467139	0.010722
1020.636820	0.018326
1020.806482	0.018317
1020.976126	0.017709
1021.145752	0.020470
1021.315359	0.024314
1021.484948	0.025954
1021.654519	0.021464
1021.824072	0.023750
1021.993607	0.019598
1022.163123	0.014837
1022.332621	0.011714
1022.502101	0.009299
1022.671563	0.006909
1022.841007	-0.000706
1023.010432	-0.003033
1023.179839	0.000774
1023.349228	0.001008
1023.518598	0.006980
1023.687951	0.008620
1023.857285	0.009333
1024.026601	0.010004
1024.195899	0.009641
1024.365178	0.012267
1024.534439	0.011964
1024.703682	0.013074
1024.872907	0.011750
1025.042114	0.004746
1025.211302	0.003123
1025.380472	0.007929
1025.549624	0.009266
1025.718758	0.010271
1025.887873	0.010986
1026.056970	0.015532
1026.226049	0.012817
1026.395110	0.011174
1026.564153	0.008126
1026.733177	0.009224
1026.902183	0.009941
1027.071171	0.008793
1027.240141	0.004975
1027.409092	0.006683
1027.578026	0.002139
1027.746940	0.004938
1027.915837	0.008653
1028.084716	0.011084
1028.253576	0.016357
1028.422418	0.014158
1028.591242	0.014699
1028.760048	0.020040
1028.928835	0.018244
1029.097604	0.018564
1029.266355	0.018826
1029.435088	0.014417
1029.603803	0.019092
1029.772499	0.014583
1029.941177	0.013685
1030.109837	0.014998
1030.278478	0.010820
1030.447102	0.003158
1030.615707	0.004458
1030.784294	0.000351
1030.952863	0.001814
1031.121413	-0.002255
1031.289945	-0.003521
1031.458460	-0.000929
1031.626955	-0.001207
1031.795433	0.001952
1031.963892	0.003717
1032.132334	0.001768
1032.300756	0.005064
1032.469161	0.004402
1032.637548	0.004493
1032.805916	0.005869
1032.974266	0.005841
1033.142598	0.003315
1033.310911	-0.001136
1033.479207	0.006097
1033.647484	0.007587
1033.815743	0.010227
1033.983983	0.012610
1034.152206	0.010233
1034.320410	0.009065
1034.488596	0.006109
1034.656764	0.011097
1034.824914	0.012128
1034.993045	0.011410
1035.161158	0.008905
1035.329253	0.002870
1035.497330	0.005638
1035.665388	0.012059
1035.833428	0.015794
1036.001450	0.009247
1036.169454	0.001238
1036.337440	0.002497
1036.505407	0.000495
1036.673356	0.001938
1036.841287	0.006660
1037.009200	0.002891
1037.177094	0.000702
1037.344970	-0.001620
1037.512828	0.003785
1037.680668	0.006813
1037.848489	0.004540
1038.016293	0.000596
1038.184078	0.004371
1038.351845	0.000161
1038.519593	0.001932
1038.687324	0.002400
1038.855036	0.006875
1039.022730	0.009581
1039.190406	0.006006
1039.358063	0.008290
1039.525702	0.010590
1039.693323	0.008009
1039.860926	0.014082
1040.028511	0.013175
1040.196077	0.006385
1040.363625	0.003446
1040.531155	-0.000222
1040.698667	0.002399
1040.866161	0.003209
1041.033636	0.008564
1041.201093	0.005752
1041.368532	0.003109
1041.535952	-0.000273
1041.703355	0.006168
1041.870739	0.006498
1042.038105	0.007114
1042.205452	0.010598
1042.372782	0.016779
1042.540093	0.016533
1042.707386	0.016293
1042.874661	0.016486
1043.041918	0.020920
1043.209156	0.019513
1043.376376	0.021059
1043.543578	0.024971
1043.710762	0.020732
1043.877927	0.012180
1044.045074	0.009186
1044.212203	0.009428
1044.379314	0.008573
1044.546407	0.006495
1044.713481	0.009598
1044.880537	0.005180
1045.047575	0.003895
1045.214595	0.005903
1045.381596	0.013049
1045.548579	0.012424
1045.715544	0.013431
1045.882491	0.016129
1046.049420	0.014619
1046.216330	0.012727
1046.383222	0.013312
1046.550096	0.014453
1046.716951	0.015205
1046.883789	0.012714
1047.050608	0.019085
1047.217409	0.020486
1047.384192	0.015994
1047.550956	0.015467
1047.717703	0.017033
1047.884431	0.016557
1048.051140	0.017024
1048.217832	0.020931
1048.384505	0.017629
1048.551161	0.012618
1048.717798	0.015893
1048.884416	0.018457
1049.051017	0.019301
1049.217599	0.016762
1049.384163	0.018381
1049.550709	0.018273
1049.717237	0.015091
1049.883746	0.019724
1050.050237	0.018252
1050.216710	0.016605
1050.383165	0.015354
1050.549601	0.015480
1050.716019	0.012234
1050.882420	0.010259
1051.048801	0.012223
1051.215165	0.009314
1051.381510	0.005750
1051.547837	0.003409
1051.714146	0.006230
1051.880437	0.007158
1052.046709	0.007465
1052.212964	0.013068
1052.379200	0.017396
1052.545417	0.015769
1052.711617	0.019346
1052.877798	0.016524
1053.043961	0.017054
1053.210106	0.010982
1053.376233	0.014816
1053.542341	0.011757
1053.708432	0.008282
1053.874504	0.005069
1054.040557	0.004704
1054.206593	0.002916
1054.372610	0.006179
1054.538609	0.008189
1054.704590	0.011505
1054.870553	0.007315
1055.036497	0.007486
1055.202424	0.004870
1055.368331	0.005073
1055.534221	0.002064
1055.700093	0.000973
1055.865946	0.001654
1056.031781	0.003361
1056.197598	-0.000673
1056.363397	0.000265
1056.529177	-0.000209
1056.694939	0.000271
1056.860683	-0.005011
1057.026409	-0.002561
1057.192116	-0.003125
1057.357806	-0.003753
1057.523477	-0.005963
1057.689130	-0.004932
1057.854764	-0.004752
1058.020381	-0.002527
1058.185979	0.001467
1058.351559	0.006132
1058.517120	0.004523
1058.682664	0.006818
1058.848189	0.011188
1059.013696	0.009719
1059.179185	0.010250
1059.344656	0.010067
1059.510108	0.010836
1059.675542	0.008160
1059.840958	0.006317
1060.006356	0.005084
1060.171735	0.006498
1060.337096	0.001832
1060.502439	0.005466
1060.667764	0.000929
1060.833071	0.003185
1060.998359	0.005589
1061.163629	0.012551
1061.328881	0.015689
1061.494115	0.011845
1061.659330	0.006977
1061.824527	0.006639
1061.989706	0.004589
1062.154867	0.010787
1062.320010	0.007703
1062.485134	0.007043
1062.650240	0.002640
1062.815328	-0.004699
1062.980398	0.002568
1063.145449	0.003474
1063.310482	0.002546
1063.475497	-0.003730
1063.640494	-0.003346
1063.805473	-0.005327
1063.970433	-0.005119
1064.135375	-0.007101
1064.300299	-0.003881
1064.465204	-0.003175
1064.630092	-0.002480
1064.794961	0.001053
1064.959812	0.009232
1065.124645	0.004727
1065.289459	0.006178
1065.454256	0.000729
1065.619034	0.000540
1065.783793	0.006126
1065.948535	0.000318
1066.113258	0.002448
1066.277964	0.001465
1066.442651	-0.006981
1066.607319	-0.003107
1066.771970	-0.005520
1066.936602	-0.006582
1067.101216	-0.010960
1067.265812	-0.014225
1067.430389	-0.009979
1067.594949	-0.013069
1067.759490	-0.019615
1067.924013	-0.010378
1068.088518	-0.012442
1068.253004	-0.015416
1068.417472	-0.010985
1068.581922	-0.007494
1068.746354	-0.009856
1068.910768	-0.008525
1069.075163	-0.008187
1069.239540	-0.004168
1069.403899	-0.010509
1069.568240	-0.012838
1069.732562	-0.009174
1069.896866	-0.009143
1070.061152	-0.004922
1070.225420	0.000629
1070.389670	-0.002918
1070.553901	0.000873
1070.718114	-0.001330
1070.882309	-0.000336
1071.046486	0.004946
1071.210644	-0.001942
1071.374784	-0.002429
1071.538906	-0.008623
1071.703010	-0.014855
1071.867096	-0.013485
1072.031163	-0.006701
1072.195212	-0.006591
1072.359243	0.000334
1072.523256	-0.000506
1072.687250	0.006335
1072.851226	0.007098
1073.015184	0.009963
1073.179124	0.011067
1073.343045	0.016376
1073.506949	0.012330
1073.670834	0.013105
1073.834701	0.007906
1073.998549	0.003100
1074.162380	-0.003775
1074.326192	-0.005681
1074.489986	-0.008584
1074.653761	-0.001988
1074.817519	-0.005405
1074.981258	-0.009745
1075.144979	-0.011140
1075.308682	-0.011833
1075.472367	-0.004341
1075.636033	0.007477
1075.799681	0.010791
1075.963311	0.011636
1076.126923	0.006854
1076.290516	0.000042
1076.454092	-0.002294
1076.617649	-0.000050
1076.781187	0.000528
1076.944708	-0.008455
1077.108210	-0.011322
1077.271695	-0.010151
1077.435160	-0.008858
1077.598608	-0.014249
1077.762038	-0.010340
1077.925449	-0.007055
1078.088842	-0.002889
1078.252217	-0.001080
1078.415573	0.007049
1078.578912	0.005146
1078.742232	-0.000315
1078.905534	0.000325
1079.068817	0.006144
1079.232083	0.003693
1079.395330	0.003527
1079.558559	0.002680
1079.721770	0.007217
1079.884962	0.010060
1080.048136	0.010276
1080.211293	0.012759
1080.374430	0.016722
1080.537550	0.015463
1080.700651	0.023094
1080.863735	0.026891
1081.026800	0.026577
1081.189846	0.026092
1081.352875	0.010942
1081.515885	0.006921
1081.678877	0.002600
1081.841851	-0.003015
1082.004807	-0.000505
1082.167744	-0.006724
1082.330663	-0.012904
1082.493564	-0.010172
1082.656447	-0.012960
1082.819312	-0.004786
1082.982158	0.006260
1083.144986	0.010090
1083.307796	0.014930
1083.470587	0.010320
1083.633361	0.013349
1083.796116	0.016781
1083.958853	0.011853
1084.121571	0.009957
1084.284272	0.013239
1084.446954	0.008268
1084.609618	0.005220
1084.772264	0.005999
1084.934892	0.008441
1085.097501	0.003939
1085.260092	0.001935
1085.422665	0.007298
1085.585220	0.008613
1085.747756	0.005701
1085.910274	-0.000263
1086.072774	-0.003440
1086.235256	-0.006479
1086.397720	-0.005805
1086.560165	-0.010218
1086.722592	-0.009804
1086.885001	-0.014319
1087.047392	-0.019291
1087.209764	-0.020025
1087.372119	-0.016497
1087.534455	-0.009566
1087.696772	-0.011862
1087.859072	-0.004273
1088.021353	0.008375
1088.183616	0.002236
1088.345861	-0.005999
1088.508088	-0.001399
1088.670296	0.004224
1088.832486	0.006462
1088.994658	0.005104
1089.156812	0.014233
1089.318948	0.008518
1089.481065	0.001852
1089.643164	0.004604
1089.805245	0.013067
1089.967308	0.018277
1090.129352	0.017785
1090.291378	0.013068
1090.453386	0.017534
1090.615376	0.006023
1090.777347	0.009818
1090.939301	0.005799
1091.101236	0.004459
1091.263153	0.000156
1091.425051	-0.006653
1091.586932	-0.002472
1091.748794	-0.005726
1091.910638	-0.005384
1092.072463	0.006170
1092.234271	0.003181
1092.396060	0.006869
1092.557831	0.016229
1092.719584	0.012437
1092.881319	0.015166
1093.043035	0.004461
1093.204733	0.008006
1093.366413	0.002020
1093.528075	-0.007653
1093.689718	-0.004284
1093.851343	-0.010627
1094.012950	-0.017645
1094.174539	-0.007866
1094.336110	-0.012448
1094.497662	-0.003580
1094.659196	0.001704
1094.820712	0.005050
1094.982210	0.007909
1095.143689	0.006302
1095.305151	0.013549
1095.466594	0.007743
1095.628018	0.002005
1095.789425	0.012851
1095.950813	-0.000613
1096.112183	-0.004621
1096.273535	0.000362
1096.434869	0.003706
1096.596184	-0.011608
1096.757482	-0.011416
1096.918761	-0.000386
1097.080021	0.000653
1097.241264	-0.004701
1097.402488	0.000495
1097.563694	0.003174
1097.724882	-0.009692
1097.886052	-0.004925
1098.047203	0.010989
1098.208336	0.009806
1098.369451	0.012405
1098.530548	0.013766
1098.691627	0.016567
1098.852687	0.020304
1099.013729	0.019394
1099.174753	0.023348
1099.335758	0.008766
1099.496746	0.004928
1099.657715	0.006467
1099.818666	0.001588
1099.979599	-0.008506
1100.140513	-0.006560
1100.301409	-0.011755
1100.462287	-0.005420
1100.623147	0.006264
1100.783989	0.001331
1100.944812	-0.000068
1101.105617	0.001309
1101.266404	0.002860
1101.427173	0.014766
1101.587923	0.003820
1101.748656	0.010589
1101.909370	-0.003106
1102.070066	-0.006089
1102.230743	-0.002444
1102.391403	-0.013506
1102.552044	-0.002923
1102.712667	-0.009747
1102.873271	-0.018219
1103.033858	-0.000440
1103.194426	-0.005227
1103.354976	-0.005217
1103.515508	-0.015493
1103.676021	0.006267
1103.836517	0.025420
1103.996994	-0.006657
1104.157453	0.001736
1104.317893	0.011254
1104.478316	0.004521
1104.638720	0.004903
1104.799106	0.019426
1104.959474	0.033614
1105.119823	0.016452
1105.280155	-0.005733
1105.440468	0.009348
1105.600763	0.016609
1105.761039	0.012838
1105.921298	0.004084
1106.081538	0.014033
1106.241760	0.005392
1106.401964	-0.008282
1106.562149	0.000229
1106.722316	0.016038
1106.882465	0.023771
1107.042596	0.026987
1107.202709	0.027299
1107.362803	0.032785
1107.522879	0.010038
1107.682937	0.008751
1107.842977	0.008825
1108.002999	-0.001691
1108.163002	-0.002291
1108.322987	0.000887
1108.482954	-0.008149
1108.642902	-0.001725
1108.802833	-0.008220
1108.962745	0.010196
1109.122639	0.015171
1109.282515	0.041455
1109.442372	0.047855
1109.602211	0.031442
1109.762032	0.024716
1109.921835	0.012094
1110.081620	0.022041
1110.241386	0.025705
1110.401134	0.017746
1110.560864	0.020022
1110.720576	-0.002144
1110.880269	-0.005238
1111.039945	-0.001592
1111.199602	-0.000140
1111.359240	-0.012585
1111.518861	-0.030200
1111.678463	-0.043434
1111.838047	-0.042949
1111.997613	-0.057147
1112.157161	-0.054362
1112.316690	-0.055282
1112.476202	-0.040851
1112.635695	-0.034188
1112.795169	-0.025038
1112.954626	-0.022959
1113.114064	-0.010630
1113.273484	0.007077
1113.432886	0.014964
1113.592270	0.011664
1113.751635	0.008868
1113.910983	-0.000500
1114.070312	-0.007033
1114.229622	-0.001785
1114.388915	0.007094
1114.548189	0.003106
1114.707445	-0.006741
1114.866683	-0.011651
1115.025903	-0.007744
1115.185104	-0.003009
1115.344287	-0.003516
1115.503452	-0.020337
1115.662599	-0.037031
1115.821727	-0.046490
1115.980838	-0.035020
1116.139930	-0.029515
1116.299004	-0.012906
1116.458059	-0.018071
1116.617097	-0.030113
1116.776116	-0.033377
1116.935117	-0.023935
1117.094099	0.000237
1117.253064	0.006061
1117.412010	-0.015847
1117.570938	-0.030533
1117.729848	-0.047342
1117.888740	-0.052766
1118.047613	-0.038839
1118.206468	-0.028840
1118.365305	-0.021121
1118.524124	-0.020105
1118.682924	-0.023453
1118.841707	-0.007087
1119.000471	-0.007972
1119.159216	-0.017514
1119.317944	-0.030562
1119.476653	-0.024807
1119.635344	-0.030612
1119.794017	-0.026966
1119.952672	-0.014230
1120.111308	-0.024708
1120.269927	-0.007501
1120.428527	-0.010559
1120.587108	0.007421
1120.745672	0.046307
1120.904217	0.030603
1121.062744	0.027681
1121.221253	0.013485
1121.379744	-0.024234
1121.538216	-0.004904
1121.696671	-0.018401
1121.855107	-0.005587
1122.013524	-0.008546
1122.171924	-0.022088
1122.330305	-0.022556
1122.488668	-0.026015
1122.647013	-0.030129
1122.805340	-0.008889
1122.963648	-0.030115
1123.121938	-0.055830
1123.280210	-0.069623
1123.438464	-0.078182
1123.596700	-0.076648
1123.754917	-0.073828
1123.913116	-0.085524
1124.071297	-0.083142
1124.229459	-0.076360
1124.387604	-0.048407
1124.545730	-0.032716
1124.703838	-0.014075
1124.861928	0.017402
1125.019999	0.002237
1125.178052	-0.008330
1125.336088	0.024006
1125.494104	0.025798
1125.652103	0.017956
1125.810083	0.002757
1125.968045	0.016547
1126.125989	0.010060
1126.283915	-0.002461
1126.441823	0.007702
1126.599712	0.005638
1126.757583	0.015849
1126.915436	0.026510
1127.073270	0.021272
1127.231087	0.020548
1127.388885	0.018243
1127.546665	0.024388
1127.704426	0.010206
1127.862170	0.020581
1128.019895	0.033195
1128.177602	0.019656
1128.335291	0.038586
1128.492961	0.057950
1128.650614	0.079353
1128.808248	0.050824
1128.965864	0.066334
1129.123461	0.072275
1129.281041	0.069632
1129.438602	0.068952
1129.596145	0.082682
1129.753670	0.060412
1129.911176	0.067100
1130.068665	0.038117
1130.226135	0.056956
1130.383587	0.018485
1130.541020	0.004678
1130.698436	-0.014594
1130.855833	0.003860
1131.013212	-0.011452
1131.170573	-0.006512
1131.327915	-0.035963
1131.485239	-0.040392
1131.642545	-0.056356
1131.799833	-0.051894
1131.957103	-0.036210
1132.114354	-0.018397
1132.271588	-0.045200
1132.428803	-0.044094
1132.585999	-0.047162
1132.743178	-0.054796
1132.900338	-0.064483
1133.057480	-0.057039
1133.214604	-0.049580
1133.371710	-0.024049
1133.528797	-0.024645
1133.685866	-0.013850
1133.842917	0.010837
1133.999950	0.003141
1134.156964	0.027297
1134.313960	0.042785
1134.470938	0.044845
1134.627898	0.063946
1134.784840	0.023706
1134.941763	0.031801
1135.098668	0.016680
1135.255555	0.000580
1135.412424	-0.006801
1135.569274	-0.001129
1135.726107	-0.003603
1135.882921	0.014929
1136.039716	0.010087
1136.196494	0.029307
1136.353253	0.025356
1136.509995	0.056582
1136.666717	0.016585
1136.823422	0.035262
1136.980109	0.041525
1137.136777	0.061410
1137.293427	0.066525
1137.450059	0.040996
1137.606672	0.032029
1137.763267	0.028831
1137.919844	0.022338
1138.076403	0.043024
1138.232944	0.024474
1138.389466	-0.001429
1138.545971	-0.029213
1138.702457	-0.077104
1138.858924	-0.082464
1139.015374	-0.076668
1139.171805	-0.073879
1139.328218	-0.079848
1139.484613	-0.072663
1139.640990	-0.070455
1139.797348	-0.055188
1139.953688	-0.033779
1140.110010	-0.023664
1140.266314	-0.029272
1140.422600	0.000221
1140.578867	-0.020333
1140.735116	-0.014980
1140.891347	-0.030873
1141.047559	0.002260
1141.203754	-0.018965
1141.359930	-0.025885
1141.516088	-0.012469
1141.672228	-0.022253
1141.828349	-0.077169
1141.984452	-0.086658
1142.140537	-0.093688
1142.296604	-0.077062
1142.452653	-0.107174
1142.608683	-0.093574
1142.764695	-0.075282
1142.920689	-0.076952
1143.076665	-0.066865
1143.232622	-0.044682
1143.388562	-0.005265
1143.544483	-0.001282
1143.700385	-0.036761
1143.856270	-0.006713
1144.012136	-0.008089
1144.167985	-0.021456
1144.323814	0.006097
1144.479626	0.036507
1144.635420	0.030183
1144.791195	-0.044918
1144.946952	-0.038234
1145.102691	0.018933
1145.258411	-0.005135
1145.414113	-0.017068
1145.569798	-0.027393
1145.725463	-0.041297
1145.881111	-0.022781
1146.036741	-0.043900
1146.192352	0.003431
1146.347945	-0.002666
1146.503519	-0.049834
1146.659076	-0.049430
1146.814614	-0.030879
1146.970134	-0.016873
1147.125636	0.015036
1147.281120	-0.005158
1147.436585	-0.004524
1147.592032	0.022605
1147.747461	0.024530
1147.902872	0.027297
1148.058265	0.054386
1148.213639	0.020490
1148.368995	0.029579
1148.524333	0.035358
1148.679653	0.022779
1148.834954	0.034183
1148.990237	0.007452
1149.145502	-0.014772
1149.300749	-0.005686
1149.455977	0.000588
1149.611188	0.017853
1149.766380	-0.024440
1149.921553	-0.053673
1150.076709	-0.036735
1150.231846	-0.058459
1150.386966	-0.082655
1150.542066	-0.072098
1150.697149	-0.055104
1150.852214	-0.065827
1151.007260	-0.068096
1151.162288	-0.010833
1151.317298	-0.026890
1151.472289	-0.057238
1151.627263	-0.006019
1151.782218	0.029538
1151.937155	0.009654
1152.092073	-0.005509
1152.246974	-0.004513
1152.401856	-0.005556
1152.556720	-0.036321
1152.711566	-0.013899
1152.866393	0.012038
1153.021203	0.009239
1153.175994	0.022511
1153.330767	0.093561
1153.485521	0.042423
1153.640258	0.047303
1153.794976	0.050423
1153.949676	0.041854
1154.104358	0.005467
1154.259021	-0.004596
1154.413667	-0.021929
1154.568294	-0.033075
1154.722903	-0.069476
1154.877493	-0.048060
1155.032066	-0.089275
1155.186620	-0.071537
1155.341156	-0.101483
1155.495674	-0.048280
1155.650173	-0.062435
1155.804654	-0.068764
1155.959118	-0.082668
1156.113562	-0.055823
1156.267989	-0.061539
1156.422397	-0.056171
1156.576788	-0.053057
1156.731160	-0.016292
1156.885513	-0.033547
1157.039849	-0.025056
1157.194166	-0.012532
1157.348465	0.016941
1157.502746	-0.014999
1157.657009	-0.021137
1157.811253	-0.007774
1157.965479	-0.007026
1158.119687	-0.031237
1158.273877	-0.037779
1158.428048	-0.014559
1158.582201	0.015884
1158.736337	-0.001502
1158.890453	-0.014919
1159.044552	0.038249
1159.198632	0.010623
1159.352694	-0.034966
1159.506738	0.025899
1159.660764	-0.007583
1159.814771	-0.034094
1159.968761	-0.042611
1160.122732	-0.041966
1160.276685	-0.059233
1160.430619	-0.116206
1160.584535	-0.083207
1160.738434	-0.052531
1160.892313	-0.072062
1161.046175	-0.039280
1161.200019	-0.051668
1161.353844	-0.106810
1161.507651	-0.133138
1161.661440	-0.103444
1161.815210	-0.063725
1161.968962	-0.112662
1162.122697	-0.099494
1162.276412	-0.142187
1162.430110	-0.154349
1162.583789	-0.117085
1162.737451	-0.120155
1162.891094	-0.106898
1163.044718	-0.108241
1163.198325	-0.107250
1163.351913	-0.100084
1163.505483	-0.133884
1163.659035	-0.131554
1163.812569	-0.085095
1163.966084	-0.029390
1164.119581	0.042569
1164.273060	0.072407
1164.426521	0.109078
1164.579964	0.130235
1164.733388	0.166298
1164.886794	0.133644
1165.040182	0.156052
1165.193551	0.072057
1165.346903	-0.016301
1165.500236	-0.033816
1165.653551	-0.075130
1165.806848	-0.074093
1165.960126	-0.135313
1166.113386	-0.167679
1166.266628	-0.142239
1166.419852	-0.155837
1166.573058	-0.165226
1166.726245	-0.125305
1166.879414	-0.126076
1167.032565	-0.078975
1167.185698	-0.068482
1167.338812	-0.010558
1167.491909	0.099654
1167.644987	0.108051
1167.798046	0.190261
1167.951088	0.281754
1168.104111	0.215632
1168.257117	0.182422
1168.410103	0.185799
1168.563072	0.178247
1168.716023	0.052405
1168.868955	0.021285
1169.021869	-0.013718
1169.174765	-0.070280
1169.327642	-0.095473
1169.480501	-0.048997
1169.633343	0.033084
1169.786165	0.104796
1169.938970	0.085382
1170.091757	0.234999
1170.244525	0.217568
1170.397275	0.170890
1170.550007	0.241217
1170.702720	0.211541
1170.855415	0.141307
1171.008092	0.036758
1171.160751	-0.038608
1171.313392	-0.055622
1171.466014	-0.094848
1171.618619	-0.114180
1171.771205	-0.114180
1171.923772	-0.114180
