sample name	sample
index	1375
start time	 05-03-2021  02:37:06 PM


Wavelength (nm)	Absorbance
494.344910	-0.382151
494.563924	-0.382151
494.782919	-0.382151
495.001897	0.035063
495.220856	-0.290274
495.439797	-0.250239
495.658719	-0.201742
495.877624	-0.230109
496.096510	-0.225613
496.315378	-0.172450
496.534227	-0.115416
496.753059	-0.037131
496.971872	-0.001604
497.190667	0.014207
497.409444	0.013578
497.628203	0.013243
497.846943	0.014321
498.065665	0.015538
498.284369	0.013823
498.503055	0.012628
498.721723	0.011937
498.940372	0.011090
499.159003	0.010455
499.377616	0.010405
499.596210	0.009990
499.814787	0.010098
500.033345	0.009315
500.251885	0.009435
500.470406	0.008944
500.688910	0.008751
500.907395	0.009073
501.125862	0.010377
501.344311	0.009518
501.562742	0.008886
501.781154	0.008927
501.999548	0.008287
502.217924	0.009170
502.436282	0.009498
502.654621	0.009440
502.872942	0.010035
503.091245	0.009744
503.309530	0.010443
503.527797	0.011136
503.746045	0.010926
503.964275	0.011289
504.182487	0.010219
504.400681	0.009417
504.618856	0.008457
504.837013	0.007823
505.055152	0.006996
505.273273	0.006356
505.491376	0.006056
505.709460	0.005461
505.927526	0.004518
506.145574	0.004081
506.363604	0.004504
506.581615	0.005086
506.799608	0.005986
507.017583	0.005353
507.235540	0.006463
507.453478	0.006052
507.671399	0.006930
507.889301	0.007580
508.107185	0.008691
508.325050	0.007892
508.542898	0.007627
508.760727	0.006810
508.978538	0.007863
509.196330	0.005856
509.414105	0.006315
509.631861	0.006234
509.849599	0.005234
510.067319	0.004460
510.285021	0.004580
510.502704	0.004050
510.720369	0.003268
510.938016	0.002264
511.155645	0.002662
511.373255	0.001957
511.590848	0.001606
511.808422	0.002036
512.025977	0.002666
512.243515	0.002526
512.461034	0.002984
512.678536	0.002818
512.896018	0.002587
513.113483	0.002723
513.330930	0.003107
513.548358	0.003165
513.765768	0.003698
513.983160	0.002502
514.200533	0.002955
514.417889	0.002521
514.635226	0.003480
514.852545	0.003510
515.069845	0.004309
515.287128	0.004868
515.504392	0.004380
515.721638	0.004626
515.938866	0.005237
516.156075	0.005405
516.373267	0.005330
516.590440	0.004725
516.807594	0.004829
517.024731	0.004539
517.241850	0.004234
517.458950	0.004441
517.676032	0.004055
517.893095	0.003824
518.110141	0.003911
518.327168	0.004254
518.544177	0.004108
518.761168	0.004601
518.978141	0.004561
519.195095	0.003766
519.412031	0.002993
519.628949	0.002482
519.845849	0.002581
520.062731	0.001552
520.279594	0.001132
520.496439	0.001106
520.713266	0.001194
520.930074	0.000852
521.146865	0.001960
521.363637	0.002464
521.580391	0.002747
521.797127	0.002498
522.013844	0.003313
522.230543	0.003682
522.447224	0.004053
522.663887	0.003915
522.880532	0.004373
523.097158	0.003872
523.313766	0.003753
523.530356	0.004168
523.746928	0.004531
523.963481	0.004809
524.180017	0.004829
524.396534	0.004808
524.613032	0.005170
524.829513	0.004513
525.045975	0.003902
525.262420	0.003931
525.478845	0.004098
525.695253	0.004363
525.911643	0.003570
526.128014	0.003276
526.344367	0.003026
526.560702	0.002898
526.777018	0.003764
526.993316	0.004302
527.209597	0.004378
527.425858	0.004192
527.642102	0.003859
527.858328	0.004148
528.074535	0.004306
528.290724	0.004259
528.506894	0.003872
528.723047	0.003727
528.939181	0.004376
529.155297	0.004868
529.371395	0.004854
529.587475	0.005460
529.803536	0.006657
530.019579	0.007078
530.235604	0.007287
530.451611	0.007350
530.667600	0.006737
530.883570	0.005896
531.099522	0.005458
531.315456	0.005224
531.531372	0.005449
531.747269	0.004447
531.963148	0.004372
532.179009	0.004983
532.394852	0.005257
532.610676	0.005730
532.826482	0.005980
533.042271	0.005798
533.258040	0.006093
533.473792	0.005349
533.689525	0.005126
533.905240	0.005150
534.120937	0.004921
534.336616	0.005135
534.552277	0.004860
534.767919	0.004351
534.983543	0.004868
535.199149	0.005197
535.414736	0.005519
535.630306	0.005367
535.845857	0.005382
536.061390	0.005566
536.276904	0.005757
536.492401	0.005721
536.707879	0.006493
536.923339	0.006575
537.138781	0.006067
537.354204	0.005861
537.569610	0.007114
537.784997	0.007188
538.000366	0.007145
538.215716	0.006550
538.431049	0.007059
538.646363	0.007154
538.861659	0.006791
539.076937	0.006602
539.292196	0.006946
539.507438	0.006101
539.722661	0.005936
539.937866	0.005925
540.153052	0.005753
540.368221	0.005943
540.583371	0.005878
540.798503	0.005656
541.013617	0.006113
541.228712	0.005904
541.443789	0.006215
541.658848	0.006681
541.873889	0.006712
542.088912	0.006946
542.303916	0.006325
542.518902	0.006430
542.733870	0.006817
542.948820	0.006712
543.163752	0.006975
543.378665	0.007065
543.593560	0.006743
543.808437	0.006126
544.023295	0.006312
544.238136	0.006518
544.452958	0.006298
544.667762	0.006452
544.882548	0.006178
545.097315	0.006130
545.312064	0.005887
545.526795	0.005883
545.741508	0.006206
545.956203	0.005940
546.170879	0.005838
546.385537	0.006213
546.600177	0.005897
546.814799	0.006018
547.029402	0.005845
547.243988	0.005899
547.458555	0.006054
547.673103	0.006096
547.887634	0.006232
548.102146	0.006698
548.316640	0.006161
548.531116	0.006340
548.745574	0.006570
548.960013	0.006381
549.174435	0.006396
549.388838	0.006429
549.603222	0.007067
549.817589	0.007130
550.031937	0.006949
550.246267	0.007049
550.460579	0.007163
550.674873	0.007381
550.889148	0.007517
551.103405	0.007473
551.317644	0.007580
551.531865	0.006718
551.746068	0.006928
551.960252	0.006945
552.174418	0.007350
552.388566	0.007541
552.602696	0.007561
552.816807	0.007516
553.030900	0.007489
553.244975	0.006778
553.459032	0.007251
553.673070	0.007304
553.887091	0.007599
554.101093	0.007605
554.315077	0.007723
554.529042	0.007484
554.742990	0.007780
554.956919	0.008160
555.170830	0.008691
555.384722	0.008520
555.598597	0.008490
555.812453	0.008012
556.026291	0.008084
556.240111	0.007902
556.453913	0.007706
556.667696	0.007984
556.881461	0.007685
557.095208	0.007907
557.308937	0.007709
557.522647	0.007694
557.736339	0.007932
557.950013	0.007604
558.163669	0.007562
558.377307	0.007843
558.590926	0.007682
558.804527	0.007667
559.018110	0.007567
559.231675	0.007560
559.445221	0.007601
559.658749	0.007548
559.872259	0.007376
560.085751	0.007195
560.299225	0.007248
560.512680	0.007016
560.726117	0.007154
560.939536	0.006734
561.152937	0.006777
561.366319	0.006459
561.579683	0.006905
561.793029	0.006978
562.006357	0.006663
562.219667	0.006804
562.432958	0.006967
562.646231	0.006936
562.859486	0.007109
563.072723	0.007127
563.285941	0.007238
563.499141	0.006623
563.712323	0.006408
563.925487	0.006778
564.138632	0.006517
564.351760	0.006121
564.564869	0.005923
564.777960	0.006002
564.991032	0.006058
565.204087	0.006111
565.417123	0.005863
565.630141	0.006024
565.843140	0.006036
566.056122	0.005915
566.269085	0.006248
566.482030	0.006360
566.694957	0.006320
566.907866	0.005970
567.120756	0.006000
567.333628	0.006500
567.546482	0.006559
567.759318	0.006366
567.972135	0.006442
568.184935	0.006407
568.397716	0.006193
568.610478	0.006118
568.823223	0.006477
569.035949	0.006161
569.248657	0.005845
569.461347	0.006208
569.674019	0.006121
569.886672	0.006094
570.099308	0.005921
570.311925	0.006098
570.524523	0.006208
570.737104	0.006122
570.949666	0.006061
571.162210	0.006290
571.374736	0.005759
571.587244	0.005869
571.799733	0.005845
572.012205	0.005658
572.224658	0.005467
572.437092	0.005336
572.649509	0.005421
572.861907	0.005262
573.074287	0.004946
573.286649	0.005141
573.498993	0.005265
573.711318	0.005287
573.923625	0.005632
574.135914	0.005944
574.348185	0.005802
574.560438	0.005654
574.772672	0.005870
574.984888	0.005957
575.197086	0.005941
575.409266	0.005997
575.621427	0.006262
575.833570	0.006030
576.045695	0.005959
576.257802	0.006359
576.469890	0.006346
576.681961	0.006216
576.894013	0.006372
577.106046	0.006352
577.318062	0.006169
577.530059	0.006007
577.742039	0.005803
577.954000	0.005562
578.165942	0.005198
578.377867	0.005216
578.589773	0.005301
578.801661	0.005044
579.013531	0.004843
579.225382	0.005095
579.437216	0.005034
579.649031	0.004990
579.860828	0.004944
580.072606	0.004827
580.284367	0.004908
580.496109	0.005143
580.707833	0.005194
580.919539	0.005342
581.131227	0.005167
581.342896	0.005023
581.554547	0.005459
581.766180	0.005859
581.977795	0.006368
582.189391	0.006371
582.400969	0.006393
582.612529	0.006435
582.824071	0.006687
583.035595	0.006571
583.247100	0.006449
583.458587	0.006379
583.670056	0.006211
583.881506	0.005831
584.092939	0.005829
584.304353	0.005720
584.515749	0.005887
584.727127	0.005863
584.938486	0.005816
585.149828	0.005934
585.361151	0.005748
585.572456	0.005365
585.783742	0.005445
585.995011	0.005176
586.206261	0.005193
586.417493	0.004889
586.628706	0.004608
586.839902	0.004497
587.051079	0.004634
587.262238	0.004441
587.473379	0.004857
587.684502	0.004863
587.895606	0.005366
588.106692	0.005562
588.317760	0.005676
588.528810	0.005527
588.739841	0.006088
588.950855	0.005904
589.161850	0.006122
589.372827	0.005985
589.583785	0.005998
589.794726	0.005874
590.005648	0.005617
590.216552	0.005561
590.427437	0.006029
590.638305	0.005636
590.849154	0.005619
591.059985	0.005770
591.270798	0.005955
591.481592	0.006003
591.692369	0.005916
591.903127	0.006080
592.113867	0.006163
592.324588	0.005825
592.535292	0.006200
592.745977	0.006388
592.956644	0.006382
593.167293	0.006033
593.377923	0.006069
593.588536	0.006084
593.799130	0.005940
594.009706	0.005908
594.220263	0.006136
594.430803	0.005892
594.641324	0.005963
594.851827	0.005815
595.062312	0.005871
595.272778	0.006106
595.483227	0.005979
595.693657	0.005898
595.904069	0.005924
596.114462	0.005833
596.324838	0.006121
596.535195	0.005793
596.745534	0.006065
596.955855	0.006264
597.166157	0.006220
597.376441	0.006408
597.586707	0.006728
597.796955	0.006629
598.007185	0.006564
598.217396	0.006324
598.427589	0.006641
598.637764	0.006725
598.847921	0.006986
599.058060	0.006688
599.268180	0.006707
599.478282	0.006703
599.688366	0.007032
599.898431	0.007490
600.108479	0.007796
600.318508	0.007831
600.528519	0.007826
600.738511	0.007964
600.948486	0.008320
601.158442	0.008588
601.368380	0.008744
601.578300	0.008897
601.788202	0.008789
601.998085	0.008654
602.207950	0.008599
602.417797	0.008757
602.627626	0.008759
602.837436	0.008605
603.047228	0.008593
603.257002	0.008453
603.466758	0.008312
603.676496	0.008387
603.886215	0.008444
604.095916	0.008565
604.305599	0.008522
604.515264	0.008383
604.724910	0.008509
604.934538	0.008612
605.144148	0.008631
605.353740	0.008644
605.563314	0.008517
605.772869	0.008382
605.982406	0.008460
606.191925	0.008535
606.401425	0.008391
606.610908	0.008146
606.820372	0.008112
607.029818	0.008224
607.239246	0.008205
607.448655	0.007906
607.658047	0.008050
607.867420	0.008178
608.076775	0.007960
608.286111	0.008185
608.495430	0.008494
608.704730	0.008505
608.914012	0.008318
609.123275	0.008424
609.332521	0.008779
609.541748	0.008823
609.750957	0.008572
609.960148	0.008363
610.169321	0.008188
610.378475	0.008148
610.587611	0.008286
610.796729	0.008162
611.005829	0.008286
611.214910	0.008256
611.423974	0.008108
611.633019	0.008340
611.842045	0.008629
612.051054	0.008716
612.260044	0.008912
612.469017	0.008764
612.677970	0.009072
612.886906	0.009003
613.095824	0.009064
613.304723	0.009409
613.513604	0.009457
613.722467	0.009596
613.931311	0.009658
614.140138	0.009357
614.348946	0.008956
614.557736	0.008889
614.766507	0.008908
614.975261	0.008905
615.183996	0.008746
615.392713	0.008644
615.601412	0.008599
615.810092	0.008422
616.018754	0.008451
616.227399	0.008832
616.436024	0.008691
616.644632	0.008460
616.853222	0.008247
617.061793	0.008147
617.270346	0.008158
617.478880	0.007894
617.687397	0.008057
617.895895	0.008047
618.104375	0.008008
618.312837	0.007932
618.521281	0.008174
618.729706	0.008397
618.938113	0.008374
619.146502	0.008396
619.354873	0.008663
619.563226	0.008713
619.771560	0.008754
619.979876	0.008728
620.188174	0.008927
620.396453	0.008804
620.604715	0.009113
620.812958	0.009120
621.021183	0.009010
621.229390	0.009014
621.437578	0.009065
621.645748	0.009315
621.853900	0.009399
622.062034	0.009301
622.270150	0.009384
622.478247	0.009157
622.686326	0.009291
622.894387	0.009452
623.102430	0.009424
623.310454	0.009182
623.518461	0.009092
623.726449	0.009159
623.934418	0.009394
624.142370	0.009536
624.350303	0.009387
624.558218	0.009271
624.766115	0.009290
624.973994	0.009301
625.181855	0.009476
625.389697	0.009438
625.597521	0.009399
625.805327	0.009510
626.013114	0.009429
626.220883	0.009624
626.428634	0.009777
626.636367	0.009708
626.844082	0.009663
627.051778	0.009736
627.259457	0.009683
627.467117	0.009592
627.674758	0.009422
627.882382	0.009442
628.089987	0.009421
628.297574	0.009458
628.505143	0.009627
628.712694	0.009916
628.920226	0.009828
629.127740	0.009851
629.335236	0.009865
629.542714	0.009992
629.750174	0.010007
629.957615	0.010110
630.165038	0.010253
630.372443	0.010015
630.579829	0.009839
630.787198	0.009996
630.994548	0.010335
631.201880	0.010776
631.409194	0.010942
631.616489	0.011235
631.823766	0.011438
632.031025	0.011341
632.238266	0.011627
632.445489	0.011732
632.652693	0.011954
632.859879	0.011806
633.067047	0.011535
633.274197	0.011290
633.481329	0.011122
633.688442	0.010798
633.895537	0.010787
634.102614	0.010824
634.309672	0.010761
634.516713	0.010594
634.723735	0.010554
634.930739	0.010666
635.137724	0.010857
635.344692	0.010797
635.551641	0.010931
635.758572	0.010805
635.965485	0.010626
636.172379	0.010741
636.379256	0.010928
636.586114	0.010894
636.792954	0.010872
636.999775	0.010828
637.206579	0.010916
637.413364	0.010925
637.620131	0.011094
637.826880	0.011097
638.033610	0.010807
638.240323	0.010489
638.447017	0.010475
638.653692	0.010266
638.860350	0.010073
639.066990	0.009882
639.273611	0.009900
639.480214	0.009833
639.686798	0.009802
639.893365	0.009799
640.099913	0.009881
640.306443	0.009734
640.512955	0.009880
640.719449	0.010087
640.925924	0.010293
641.132381	0.010179
641.338820	0.010306
641.545241	0.010467
641.751644	0.010922
641.958028	0.011118
642.164394	0.011418
642.370742	0.011387
642.577071	0.011232
642.783383	0.011198
642.989676	0.011391
643.195951	0.011474
643.402207	0.011617
643.608446	0.011394
643.814666	0.011363
644.020868	0.011325
644.227052	0.011417
644.433218	0.011890
644.639365	0.011993
644.845494	0.012033
645.051605	0.011932
645.257698	0.011926
645.463772	0.011952
645.669828	0.011781
645.875866	0.011938
646.081886	0.011910
646.287888	0.011602
646.493871	0.011719
646.699836	0.011612
646.905783	0.011796
647.111712	0.011579
647.317622	0.011581
647.523514	0.011687
647.729388	0.011687
647.935244	0.011855
648.141082	0.011839
648.346901	0.011803
648.552702	0.011761
648.758485	0.011778
648.964250	0.011930
649.169996	0.012163
649.375724	0.012260
649.581434	0.012127
649.787126	0.011963
649.992800	0.012363
650.198455	0.012558
650.404092	0.012780
650.609711	0.012624
650.815311	0.012746
651.020894	0.012826
651.226458	0.012909
651.432004	0.012999
651.637532	0.013030
651.843041	0.012869
652.048532	0.012546
652.254006	0.012481
652.459460	0.012691
652.664897	0.012655
652.870315	0.012474
653.075716	0.012659
653.281097	0.012807
653.486461	0.013097
653.691807	0.013106
653.897134	0.013320
654.102443	0.013432
654.307734	0.013364
654.513006	0.013424
654.718261	0.013563
654.923497	0.013496
655.128715	0.013470
655.333915	0.013382
655.539096	0.013330
655.744259	0.013444
655.949404	0.013392
656.154531	0.013467
656.359640	0.013417
656.564730	0.013389
656.769802	0.013271
656.974856	0.013286
657.179892	0.013133
657.384909	0.013075
657.589908	0.012796
657.794889	0.012613
657.999852	0.012364
658.204797	0.012257
658.409723	0.012153
658.614631	0.012017
658.819521	0.011765
659.024393	0.011697
659.229246	0.011735
659.434081	0.011941
659.638898	0.011966
659.843697	0.012058
660.048478	0.011853
660.253240	0.011863
660.457984	0.011618
660.662710	0.011714
660.867417	0.011694
661.072107	0.011751
661.276778	0.011507
661.481431	0.011577
661.686066	0.011583
661.890682	0.011863
662.095281	0.011958
662.299861	0.012222
662.504422	0.012287
662.708966	0.012486
662.913491	0.012534
663.117999	0.012658
663.322488	0.012772
663.526958	0.012755
663.731411	0.012672
663.935845	0.012593
664.140261	0.012508
664.344659	0.012469
664.549038	0.012402
664.753400	0.012412
664.957743	0.012651
665.162068	0.012496
665.366375	0.012552
665.570663	0.012562
665.774933	0.012571
665.979185	0.012717
666.183419	0.012926
666.387635	0.012952
666.591832	0.012928
666.796011	0.012731
667.000172	0.012802
667.204315	0.012954
667.408439	0.013292
667.612545	0.013346
667.816634	0.013454
668.020703	0.013282
668.224755	0.013465
668.428788	0.013405
668.632803	0.013383
668.836800	0.013613
669.040779	0.013578
669.244739	0.013398
669.448681	0.013641
669.652605	0.013700
669.856511	0.013868
670.060399	0.013797
670.264268	0.013731
670.468119	0.013872
670.671952	0.013743
670.875767	0.013721
671.079563	0.013784
671.283341	0.013614
671.487101	0.013654
671.690843	0.013475
671.894567	0.013449
672.098272	0.013674
672.301959	0.013705
672.505628	0.013622
672.709278	0.013759
672.912911	0.013779
673.116525	0.013855
673.320121	0.013890
673.523699	0.014191
673.727258	0.014253
673.930799	0.014274
674.134322	0.014283
674.337827	0.014715
674.541314	0.014614
674.744782	0.014760
674.948232	0.014752
675.151664	0.014851
675.355078	0.014801
675.558474	0.014935
675.761851	0.015016
675.965210	0.014954
676.168551	0.014591
676.371873	0.014709
676.575178	0.014644
676.778464	0.014686
676.981732	0.014499
677.184981	0.014489
677.388213	0.014476
677.591426	0.014420
677.794621	0.014596
677.997798	0.014647
678.200956	0.014618
678.404097	0.014644
678.607219	0.014778
678.810323	0.014921
679.013408	0.015140
679.216476	0.015199
679.419525	0.015262
679.622556	0.015390
679.825569	0.015664
680.028563	0.015687
680.231540	0.015886
680.434498	0.015991
680.637438	0.016127
680.840359	0.016030
681.043263	0.016043
681.246148	0.016101
681.449015	0.016032
681.651864	0.016006
681.854694	0.016126
682.057506	0.016132
682.260301	0.016206
682.463076	0.016070
682.665834	0.016187
682.868573	0.016358
683.071295	0.016549
683.273998	0.016612
683.476682	0.016800
683.679349	0.017014
683.881997	0.016848
684.084627	0.016679
684.287239	0.016807
684.489833	0.016843
684.692408	0.016826
684.894965	0.016743
685.097504	0.016805
685.300025	0.016759
685.502527	0.016645
685.705012	0.016746
685.907478	0.016759
686.109925	0.016707
686.312355	0.016588
686.514766	0.016615
686.717159	0.016605
686.919534	0.016597
687.121891	0.016434
687.324230	0.016370
687.526550	0.016278
687.728852	0.016270
687.931136	0.016371
688.133401	0.016336
688.335649	0.016315
688.537878	0.016358
688.740089	0.016311
688.942281	0.016292
689.144456	0.016204
689.346612	0.016283
689.548750	0.016424
689.750870	0.016346
689.952971	0.016393
690.155055	0.016368
690.357120	0.016292
690.559167	0.016236
690.761195	0.016330
690.963206	0.016316
691.165198	0.016237
691.367172	0.016186
691.569128	0.016289
691.771065	0.016203
691.972984	0.016309
692.174885	0.016452
692.376768	0.016540
692.578633	0.016639
692.780479	0.016890
692.982308	0.017098
693.184118	0.017292
693.385909	0.017368
693.587683	0.017545
693.789438	0.017503
693.991175	0.017479
694.192894	0.017530
694.394595	0.017651
694.596277	0.017689
694.797941	0.017652
694.999587	0.017522
695.201215	0.017467
695.402824	0.017636
695.604416	0.017555
695.805989	0.017589
696.007543	0.017591
696.209080	0.017541
696.410598	0.017557
696.612099	0.017537
696.813580	0.017704
697.015044	0.017863
697.216490	0.017967
697.417917	0.018115
697.619326	0.018196
697.820717	0.018280
698.022089	0.018231
698.223444	0.018434
698.424780	0.018595
698.626098	0.018600
698.827397	0.018451
699.028679	0.018312
699.229942	0.018308
699.431187	0.018233
699.632414	0.018438
699.833622	0.018629
700.034813	0.018405
700.235985	0.018329
700.437139	0.018146
700.638274	0.018094
700.839392	0.018052
701.040491	0.018132
701.241572	0.018132
701.442635	0.017959
701.643679	0.017876
701.844706	0.017979
702.045714	0.018108
702.246704	0.018200
702.447675	0.018422
702.648629	0.018443
702.849564	0.018269
703.050481	0.018161
703.251380	0.018126
703.452260	0.018028
703.653122	0.017941
703.853966	0.017808
704.054792	0.017540
704.255600	0.017328
704.456389	0.017317
704.657160	0.017289
704.857913	0.017326
705.058648	0.017206
705.259365	0.017290
705.460063	0.017205
705.660743	0.017193
705.861405	0.017445
706.062048	0.017564
706.262674	0.017338
706.463281	0.017335
706.663870	0.017329
706.864441	0.017283
707.064993	0.017043
707.265527	0.017095
707.466043	0.016953
707.666541	0.016966
707.867021	0.016769
708.067482	0.016777
708.267925	0.016719
708.468350	0.016765
708.668757	0.016785
708.869145	0.017015
709.069516	0.016919
709.269868	0.017185
709.470201	0.017147
709.670517	0.017306
709.870814	0.017528
710.071093	0.017617
710.271354	0.017757
710.471597	0.017861
710.671821	0.017737
710.872028	0.017810
711.072216	0.017685
711.272385	0.017480
711.472537	0.017491
711.672670	0.017561
711.872785	0.017614
712.072882	0.017508
712.272961	0.017453
712.473021	0.017432
712.673063	0.017460
712.873087	0.017498
713.073093	0.017627
713.273081	0.017613
713.473050	0.017483
713.673001	0.017557
713.872934	0.017452
714.072849	0.017331
714.272745	0.017288
714.472623	0.017107
714.672483	0.017039
714.872325	0.017236
715.072148	0.017184
715.271954	0.017129
715.471741	0.017039
715.671509	0.017387
715.871260	0.017668
716.070992	0.017771
716.270707	0.017921
716.470403	0.017866
716.670080	0.017644
716.869740	0.017640
717.069381	0.017832
717.269004	0.017923
717.468609	0.017719
717.668195	0.017561
717.867764	0.017554
718.067314	0.017515
718.266846	0.017434
718.466360	0.017429
718.665855	0.017363
718.865332	0.017145
719.064791	0.016831
719.264232	0.016685
719.463655	0.016414
719.663059	0.016168
719.862445	0.016025
720.061813	0.015990
720.261163	0.015817
720.460494	0.015657
720.659807	0.015588
720.859102	0.015478
721.058379	0.015410
721.257638	0.015586
721.456878	0.015568
721.656100	0.015587
721.855304	0.015497
722.054490	0.015359
722.253657	0.015447
722.452806	0.015428
722.651937	0.015337
722.851050	0.015247
723.050145	0.015084
723.249221	0.015022
723.448279	0.014889
723.647319	0.014693
723.846340	0.014872
724.045344	0.014757
724.244329	0.014607
724.443296	0.014680
724.642245	0.014557
724.841175	0.014524
725.040088	0.014298
725.238982	0.014231
725.437857	0.014313
725.636715	0.014171
725.835554	0.014020
726.034376	0.013891
726.233179	0.014002
726.431963	0.014050
726.630730	0.014009
726.829478	0.014122
727.028208	0.014185
727.226920	0.014158
727.425614	0.014054
727.624289	0.014208
727.822946	0.014304
728.021585	0.014212
728.220206	0.014041
728.418808	0.014024
728.617392	0.014065
728.815958	0.013943
729.014506	0.014088
729.213036	0.014140
729.411547	0.013899
729.610040	0.013875
729.808515	0.013847
730.006972	0.013822
730.205410	0.013693
730.403831	0.013831
730.602233	0.013861
730.800616	0.013792
730.998982	0.013806
731.197329	0.013935
731.395658	0.013969
731.593969	0.014050
731.792262	0.014067
731.990536	0.014286
732.188793	0.014241
732.387031	0.014163
732.585250	0.014133
732.783452	0.014096
732.981635	0.014094
733.179800	0.013983
733.377947	0.014006
733.576076	0.014166
733.774186	0.013978
733.972278	0.013948
734.170352	0.014071
734.368408	0.014069
734.566446	0.014195
734.764465	0.014250
734.962466	0.014307
735.160449	0.014267
735.358413	0.014228
735.556360	0.014316
735.754288	0.014288
735.952198	0.014563
736.150090	0.014741
736.347963	0.014720
736.545818	0.014924
736.743655	0.015203
736.941474	0.015168
737.139275	0.015352
737.337057	0.015492
737.534821	0.015501
737.732567	0.015199
737.930295	0.015220
738.128005	0.015396
738.325696	0.015315
738.523369	0.015241
738.721024	0.015449
738.918660	0.015461
739.116279	0.015504
739.313879	0.015683
739.511461	0.015874
739.709024	0.015769
739.906570	0.015646
740.104097	0.015959
740.301606	0.015802
740.499097	0.015741
740.696569	0.015740
740.894024	0.015556
741.091460	0.015398
741.288878	0.015347
741.486277	0.015403
741.683659	0.015372
741.881022	0.015006
742.078367	0.015268
742.275694	0.015202
742.473002	0.015303
742.670293	0.015404
742.867565	0.015537
743.064819	0.015614
743.262054	0.015684
743.459272	0.015937
743.656471	0.016176
743.853652	0.015995
744.050815	0.016147
744.247959	0.016165
744.445085	0.016127
744.642194	0.016050
744.839283	0.016014
745.036355	0.015865
745.233408	0.015760
745.430444	0.015687
745.627461	0.015934
745.824459	0.015812
746.021440	0.015738
746.218402	0.015843
746.415346	0.015905
746.612272	0.015906
746.809180	0.016014
747.006069	0.015913
747.202940	0.015977
747.399793	0.015704
747.596628	0.015840
747.793444	0.015856
747.990243	0.016002
748.187023	0.016078
748.383784	0.016014
748.580528	0.016016
748.777253	0.016065
748.973960	0.016012
749.170649	0.016260
749.367320	0.016352
749.563973	0.016247
749.760607	0.016231
749.957223	0.016279
750.153821	0.016316
750.350400	0.016301
750.546962	0.016257
750.743505	0.016175
750.940030	0.016234
751.136536	0.016043
751.333025	0.016150
751.529495	0.016087
751.725947	0.016040
751.922381	0.016243
752.118796	0.016373
752.315194	0.016351
752.511573	0.016416
752.707934	0.016185
752.904276	0.016042
753.100601	0.016003
753.296907	0.015950
753.493195	0.016141
753.689465	0.015992
753.885716	0.015776
754.081949	0.015876
754.278164	0.015838
754.474361	0.015905
754.670540	0.015986
754.866700	0.015855
755.062843	0.015760
755.258967	0.015440
755.455072	0.015356
755.651160	0.015534
755.847229	0.015582
756.043280	0.015582
756.239313	0.015586
756.435328	0.015780
756.631324	0.015834
756.827302	0.015946
757.023262	0.016026
757.219204	0.016230
757.415127	0.016207
757.611033	0.016274
757.806920	0.016175
758.002788	0.016148
758.198639	0.015896
758.394471	0.015977
758.590286	0.015837
758.786081	0.015924
758.981859	0.015872
759.177619	0.015798
759.373360	0.015738
759.569083	0.015849
759.764788	0.015808
759.960474	0.015849
760.156143	0.015594
760.351793	0.015795
760.547425	0.015686
760.743038	0.015599
760.938634	0.015617
761.134211	0.015554
761.329770	0.015619
761.525311	0.015651
761.720833	0.015706
761.916338	0.015917
762.111824	0.015684
762.307292	0.015739
762.502741	0.015678
762.698173	0.015510
762.893586	0.015381
763.088981	0.015215
763.284358	0.015154
763.479716	0.015213
763.675057	0.015006
763.870379	0.015099
764.065683	0.014901
764.260968	0.014868
764.456236	0.014987
764.651485	0.015022
764.846716	0.015053
765.041929	0.015012
765.237123	0.014872
765.432299	0.015048
765.627457	0.015017
765.822597	0.015171
766.017719	0.015129
766.212822	0.015191
766.407907	0.015198
766.602974	0.015305
766.798023	0.015307
766.993054	0.015321
767.188066	0.015252
767.383060	0.015089
767.578036	0.015031
767.772993	0.015150
767.967933	0.015109
768.162854	0.015053
768.357757	0.014718
768.552642	0.014634
768.747508	0.014736
768.942356	0.014577
769.137186	0.014703
769.331998	0.014548
769.526792	0.014488
769.721567	0.014475
769.916324	0.014403
770.111063	0.014468
770.305784	0.014536
770.500486	0.014253
770.695171	0.014420
770.889837	0.014461
771.084484	0.014679
771.279114	0.014665
771.473725	0.014604
771.668318	0.014628
771.862893	0.014614
772.057450	0.014523
772.251988	0.014533
772.446509	0.014590
772.641011	0.014553
772.835494	0.014338
773.029960	0.014396
773.224407	0.014463
773.418836	0.014645
773.613247	0.014770
773.807640	0.014812
774.002014	0.015066
774.196370	0.014788
774.390708	0.014713
774.585028	0.014912
774.779330	0.014921
774.973613	0.014920
775.167878	0.014690
775.362125	0.014662
775.556354	0.014715
775.750564	0.014644
775.944756	0.014719
776.138930	0.014835
776.333086	0.014826
776.527223	0.014583
776.721343	0.014490
776.915444	0.014655
777.109526	0.014465
777.303591	0.014401
777.497637	0.014447
777.691666	0.014660
777.885676	0.014767
778.079667	0.014740
778.273641	0.014948
778.467596	0.015026
778.661533	0.015144
778.855452	0.015315
779.049352	0.015532
779.243235	0.015652
779.437099	0.015819
779.630945	0.016033
779.824773	0.016208
780.018582	0.016341
780.212373	0.016559
780.406146	0.016663
780.599901	0.016845
780.793638	0.016808
780.987356	0.016828
781.181056	0.016769
781.374738	0.016606
781.568402	0.016344
781.762047	0.016429
781.955674	0.016413
782.149283	0.016295
782.342874	0.016324
782.536447	0.016433
782.730001	0.016264
782.923537	0.016238
783.117055	0.015966
783.310555	0.015954
783.504036	0.015822
783.697499	0.015553
783.890944	0.015559
784.084371	0.015435
784.277780	0.015196
784.471170	0.015173
784.664542	0.015144
784.857896	0.015249
785.051231	0.015389
785.244549	0.015413
785.437848	0.015602
785.631129	0.015406
785.824392	0.015177
786.017636	0.015161
786.210863	0.015270
786.404071	0.015137
786.597260	0.015005
786.790432	0.014826
786.983585	0.014602
787.176721	0.014574
787.369838	0.014405
787.562936	0.014583
787.756017	0.014610
787.949079	0.014383
788.142123	0.014491
788.335149	0.014609
788.528156	0.014775
788.721146	0.014961
788.914117	0.014863
789.107070	0.014969
789.300005	0.015157
789.492921	0.015357
789.685819	0.015562
789.878699	0.015586
790.071561	0.015797
790.264405	0.015886
790.457230	0.016048
790.650037	0.016054
790.842826	0.016196
791.035597	0.016048
791.228349	0.016102
791.421084	0.016182
791.613800	0.016332
791.806497	0.016348
791.999177	0.016412
792.191838	0.016433
792.384481	0.016472
792.577106	0.016591
792.769713	0.016608
792.962301	0.016459
793.154871	0.016303
793.347423	0.016165
793.539957	0.016084
793.732473	0.016287
793.924970	0.016146
794.117449	0.016267
794.309910	0.016269
794.502353	0.016314
794.694777	0.016219
794.887183	0.016337
795.079571	0.016447
795.271941	0.016615
795.464293	0.016429
795.656626	0.016539
795.848941	0.016802
796.041238	0.016904
796.233516	0.017127
796.425777	0.017415
796.618019	0.017579
796.810243	0.017611
797.002449	0.017731
797.194636	0.017912
797.386805	0.017957
797.578956	0.017862
797.771089	0.017977
797.963204	0.017938
798.155300	0.017959
798.347378	0.017915
798.539438	0.017954
798.731480	0.017848
798.923503	0.017904
799.115509	0.017766
799.307496	0.017759
799.499465	0.017634
799.691415	0.017782
799.883348	0.017854
800.075262	0.017953
800.267158	0.018065
800.459035	0.018114
800.650895	0.017818
800.842736	0.018124
801.034559	0.018108
801.226364	0.018180
801.418150	0.018167
801.609919	0.018148
801.801669	0.018069
801.993401	0.018019
802.185114	0.017968
802.376810	0.018087
802.568487	0.018080
802.760146	0.018119
802.951787	0.018081
803.143409	0.017897
803.335014	0.017802
803.526600	0.017919
803.718168	0.017734
803.909717	0.017712
804.101249	0.017794
804.292762	0.017681
804.484257	0.017746
804.675734	0.017840
804.867192	0.018090
805.058632	0.018328
805.250054	0.018359
805.441458	0.018671
805.632844	0.018630
805.824211	0.018613
806.015561	0.018665
806.206891	0.018507
806.398204	0.018395
806.589499	0.018341
806.780775	0.018118
806.972033	0.018008
807.163273	0.017873
807.354495	0.017991
807.545698	0.018158
807.736883	0.018105
807.928050	0.018154
808.119199	0.018205
808.310329	0.018162
808.501441	0.018215
808.692535	0.018235
808.883611	0.018516
809.074669	0.018603
809.265708	0.018471
809.456729	0.018429
809.647732	0.018732
809.838717	0.018884
810.029683	0.018881
810.220632	0.018877
810.411562	0.018943
810.602474	0.018726
810.793367	0.018614
810.984242	0.018887
811.175100	0.018940
811.365938	0.018918
811.556759	0.019020
811.747562	0.019056
811.938346	0.019134
812.129112	0.019254
812.319860	0.019305
812.510589	0.019376
812.701300	0.019010
812.891994	0.019054
813.082668	0.019051
813.273325	0.019013
813.463964	0.018973
813.654584	0.019026
813.845186	0.018938
814.035769	0.018865
814.226335	0.018681
814.416882	0.018845
814.607411	0.018728
814.797922	0.018521
814.988415	0.018320
815.178889	0.018227
815.369345	0.018251
815.559783	0.018173
815.750203	0.018161
815.940605	0.018320
816.130988	0.018336
816.321353	0.018512
816.511700	0.018523
816.702028	0.018479
816.892339	0.018780
817.082631	0.018869
817.272905	0.019134
817.463161	0.018959
817.653398	0.019029
817.843617	0.018876
818.033819	0.018751
818.224001	0.018753
818.414166	0.018813
818.604312	0.018419
818.794440	0.018074
818.984550	0.017776
819.174642	0.017815
819.364716	0.017825
819.554771	0.018022
819.744808	0.018115
819.934827	0.018141
820.124827	0.018400
820.314810	0.018695
820.504774	0.018916
820.694720	0.019037
820.884647	0.019280
821.074557	0.019369
821.264448	0.019388
821.454321	0.019653
821.644176	0.019774
821.834012	0.019752
822.023831	0.019764
822.213631	0.019889
822.403413	0.019941
822.593176	0.019995
822.782922	0.020163
822.972649	0.020159
823.162358	0.020070
823.352049	0.019992
823.541721	0.020073
823.731376	0.020195
823.921012	0.020262
824.110629	0.020468
824.300229	0.020613
824.489811	0.020654
824.679374	0.020760
824.868919	0.020832
825.058445	0.021118
825.247954	0.021040
825.437444	0.021075
825.626916	0.021226
825.816370	0.021111
826.005806	0.021021
826.195223	0.021003
826.384622	0.020952
826.574003	0.020881
826.763366	0.020541
826.952711	0.020644
827.142037	0.020508
827.331345	0.020456
827.520635	0.020586
827.709906	0.020729
827.899160	0.020418
828.088395	0.020510
828.277612	0.020588
828.466810	0.020643
828.655991	0.020711
828.845153	0.020878
829.034297	0.020760
829.223423	0.020535
829.412531	0.020243
829.601620	0.020267
829.790691	0.019888
829.979744	0.019617
830.168779	0.019549
830.357795	0.019448
830.546793	0.019234
830.735773	0.019180
830.924735	0.019234
831.113679	0.019262
831.302604	0.019330
831.491511	0.019532
831.680400	0.019796
831.869271	0.020164
832.058123	0.020024
832.246957	0.019918
832.435773	0.019789
832.624571	0.019778
832.813351	0.019647
833.002112	0.019903
833.190855	0.019910
833.379580	0.019777
833.568287	0.019578
833.756975	0.019798
833.945645	0.019771
834.134297	0.019877
834.322931	0.019916
834.511547	0.020153
834.700144	0.019631
834.888723	0.019698
835.077284	0.019674
835.265826	0.019647
835.454351	0.019546
835.642857	0.019680
835.831345	0.019839
836.019815	0.019818
836.208266	0.019835
836.396699	0.020077
836.585114	0.020332
836.773511	0.020558
836.961890	0.020681
837.150250	0.020811
837.338592	0.021068
837.526916	0.021164
837.715222	0.021421
837.903510	0.021721
838.091779	0.022308
838.280030	0.022378
838.468263	0.022457
838.656477	0.022468
838.844674	0.022677
839.032852	0.022848
839.221012	0.022946
839.409153	0.022928
839.597277	0.022902
839.785382	0.022643
839.973469	0.022836
840.161538	0.022982
840.349589	0.023268
840.537621	0.023110
840.725635	0.023306
840.913631	0.023559
841.101609	0.023474
841.289568	0.023576
841.477509	0.023657
841.665432	0.023700
841.853337	0.023824
842.041224	0.023906
842.229092	0.024122
842.416942	0.024074
842.604774	0.023993
842.792588	0.024209
842.980383	0.024177
843.168160	0.024299
843.355919	0.024170
843.543660	0.024207
843.731382	0.024223
843.919087	0.024301
844.106773	0.024187
844.294441	0.024529
844.482090	0.024651
844.669722	0.024778
844.857335	0.024950
845.044930	0.025117
845.232507	0.025236
845.420065	0.025179
845.607605	0.025200
845.795127	0.025520
845.982631	0.025289
846.170117	0.025346
846.357584	0.025371
846.545033	0.025439
846.732464	0.025415
846.919877	0.025374
847.107272	0.025763
847.294648	0.025795
847.482006	0.025600
847.669346	0.025612
847.856667	0.025537
848.043971	0.025622
848.231256	0.025696
848.418523	0.025742
848.605771	0.025686
848.793002	0.025510
848.980214	0.025465
849.167408	0.025596
849.354584	0.025747
849.541742	0.025918
849.728881	0.026111
849.916002	0.026111
850.103105	0.026054
850.290190	0.026037
850.477256	0.026132
850.664304	0.026182
850.851334	0.026237
851.038346	0.026130
851.225340	0.026112
851.412315	0.025996
851.599272	0.025616
851.786211	0.025620
851.973132	0.025758
852.160034	0.025552
852.346918	0.025633
852.533784	0.025352
852.720632	0.025207
852.907462	0.024920
853.094273	0.024888
853.281066	0.025180
853.467841	0.025368
853.654598	0.025416
853.841336	0.025692
854.028056	0.025558
854.214758	0.025788
854.401442	0.026056
854.588107	0.026503
854.774755	0.026453
854.961384	0.026250
855.147995	0.026129
855.334587	0.026173
855.521162	0.026100
855.707718	0.026648
855.894256	0.026750
856.080775	0.026659
856.267277	0.026596
856.453760	0.026646
856.640225	0.026690
856.826672	0.026719
857.013101	0.026590
857.199511	0.026809
857.385903	0.026608
857.572277	0.026510
857.758633	0.026482
857.944970	0.026648
858.131290	0.026739
858.317591	0.027009
858.503873	0.027171
858.690138	0.027318
858.876384	0.027471
859.062612	0.027642
859.248822	0.027611
859.435014	0.027844
859.621188	0.028102
859.807343	0.028098
859.993480	0.028437
860.179599	0.028540
860.365699	0.028666
860.551781	0.028694
860.737846	0.028676
860.923891	0.029203
861.109919	0.029543
861.295929	0.029169
861.481920	0.029567
861.667893	0.029508
861.853848	0.029577
862.039784	0.029792
862.225702	0.029437
862.411603	0.029306
862.597484	0.029057
862.783348	0.028989
862.969193	0.029244
863.155021	0.029241
863.340830	0.029162
863.526620	0.029171
863.712393	0.029086
863.898147	0.029311
864.083883	0.029306
864.269601	0.029500
864.455301	0.029452
864.640982	0.029239
864.826645	0.029262
865.012290	0.029546
865.197917	0.029533
865.383526	0.029435
865.569116	0.029201
865.754688	0.029341
865.940242	0.029123
866.125777	0.028929
866.311295	0.029290
866.496794	0.028984
866.682275	0.028601
866.867737	0.028627
867.053182	0.028590
867.238608	0.028944
867.424016	0.028846
867.609406	0.029040
867.794778	0.029281
867.980131	0.029001
868.165466	0.029334
868.350783	0.029332
868.536082	0.029439
868.721362	0.029548
868.906625	0.029392
869.091869	0.029300
869.277094	0.029504
869.462302	0.029357
869.647491	0.029976
869.832662	0.029819
870.017815	0.029911
870.202950	0.029715
870.388066	0.030017
870.573165	0.030107
870.758245	0.030624
870.943306	0.030433
871.128350	0.030441
871.313375	0.029689
871.498382	0.030056
871.683371	0.030152
871.868342	0.030464
872.053294	0.030035
872.238229	0.030304
872.423144	0.030141
872.608042	0.030104
872.792922	0.030476
872.977783	0.030752
873.162626	0.030655
873.347451	0.031046
873.532258	0.031079
873.717046	0.031375
873.901816	0.031115
874.086568	0.031057
874.271302	0.031028
874.456017	0.030844
874.640715	0.031164
874.825394	0.030860
875.010055	0.030614
875.194697	0.030730
875.379322	0.030731
875.563928	0.031039
875.748516	0.031353
875.933085	0.031675
876.117637	0.031656
876.302170	0.031674
876.486685	0.032180
876.671182	0.032316
876.855661	0.032253
877.040121	0.032298
877.224563	0.031947
877.408987	0.031839
877.593393	0.031583
877.777780	0.031739
877.962150	0.031781
878.146501	0.031556
878.330833	0.031447
878.515148	0.031377
878.699444	0.031503
878.883722	0.031826
879.067982	0.031666
879.252224	0.031652
879.436447	0.031606
879.620653	0.031492
879.804840	0.031690
879.989008	0.031638
880.173159	0.031775
880.357291	0.031584
880.541405	0.031713
880.725501	0.031538
880.909579	0.031503
881.093638	0.031556
881.277680	0.031618
881.461703	0.031489
881.645707	0.031483
881.829694	0.031059
882.013662	0.031134
882.197612	0.030951
882.381544	0.031348
882.565458	0.031655
882.749353	0.031321
882.933230	0.031208
883.117089	0.031004
883.300930	0.030965
883.484753	0.031297
883.668557	0.031503
883.852343	0.031311
884.036111	0.031095
884.219861	0.030973
884.403592	0.031111
884.587305	0.030859
884.771000	0.030858
884.954677	0.030794
885.138335	0.030744
885.321976	0.030511
885.505598	0.030781
885.689201	0.030874
885.872787	0.030920
886.056354	0.030932
886.239904	0.031265
886.423434	0.031070
886.606947	0.031292
886.790442	0.031368
886.973918	0.031413
887.157376	0.031211
887.340816	0.031429
887.524237	0.031665
887.707641	0.031760
887.891026	0.031640
888.074393	0.032035
888.257741	0.031986
888.441072	0.032034
888.624384	0.031986
888.807678	0.031989
888.990954	0.031379
889.174211	0.030936
889.357451	0.030899
889.540672	0.030838
889.723875	0.030607
889.907059	0.030519
890.090226	0.030066
890.273374	0.030073
890.456504	0.030012
890.639616	0.030333
890.822709	0.030135
891.005785	0.029933
891.188842	0.029673
891.371881	0.029451
891.554901	0.029255
891.737904	0.029370
891.920888	0.029176
892.103854	0.029158
892.286802	0.029148
892.469731	0.029653
892.652643	0.029567
892.835536	0.029912
893.018410	0.030144
893.201267	0.030211
893.384106	0.030156
893.566926	0.030344
893.749728	0.030430
893.932511	0.030053
894.115277	0.029581
894.298024	0.029696
894.480753	0.029773
894.663464	0.029825
894.846157	0.029819
895.028831	0.029799
895.211487	0.029721
895.394125	0.029574
895.576745	0.030172
895.759346	0.030363
895.941930	0.030090
896.124495	0.029704
896.307041	0.029544
896.489570	0.029284
896.672080	0.029333
896.854573	0.029222
897.037046	0.029332
897.219502	0.028952
897.401940	0.029011
897.584359	0.029319
897.766760	0.029570
897.949143	0.029667
898.131507	0.029916
898.313854	0.029795
898.496182	0.029692
898.678492	0.029240
898.860783	0.029058
899.043057	0.028973
899.225312	0.028940
899.407549	0.028364
899.589768	0.028018
899.771968	0.027735
899.954151	0.027706
900.136315	0.027893
900.318461	0.027803
900.500588	0.027869
900.682698	0.027797
900.864789	0.027555
901.046862	0.027832
901.228917	0.027774
901.410953	0.027875
901.592971	0.028044
901.774972	0.027636
901.956953	0.027992
902.138917	0.027859
902.320862	0.027444
902.502790	0.027115
902.684699	0.027115
902.866589	0.026576
903.048462	0.026375
903.230316	0.025710
903.412152	0.025941
903.593970	0.025825
903.775770	0.025743
903.957551	0.025979
904.139314	0.026021
904.321059	0.026169
904.502786	0.026405
904.684494	0.026392
904.866185	0.026680
905.047857	0.026281
905.229510	0.026050
905.411146	0.025959
905.592763	0.025801
905.774363	0.025932
905.955943	0.025638
906.137506	0.026205
906.319051	0.026321
906.500577	0.026266
906.682085	0.026168
906.863575	0.026130
907.045046	0.026329
907.226500	0.026431
907.407935	0.026352
907.589352	0.026092
907.770750	0.026035
907.952131	0.025841
908.133493	0.025865
908.314837	0.025827
908.496163	0.025194
908.677470	0.024898
908.858760	0.024978
909.040031	0.024947
909.221284	0.025113
909.402518	0.024838
909.583735	0.024931
909.764933	0.025084
909.946113	0.025044
910.127275	0.025761
910.308418	0.025832
910.489544	0.025594
910.670651	0.025211
910.851740	0.025411
911.032810	0.025094
911.213863	0.024608
911.394897	0.024242
911.575913	0.024038
911.756911	0.023645
911.937890	0.023470
912.118851	0.023383
912.299794	0.023670
912.480719	0.023202
912.661626	0.022792
912.842514	0.022996
913.023384	0.022738
913.204236	0.022833
913.385070	0.023020
913.565886	0.022610
913.746683	0.022130
913.927462	0.022328
914.108223	0.022050
914.288965	0.022403
914.469690	0.022189
914.650396	0.022451
914.831084	0.022416
915.011754	0.022182
915.192405	0.022222
915.373038	0.022481
915.553653	0.022007
915.734250	0.021971
915.914829	0.021544
916.095389	0.020935
916.275931	0.020649
916.456455	0.020172
916.636961	0.020132
916.817448	0.019688
916.997917	0.019257
917.178368	0.018699
917.358801	0.018327
917.539216	0.018156
917.719612	0.018350
917.899990	0.017884
918.080350	0.017815
918.260692	0.017494
918.441015	0.017415
918.621320	0.016994
918.801607	0.016687
918.981876	0.016668
919.162127	0.016457
919.342359	0.016373
919.522573	0.016614
919.702769	0.016524
919.882947	0.016378
920.063106	0.016150
920.243247	0.015880
920.423370	0.016146
920.603475	0.015835
920.783562	0.016072
920.963630	0.015991
921.143680	0.015431
921.323712	0.015395
921.503725	0.015173
921.683721	0.015587
921.863698	0.015831
922.043657	0.016036
922.223598	0.016173
922.403520	0.015739
922.583424	0.015948
922.763311	0.015667
922.943178	0.015479
923.123028	0.015238
923.302859	0.014752
923.482673	0.014406
923.662467	0.014067
923.842244	0.013499
924.022003	0.013209
924.201743	0.012666
924.381465	0.012583
924.561169	0.012312
924.740854	0.012066
924.920522	0.011895
925.100171	0.011652
925.279802	0.011552
925.459414	0.011505
925.639009	0.011201
925.818585	0.010590
925.998143	0.010728
926.177683	0.010580
926.357205	0.009941
926.536708	0.009851
926.716193	0.009876
926.895660	0.009143
927.075109	0.008974
927.254539	0.008893
927.433951	0.008831
927.613345	0.008382
927.792721	0.007755
927.972079	0.007636
928.151418	0.007486
928.330739	0.007363
928.510042	0.007298
928.689327	0.007391
928.868593	0.007165
929.047841	0.006893
929.227071	0.006634
929.406283	0.006552
929.585476	0.006979
929.764652	0.006005
929.943809	0.005855
930.122948	0.005522
930.302068	0.004768
930.481171	0.004855
930.660255	0.004558
930.839321	0.003911
931.018369	0.003362
931.197398	0.002404
931.376409	0.002656
931.555402	0.002273
931.734377	0.001701
931.913334	0.001565
932.092272	0.000969
932.271192	0.001409
932.450094	0.001231
932.628978	0.001410
932.807844	0.001382
932.986691	0.000911
933.165520	0.000519
933.344331	0.000368
933.523123	0.000702
933.701898	0.000285
933.880654	-0.000533
934.059392	-0.000515
934.238111	-0.000730
934.416813	-0.000487
934.595496	-0.001184
934.774161	-0.001529
934.952808	-0.002019
935.131437	-0.002609
935.310047	-0.002484
935.488639	-0.003022
935.667213	-0.002768
935.845769	-0.002946
936.024306	-0.003496
936.202825	-0.002309
936.381326	-0.001650
936.559809	-0.000973
936.738274	-0.001525
936.916720	-0.002021
937.095148	-0.001837
937.273558	-0.002849
937.451950	-0.002899
937.630323	-0.003950
937.808678	-0.005289
937.987015	-0.006333
938.165334	-0.006395
938.343635	-0.006635
938.521917	-0.006719
938.700181	-0.006505
938.878427	-0.006651
939.056655	-0.006730
939.234864	-0.005668
939.413055	-0.005985
939.591228	-0.005905
939.769383	-0.006760
939.947519	-0.007256
940.125638	-0.007495
940.303738	-0.008247
940.481820	-0.008442
940.659883	-0.008777
940.837929	-0.010141
941.015956	-0.010690
941.193965	-0.011631
941.371955	-0.011831
941.549928	-0.011058
941.727882	-0.011284
941.905818	-0.011734
942.083736	-0.011614
942.261636	-0.012972
942.439517	-0.012413
942.617380	-0.012264
942.795225	-0.012182
942.973052	-0.012469
943.150860	-0.012723
943.328651	-0.012937
943.506423	-0.013665
943.684176	-0.013410
943.861912	-0.012839
944.039629	-0.013604
944.217328	-0.012843
944.395009	-0.012634
944.572672	-0.013066
944.750317	-0.013726
944.927943	-0.013472
945.105551	-0.012691
945.283141	-0.013748
945.460712	-0.013844
945.638265	-0.014490
945.815801	-0.015378
945.993317	-0.016372
946.170816	-0.016563
946.348297	-0.016569
946.525759	-0.016297
946.703203	-0.017051
946.880629	-0.018012
947.058036	-0.019008
947.235425	-0.018287
947.412797	-0.017910
947.590149	-0.018009
947.767484	-0.016930
947.944800	-0.016855
948.122099	-0.017634
948.299379	-0.017755
948.476640	-0.016343
948.653884	-0.015210
948.831109	-0.013925
949.008316	-0.014680
949.185505	-0.015153
949.362676	-0.015735
949.539828	-0.016753
949.716962	-0.017031
949.894078	-0.015962
950.071176	-0.015897
950.248256	-0.015956
950.425317	-0.017444
950.602360	-0.017261
950.779385	-0.015238
950.956391	-0.015181
951.133380	-0.015921
951.310350	-0.016445
951.487302	-0.015894
951.664235	-0.014803
951.841151	-0.015988
952.018048	-0.016183
952.194927	-0.016419
952.371788	-0.017108
952.548631	-0.017272
952.725455	-0.015050
952.902261	-0.014261
953.079049	-0.016807
953.255819	-0.017649
953.432570	-0.016937
953.609303	-0.016269
953.786018	-0.017508
953.962715	-0.017509
954.139394	-0.017926
954.316054	-0.020062
954.492696	-0.020198
954.669320	-0.018342
954.845926	-0.018827
955.022513	-0.019054
955.199083	-0.018331
955.375634	-0.016168
955.552166	-0.016673
955.728681	-0.016604
955.905177	-0.014449
956.081655	-0.014851
956.258115	-0.014116
956.434557	-0.014846
956.610980	-0.013897
956.787385	-0.014086
956.963772	-0.014361
957.140141	-0.014423
957.316492	-0.014491
957.492824	-0.013919
957.669138	-0.012827
957.845434	-0.013566
958.021712	-0.011733
958.197971	-0.011334
958.374212	-0.011881
958.550435	-0.010050
958.726640	-0.009648
958.902826	-0.009701
959.078995	-0.009544
959.255145	-0.009956
959.431277	-0.009240
959.607390	-0.010307
959.783486	-0.009207
959.959563	-0.008493
960.135622	-0.009174
960.311662	-0.007783
960.487685	-0.007054
960.663689	-0.007993
960.839675	-0.007562
961.015643	-0.007464
961.191593	-0.006922
961.367524	-0.006726
961.543437	-0.005879
961.719332	-0.006723
961.895209	-0.006942
962.071067	-0.006526
962.246907	-0.004673
962.422730	-0.002521
962.598533	-0.001850
962.774319	-0.001943
962.950086	-0.003157
963.125835	-0.003149
963.301566	-0.001349
963.477279	-0.000625
963.652973	-0.000538
963.828650	0.000054
964.004308	-0.000795
964.179947	-0.000515
964.355569	0.001692
964.531172	0.004392
964.706757	0.005183
964.882324	0.003253
965.057873	0.003496
965.233403	0.002549
965.408916	0.002685
965.584410	0.004219
965.759885	0.006572
965.935343	0.005729
966.110782	0.004793
966.286203	0.005032
966.461606	0.005986
966.636991	0.007307
966.812357	0.009966
966.987705	0.007983
967.163035	0.005122
967.338347	0.002901
967.513641	0.003664
967.688916	-0.000209
967.864173	-0.000557
968.039412	-0.000017
968.214632	-0.002224
968.389835	-0.001979
968.565019	-0.002135
968.740185	-0.001473
968.915333	-0.002664
969.090462	-0.002303
969.265573	0.001063
969.440667	0.000685
969.615741	0.000914
969.790798	0.001262
969.965836	-0.000801
970.140856	-0.000169
970.315858	0.000115
970.490842	0.001473
970.665808	0.000323
970.840755	-0.000468
971.015684	0.000445
971.190595	0.000819
971.365487	-0.000327
971.540362	0.001150
971.715218	0.002080
971.890056	0.003000
972.064875	0.004227
972.239677	0.004862
972.414460	0.004883
972.589225	0.007230
972.763972	0.006979
972.938700	0.010153
973.113411	0.011045
973.288103	0.012047
973.462777	0.012155
973.637432	0.011288
973.812070	0.012709
973.986689	0.012382
974.161290	0.009498
974.335873	0.011706
974.510437	0.012213
974.684984	0.012099
974.859512	0.010066
975.034022	0.009756
975.208513	0.009150
975.382987	0.007991
975.557442	0.008998
975.731879	0.009074
975.906298	0.006611
976.080698	0.004144
976.255080	0.003654
976.429445	0.004801
976.603790	0.005480
976.778118	0.005719
976.952427	0.005667
977.126719	0.004522
977.300992	0.006014
977.475246	0.005370
977.649483	0.006660
977.823701	0.004709
977.997901	0.004419
978.172083	0.005082
978.346247	0.005639
978.520392	0.004208
978.694519	0.007195
978.868628	0.005614
979.042719	0.007772
979.216791	0.007834
979.390845	0.008361
979.564882	0.007367
979.738899	0.005513
979.912899	0.005663
980.086880	0.007334
980.260843	0.006110
980.434788	0.006473
980.608715	0.005629
980.782623	0.005017
980.956514	0.006445
981.130386	0.006646
981.304240	0.007711
981.478075	0.005946
981.651892	0.003661
981.825692	0.003674
981.999472	0.003761
982.173235	0.004394
982.346980	0.003708
982.520706	0.003796
982.694414	0.005500
982.868104	0.004385
983.041775	0.007474
983.215428	0.008630
983.389064	0.007126
983.562680	0.004741
983.736279	0.002318
983.909860	0.002097
984.083422	0.004158
984.256966	0.003879
984.430491	0.003714
984.603999	0.001290
984.777488	0.001748
984.950959	0.003057
985.124412	0.005204
985.297847	0.008045
985.471263	0.009047
985.644661	0.005290
985.818041	0.004738
985.991403	0.005301
986.164747	0.005775
986.338072	0.004777
986.511379	0.006700
986.684668	0.006786
986.857938	0.007048
987.031191	0.005901
987.204425	0.005940
987.377641	0.004846
987.550839	0.006669
987.724018	0.004312
987.897179	0.004820
988.070322	0.001282
988.243447	0.001837
988.416554	0.001551
988.589642	0.002969
988.762712	0.005265
988.935764	0.005187
989.108798	0.004306
989.281813	0.006217
989.454811	0.005313
989.627790	0.006709
989.800751	0.006511
989.973693	0.006291
990.146617	0.006838
990.319524	0.003923
990.492412	0.003819
990.665281	0.003337
990.838133	0.003785
991.010966	0.005311
991.183781	0.003766
991.356578	0.003156
991.529356	0.002678
991.702117	0.003002
991.874859	0.004973
992.047583	0.004654
992.220288	0.005141
992.392976	0.004674
992.565645	0.004974
992.738296	0.005217
992.910929	0.004080
993.083543	0.004457
993.256139	0.001821
993.428718	0.001647
993.601277	0.003868
993.773819	0.001660
993.946342	0.001066
994.118848	-0.000269
994.291335	0.000172
994.463803	0.000318
994.636254	0.000609
994.808686	0.002544
994.981100	0.002234
995.153496	0.001883
995.325874	0.002182
995.498233	0.003436
995.670574	0.004671
995.842897	0.003250
996.015202	0.004025
996.187488	0.002306
996.359757	0.001289
996.532007	0.001822
996.704239	0.000757
996.876452	0.002782
997.048648	0.001346
997.220825	0.000501
997.392984	0.003415
997.565124	0.002945
997.737247	0.003080
997.909351	0.003196
998.081437	0.003453
998.253505	0.003894
998.425554	0.003168
998.597586	0.003664
998.769599	0.003371
998.941594	0.001756
999.113571	0.002127
999.285529	0.002146
999.457469	0.002595
999.629391	0.001884
999.801295	0.002636
999.973181	0.001543
1000.145048	0.001908
1000.316897	0.001725
1000.488728	0.003502
1000.660541	0.004629
1000.832335	0.005114
1001.004111	0.005862
1001.175869	0.004369
1001.347609	0.004578
1001.519331	0.004899
1001.691034	0.005068
1001.862719	0.003739
1002.034386	0.002283
1002.206035	0.001389
1002.377665	0.001245
1002.549277	-0.000682
1002.720871	0.000598
1002.892447	-0.001372
1003.064004	0.000088
1003.235544	-0.001201
1003.407065	0.001167
1003.578568	0.001463
1003.750052	0.001852
1003.921519	0.001749
1004.092967	0.001518
1004.264397	0.001493
1004.435809	0.002590
1004.607202	0.002190
1004.778577	0.002490
1004.949934	0.001191
1005.121273	0.000531
1005.292594	0.000136
1005.463896	-0.000589
1005.635180	-0.000253
1005.806446	-0.001521
1005.977694	-0.002237
1006.148923	-0.002576
1006.320135	-0.000914
1006.491328	0.000261
1006.662503	0.001200
1006.833659	0.000477
1007.004798	0.002601
1007.175918	0.002816
1007.347020	0.002113
1007.518103	0.002721
1007.689169	0.002928
1007.860216	0.001226
1008.031245	-0.000175
1008.202256	-0.001074
1008.373248	-0.000958
1008.544223	-0.003052
1008.715179	-0.002769
1008.886117	-0.002946
1009.057036	-0.003843
1009.227938	-0.006158
1009.398821	-0.005433
1009.569686	-0.004232
1009.740533	-0.004372
1009.911361	-0.002933
1010.082172	-0.000997
1010.252964	-0.000719
1010.423738	0.002011
1010.594493	0.002736
1010.765231	0.003678
1010.935950	0.002759
1011.106651	0.003031
1011.277334	0.001625
1011.447998	0.000599
1011.618645	-0.000320
1011.789273	-0.000291
1011.959882	-0.000821
1012.130474	-0.000723
1012.301048	-0.001048
1012.471603	0.000145
1012.642140	-0.002125
1012.812658	-0.000828
1012.983159	-0.001017
1013.153641	-0.001902
1013.324105	-0.001857
1013.494551	-0.001639
1013.664979	-0.001858
1013.835388	-0.001479
1014.005779	-0.001017
1014.176152	-0.001227
1014.346507	-0.002409
1014.516843	-0.000892
1014.687162	-0.000457
1014.857462	-0.001178
1015.027744	-0.001256
1015.198007	-0.000932
1015.368252	0.000461
1015.538480	-0.001782
1015.708689	0.000048
1015.878879	0.001198
1016.049052	-0.000224
1016.219206	-0.000526
1016.389342	-0.000016
1016.559460	-0.000502
1016.729559	-0.001043
1016.899641	-0.002775
1017.069704	-0.001733
1017.239749	-0.000651
1017.409775	-0.000372
1017.579784	-0.000170
1017.749774	-0.000195
1017.919746	-0.000983
1018.089700	-0.000925
1018.259635	-0.001047
1018.429553	-0.000842
1018.599452	0.000059
1018.769333	0.000772
1018.939195	0.000534
1019.109040	-0.000251
1019.278866	0.000009
1019.448674	-0.000580
1019.618464	-0.000695
1019.788235	0.000166
1019.957989	0.001878
1020.127724	0.000271
1020.297441	-0.001070
1020.467139	-0.002031
1020.636820	-0.000530
1020.806482	0.000050
1020.976126	-0.000533
1021.145752	-0.001217
1021.315359	-0.001558
1021.484948	-0.001984
1021.654519	-0.001623
1021.824072	-0.002707
1021.993607	-0.001571
1022.163123	-0.001249
1022.332621	-0.001525
1022.502101	0.001286
1022.671563	0.002511
1022.841007	0.002564
1023.010432	0.002834
1023.179839	0.001515
1023.349228	0.003211
1023.518598	0.002896
1023.687951	0.001062
1023.857285	0.000966
1024.026601	-0.000924
1024.195899	-0.000978
1024.365178	-0.002894
1024.534439	-0.003947
1024.703682	-0.002534
1024.872907	-0.003672
1025.042114	-0.002643
1025.211302	-0.001598
1025.380472	-0.003859
1025.549624	-0.003403
1025.718758	-0.003638
1025.887873	-0.003253
1026.056970	-0.004249
1026.226049	-0.004617
1026.395110	-0.005676
1026.564153	-0.006527
1026.733177	-0.007164
1026.902183	-0.005657
1027.071171	-0.006760
1027.240141	-0.007886
1027.409092	-0.007523
1027.578026	-0.006682
1027.746940	-0.005534
1027.915837	-0.004472
1028.084716	-0.004928
1028.253576	-0.006229
1028.422418	-0.005960
1028.591242	-0.006028
1028.760048	-0.005357
1028.928835	-0.004709
1029.097604	-0.004260
1029.266355	-0.005301
1029.435088	-0.005823
1029.603803	-0.005063
1029.772499	-0.004500
1029.941177	-0.004008
1030.109837	-0.003572
1030.278478	-0.004582
1030.447102	-0.005278
1030.615707	-0.005681
1030.784294	-0.004735
1030.952863	-0.004373
1031.121413	-0.005011
1031.289945	-0.003775
1031.458460	-0.005165
1031.626955	-0.003149
1031.795433	-0.001544
1031.963892	-0.001581
1032.132334	-0.000636
1032.300756	-0.001383
1032.469161	-0.000620
1032.637548	-0.000708
1032.805916	-0.000165
1032.974266	0.001902
1033.142598	0.001817
1033.310911	0.002171
1033.479207	0.002143
1033.647484	-0.000315
1033.815743	-0.000297
1033.983983	-0.003085
1034.152206	-0.002231
1034.320410	-0.003634
1034.488596	-0.005583
1034.656764	-0.007317
1034.824914	-0.008935
1034.993045	-0.008367
1035.161158	-0.006965
1035.329253	-0.006771
1035.497330	-0.004110
1035.665388	-0.005680
1035.833428	-0.004449
1036.001450	-0.004752
1036.169454	-0.004032
1036.337440	-0.004016
1036.505407	-0.004212
1036.673356	-0.004445
1036.841287	-0.003921
1037.009200	-0.005020
1037.177094	-0.004715
1037.344970	-0.006801
1037.512828	-0.005973
1037.680668	-0.006398
1037.848489	-0.006324
1038.016293	-0.007313
1038.184078	-0.006878
1038.351845	-0.008561
1038.519593	-0.007891
1038.687324	-0.007877
1038.855036	-0.006088
1039.022730	-0.005841
1039.190406	-0.006221
1039.358063	-0.005814
1039.525702	-0.005251
1039.693323	-0.004495
1039.860926	-0.004287
1040.028511	-0.005421
1040.196077	-0.005134
1040.363625	-0.005984
1040.531155	-0.006832
1040.698667	-0.007082
1040.866161	-0.006084
1041.033636	-0.006183
1041.201093	-0.006858
1041.368532	-0.007461
1041.535952	-0.006465
1041.703355	-0.005762
1041.870739	-0.006137
1042.038105	-0.005492
1042.205452	-0.005776
1042.372782	-0.006707
1042.540093	-0.006797
1042.707386	-0.006046
1042.874661	-0.004659
1043.041918	-0.005499
1043.209156	-0.005537
1043.376376	-0.006731
1043.543578	-0.006436
1043.710762	-0.005106
1043.877927	-0.003672
1044.045074	-0.003534
1044.212203	-0.004023
1044.379314	-0.004476
1044.546407	-0.004728
1044.713481	-0.005161
1044.880537	-0.003076
1045.047575	-0.002960
1045.214595	-0.002824
1045.381596	-0.004293
1045.548579	-0.004215
1045.715544	-0.005338
1045.882491	-0.003640
1046.049420	-0.002031
1046.216330	-0.002926
1046.383222	-0.002433
1046.550096	-0.004093
1046.716951	-0.005181
1046.883789	-0.005531
1047.050608	-0.005057
1047.217409	-0.004715
1047.384192	-0.007081
1047.550956	-0.007906
1047.717703	-0.006371
1047.884431	-0.009398
1048.051140	-0.006362
1048.217832	-0.004974
1048.384505	-0.004679
1048.551161	-0.004110
1048.717798	-0.004769
1048.884416	-0.003262
1049.051017	-0.002860
1049.217599	-0.002011
1049.384163	-0.001369
1049.550709	-0.003694
1049.717237	-0.003466
1049.883746	-0.003711
1050.050237	-0.004311
1050.216710	-0.002525
1050.383165	-0.004253
1050.549601	-0.004342
1050.716019	-0.006275
1050.882420	-0.005472
1051.048801	-0.004642
1051.215165	-0.005354
1051.381510	-0.005428
1051.547837	-0.006199
1051.714146	-0.006882
1051.880437	-0.004780
1052.046709	-0.006331
1052.212964	-0.005704
1052.379200	-0.006276
1052.545417	-0.005618
1052.711617	-0.006125
1052.877798	-0.005046
1053.043961	-0.005014
1053.210106	-0.006233
1053.376233	-0.006314
1053.542341	-0.004398
1053.708432	-0.004599
1053.874504	-0.004313
1054.040557	-0.004929
1054.206593	-0.005050
1054.372610	-0.007063
1054.538609	-0.006115
1054.704590	-0.004777
1054.870553	-0.004160
1055.036497	-0.005026
1055.202424	-0.005870
1055.368331	-0.005561
1055.534221	-0.006397
1055.700093	-0.005436
1055.865946	-0.004256
1056.031781	-0.004291
1056.197598	-0.004500
1056.363397	-0.005190
1056.529177	-0.003920
1056.694939	-0.003508
1056.860683	-0.003516
1057.026409	-0.003863
1057.192116	-0.004170
1057.357806	-0.003950
1057.523477	-0.002689
1057.689130	-0.001631
1057.854764	-0.000655
1058.020381	-0.001040
1058.185979	-0.001191
1058.351559	-0.001786
1058.517120	-0.002184
1058.682664	-0.001919
1058.848189	-0.003008
1059.013696	-0.004610
1059.179185	-0.006286
1059.344656	-0.008152
1059.510108	-0.010528
1059.675542	-0.010859
1059.840958	-0.009925
1060.006356	-0.008322
1060.171735	-0.010137
1060.337096	-0.008625
1060.502439	-0.007682
1060.667764	-0.007040
1060.833071	-0.005733
1060.998359	-0.003335
1061.163629	-0.002236
1061.328881	-0.001236
1061.494115	-0.001352
1061.659330	0.001180
1061.824527	0.000830
1061.989706	-0.000826
1062.154867	-0.002173
1062.320010	-0.003032
1062.485134	-0.005360
1062.650240	-0.005087
1062.815328	-0.005760
1062.980398	-0.004709
1063.145449	-0.007315
1063.310482	-0.006747
1063.475497	-0.005746
1063.640494	-0.005093
1063.805473	-0.005139
1063.970433	-0.004379
1064.135375	-0.003587
1064.300299	-0.002777
1064.465204	-0.006014
1064.630092	-0.003825
1064.794961	-0.003922
1064.959812	-0.003629
1065.124645	-0.003816
1065.289459	-0.004243
1065.454256	-0.002926
1065.619034	-0.002968
1065.783793	-0.004320
1065.948535	-0.001375
1066.113258	-0.000513
1066.277964	-0.000379
1066.442651	-0.001413
1066.607319	-0.001825
1066.771970	-0.002827
1066.936602	-0.003720
1067.101216	-0.004568
1067.265812	-0.004594
1067.430389	-0.006498
1067.594949	-0.008267
1067.759490	-0.010397
1067.924013	-0.010124
1068.088518	-0.008661
1068.253004	-0.007059
1068.417472	-0.006495
1068.581922	-0.005655
1068.746354	-0.004423
1068.910768	-0.004365
1069.075163	-0.004028
1069.239540	-0.002090
1069.403899	-0.001389
1069.568240	-0.003368
1069.732562	-0.004943
1069.896866	-0.005131
1070.061152	-0.005734
1070.225420	-0.005031
1070.389670	-0.003504
1070.553901	-0.002793
1070.718114	-0.002275
1070.882309	-0.001612
1071.046486	-0.000548
1071.210644	0.000152
1071.374784	0.000188
1071.538906	0.000958
1071.703010	0.001696
1071.867096	0.003610
1072.031163	0.003170
1072.195212	0.001044
1072.359243	-0.000100
1072.523256	-0.002055
1072.687250	-0.001803
1072.851226	-0.000638
1073.015184	-0.001212
1073.179124	-0.003331
1073.343045	-0.005175
1073.506949	-0.005883
1073.670834	-0.006293
1073.834701	-0.005702
1073.998549	-0.004638
1074.162380	-0.004121
1074.326192	-0.005585
1074.489986	-0.008959
1074.653761	-0.007462
1074.817519	-0.007722
1074.981258	-0.006798
1075.144979	-0.005582
1075.308682	-0.004589
1075.472367	-0.002863
1075.636033	-0.002097
1075.799681	-0.001491
1075.963311	0.001301
1076.126923	-0.000724
1076.290516	-0.000153
1076.454092	-0.001339
1076.617649	-0.001406
1076.781187	-0.004814
1076.944708	-0.007141
1077.108210	-0.007142
1077.271695	-0.006029
1077.435160	-0.007005
1077.598608	-0.007394
1077.762038	-0.010751
1077.925449	-0.008661
1078.088842	-0.009649
1078.252217	-0.007380
1078.415573	-0.005024
1078.578912	-0.005178
1078.742232	-0.006571
1078.905534	-0.003824
1079.068817	-0.002983
1079.232083	-0.003852
1079.395330	-0.005818
1079.558559	-0.003724
1079.721770	-0.006324
1079.884962	-0.006731
1080.048136	-0.007774
1080.211293	-0.006347
1080.374430	-0.009814
1080.537550	-0.009609
1080.700651	-0.007258
1080.863735	-0.006276
1081.026800	-0.006941
1081.189846	-0.003699
1081.352875	-0.003339
1081.515885	-0.000954
1081.678877	-0.000403
1081.841851	0.002431
1082.004807	0.002709
1082.167744	0.003697
1082.330663	0.003603
1082.493564	0.004093
1082.656447	0.003944
1082.819312	0.004284
1082.982158	0.004704
1083.144986	0.003639
1083.307796	0.002140
1083.470587	-0.000446
1083.633361	0.000137
1083.796116	0.000030
1083.958853	0.001926
1084.121571	0.000965
1084.284272	0.001159
1084.446954	-0.001462
1084.609618	-0.003113
1084.772264	-0.001874
1084.934892	0.001500
1085.097501	-0.000080
1085.260092	-0.000478
1085.422665	-0.002657
1085.585220	-0.001391
1085.747756	-0.002207
1085.910274	-0.003553
1086.072774	-0.002393
1086.235256	-0.002495
1086.397720	-0.004795
1086.560165	-0.004536
1086.722592	-0.005383
1086.885001	-0.006900
1087.047392	-0.008835
1087.209764	-0.009820
1087.372119	-0.009647
1087.534455	-0.011603
1087.696772	-0.010594
1087.859072	-0.010925
1088.021353	-0.009179
1088.183616	-0.008337
1088.345861	-0.008533
1088.508088	-0.008144
1088.670296	-0.007035
1088.832486	-0.005089
1088.994658	-0.005951
1089.156812	-0.007153
1089.318948	-0.004830
1089.481065	-0.006443
1089.643164	-0.008690
1089.805245	-0.009380
1089.967308	-0.009195
1090.129352	-0.011660
1090.291378	-0.012675
1090.453386	-0.009918
1090.615376	-0.009793
1090.777347	-0.012156
1090.939301	-0.012268
1091.101236	-0.010251
1091.263153	-0.008174
1091.425051	-0.008457
1091.586932	-0.004603
1091.748794	-0.004468
1091.910638	-0.005306
1092.072463	-0.005613
1092.234271	-0.006310
1092.396060	-0.004494
1092.557831	-0.004417
1092.719584	-0.003028
1092.881319	-0.003901
1093.043035	-0.005138
1093.204733	-0.006033
1093.366413	-0.007764
1093.528075	-0.010437
1093.689718	-0.010089
1093.851343	-0.012180
1094.012950	-0.013041
1094.174539	-0.016085
1094.336110	-0.016108
1094.497662	-0.017174
1094.659196	-0.019392
1094.820712	-0.018887
1094.982210	-0.017988
1095.143689	-0.014930
1095.305151	-0.014095
1095.466594	-0.016487
1095.628018	-0.015152
1095.789425	-0.014411
1095.950813	-0.014997
1096.112183	-0.011106
1096.273535	-0.009667
1096.434869	-0.011836
1096.596184	-0.012581
1096.757482	-0.014557
1096.918761	-0.011480
1097.080021	-0.010878
1097.241264	-0.010377
1097.402488	-0.008011
1097.563694	-0.009402
1097.724882	-0.010507
1097.886052	-0.007384
1098.047203	-0.007372
1098.208336	-0.005119
1098.369451	-0.007829
1098.530548	-0.008775
1098.691627	-0.008029
1098.852687	-0.009723
1099.013729	-0.009341
1099.174753	-0.008512
1099.335758	-0.007108
1099.496746	-0.006259
1099.657715	-0.005507
1099.818666	-0.003355
1099.979599	-0.002453
1100.140513	-0.004697
1100.301409	-0.003949
1100.462287	-0.003296
1100.623147	-0.002036
1100.783989	-0.003561
1100.944812	-0.006655
1101.105617	-0.010751
1101.266404	-0.012758
1101.427173	-0.012229
1101.587923	-0.009924
1101.748656	-0.013172
1101.909370	-0.013189
1102.070066	-0.017225
1102.230743	-0.018637
1102.391403	-0.019502
1102.552044	-0.020159
1102.712667	-0.019855
1102.873271	-0.024157
1103.033858	-0.024906
1103.194426	-0.021896
1103.354976	-0.022956
1103.515508	-0.019235
1103.676021	-0.016512
1103.836517	-0.014301
1103.996994	-0.008640
1104.157453	-0.003970
1104.317893	-0.001728
1104.478316	-0.003791
1104.638720	-0.002891
1104.799106	-0.002777
1104.959474	-0.003385
1105.119823	-0.005266
1105.280155	-0.003780
1105.440468	-0.007482
1105.600763	-0.011300
1105.761039	-0.013333
1105.921298	-0.005986
1106.081538	-0.005641
1106.241760	-0.005684
1106.401964	-0.006592
1106.562149	-0.008106
1106.722316	-0.009882
1106.882465	-0.009750
1107.042596	-0.008934
1107.202709	-0.005543
1107.362803	-0.011689
1107.522879	-0.013053
1107.682937	-0.012077
1107.842977	-0.012577
1108.002999	-0.010424
1108.163002	-0.009881
1108.322987	-0.008990
1108.482954	-0.007294
1108.642902	-0.006537
1108.802833	-0.005305
1108.962745	-0.004489
1109.122639	-0.006734
1109.282515	-0.005197
1109.442372	-0.006196
1109.602211	-0.005070
1109.762032	-0.005166
1109.921835	-0.005281
1110.081620	-0.007194
1110.241386	-0.011362
1110.401134	-0.015378
1110.560864	-0.016333
1110.720576	-0.018613
1110.880269	-0.018153
1111.039945	-0.021961
1111.199602	-0.018849
1111.359240	-0.019670
1111.518861	-0.019668
1111.678463	-0.017181
1111.838047	-0.014523
1111.997613	-0.014096
1112.157161	-0.010756
1112.316690	-0.013065
1112.476202	-0.010400
1112.635695	-0.011346
1112.795169	-0.010283
1112.954626	-0.007007
1113.114064	-0.003225
1113.273484	-0.005860
1113.432886	-0.002009
1113.592270	-0.004896
1113.751635	-0.003451
1113.910983	-0.003823
1114.070312	-0.001781
1114.229622	-0.004591
1114.388915	-0.007696
1114.548189	-0.012384
1114.707445	-0.007475
1114.866683	-0.007214
1115.025903	-0.004774
1115.185104	-0.004670
1115.344287	-0.005978
1115.503452	-0.009016
1115.662599	-0.011538
1115.821727	-0.009388
1115.980838	-0.005629
1116.139930	-0.009333
1116.299004	-0.011250
1116.458059	-0.011501
1116.617097	-0.011539
1116.776116	-0.008928
1116.935117	-0.010758
1117.094099	-0.003606
1117.253064	-0.008956
1117.412010	-0.007781
1117.570938	-0.005799
1117.729848	-0.007455
1117.888740	-0.010623
1118.047613	-0.011043
1118.206468	-0.011914
1118.365305	-0.011292
1118.524124	-0.018869
1118.682924	-0.013766
1118.841707	-0.012927
1119.000471	-0.014601
1119.159216	-0.015112
1119.317944	-0.011822
1119.476653	-0.008052
1119.635344	-0.006965
1119.794017	-0.003793
1119.952672	0.001657
1120.111308	-0.000009
1120.269927	-0.006668
1120.428527	-0.003445
1120.587108	-0.003028
1120.745672	-0.005498
1120.904217	-0.004172
1121.062744	-0.004742
1121.221253	-0.008614
1121.379744	-0.009752
1121.538216	-0.008134
1121.696671	-0.009454
1121.855107	-0.012029
1122.013524	-0.012860
1122.171924	-0.013753
1122.330305	-0.018648
1122.488668	-0.019286
1122.647013	-0.021535
1122.805340	-0.021839
1122.963648	-0.021585
1123.121938	-0.018777
1123.280210	-0.020278
1123.438464	-0.016897
1123.596700	-0.013466
1123.754917	-0.012280
1123.913116	-0.015383
1124.071297	-0.011882
1124.229459	-0.012145
1124.387604	-0.013767
1124.545730	-0.016274
1124.703838	-0.012885
1124.861928	-0.014202
1125.019999	-0.015011
1125.178052	-0.015919
1125.336088	-0.016467
1125.494104	-0.020608
1125.652103	-0.019875
1125.810083	-0.021357
1125.968045	-0.020600
1126.125989	-0.017916
1126.283915	-0.018509
1126.441823	-0.021003
1126.599712	-0.016680
1126.757583	-0.008975
1126.915436	-0.009810
1127.073270	-0.008701
1127.231087	-0.005988
1127.388885	-0.003614
1127.546665	-0.001791
1127.704426	-0.003027
1127.862170	-0.005417
1128.019895	-0.008731
1128.177602	-0.014519
1128.335291	-0.012880
1128.492961	-0.014351
1128.650614	-0.013079
1128.808248	-0.012616
1128.965864	-0.018748
1129.123461	-0.014396
1129.281041	-0.006623
1129.438602	-0.007772
1129.596145	-0.006624
1129.753670	-0.002430
1129.911176	-0.003635
1130.068665	-0.003236
1130.226135	-0.008266
1130.383587	-0.007940
1130.541020	-0.003575
1130.698436	-0.008214
1130.855833	-0.009844
1131.013212	-0.010173
1131.170573	-0.011074
1131.327915	-0.009369
1131.485239	-0.015927
1131.642545	-0.011595
1131.799833	-0.013226
1131.957103	-0.018252
1132.114354	-0.017969
1132.271588	-0.013869
1132.428803	-0.012739
1132.585999	-0.010195
1132.743178	-0.008280
1132.900338	-0.003276
1133.057480	-0.004504
1133.214604	-0.006670
1133.371710	-0.007802
1133.528797	-0.004495
1133.685866	-0.007557
1133.842917	-0.003291
1133.999950	-0.005837
1134.156964	-0.010400
1134.313960	-0.011046
1134.470938	-0.013420
1134.627898	-0.007815
1134.784840	-0.006990
1134.941763	-0.007651
1135.098668	-0.001637
1135.255555	-0.006527
1135.412424	-0.006821
1135.569274	0.000550
1135.726107	0.001168
1135.882921	0.009965
1136.039716	0.007230
1136.196494	0.007056
1136.353253	0.004346
1136.509995	-0.003998
1136.666717	0.000409
1136.823422	-0.000727
1136.980109	-0.006337
1137.136777	-0.008451
1137.293427	-0.011651
1137.450059	-0.008606
1137.606672	-0.005924
1137.763267	-0.004126
1137.919844	0.003520
1138.076403	-0.000889
1138.232944	0.008768
1138.389466	0.017970
1138.545971	0.019433
1138.702457	0.019124
1138.858924	0.021996
1139.015374	0.009346
1139.171805	0.011172
1139.328218	0.003756
1139.484613	0.000262
1139.640990	-0.003542
1139.797348	-0.008600
1139.953688	-0.009359
1140.110010	-0.011520
1140.266314	-0.016842
1140.422600	-0.005711
1140.578867	-0.009352
1140.735116	-0.007659
1140.891347	-0.002607
1141.047559	-0.001037
1141.203754	-0.002787
1141.359930	-0.001215
1141.516088	-0.003102
1141.672228	0.000761
1141.828349	-0.006380
1141.984452	-0.003560
1142.140537	0.000588
1142.296604	0.002230
1142.452653	-0.007719
1142.608683	-0.008225
1142.764695	-0.016362
1142.920689	-0.009514
1143.076665	-0.018290
1143.232622	-0.020317
1143.388562	-0.015821
1143.544483	-0.020375
1143.700385	-0.027973
1143.856270	-0.024114
1144.012136	-0.025310
1144.167985	-0.018081
1144.323814	-0.021573
1144.479626	-0.014554
1144.635420	-0.005281
1144.791195	-0.010925
1144.946952	-0.010316
1145.102691	-0.006350
1145.258411	-0.000463
1145.414113	0.002674
1145.569798	0.001044
1145.725463	-0.002780
1145.881111	-0.001509
1146.036741	-0.008344
1146.192352	-0.007676
1146.347945	-0.005838
1146.503519	-0.008212
1146.659076	-0.010077
1146.814614	-0.005736
1146.970134	-0.011114
1147.125636	-0.008166
1147.281120	-0.008569
1147.436585	-0.007659
1147.592032	-0.009824
1147.747461	-0.013696
1147.902872	-0.014960
1148.058265	-0.020177
1148.213639	-0.031061
1148.368995	-0.022637
1148.524333	-0.017369
1148.679653	-0.016786
1148.834954	-0.012233
1148.990237	-0.006756
1149.145502	-0.003320
1149.300749	0.000749
1149.455977	0.002450
1149.611188	0.007829
1149.766380	0.008952
1149.921553	0.004982
1150.076709	-0.001776
1150.231846	0.001613
1150.386966	-0.000442
1150.542066	0.000248
1150.697149	-0.009650
1150.852214	-0.002236
1151.007260	-0.001667
1151.162288	-0.006821
1151.317298	-0.003797
1151.472289	-0.002608
1151.627263	-0.005281
1151.782218	-0.014152
1151.937155	-0.015303
1152.092073	-0.008533
1152.246974	-0.021717
1152.401856	-0.018049
1152.556720	-0.019763
1152.711566	-0.021722
1152.866393	-0.018627
1153.021203	-0.029155
1153.175994	-0.022520
1153.330767	-0.018287
1153.485521	-0.011526
1153.640258	-0.009861
1153.794976	-0.012532
1153.949676	-0.011871
1154.104358	-0.014873
1154.259021	-0.014627
1154.413667	-0.003448
1154.568294	-0.011767
1154.722903	-0.019922
1154.877493	-0.022496
1155.032066	-0.016434
1155.186620	-0.021930
1155.341156	-0.014331
1155.495674	-0.018150
1155.650173	-0.016934
1155.804654	-0.012351
1155.959118	-0.002799
1156.113562	0.005644
1156.267989	0.012697
1156.422397	0.006216
1156.576788	0.006164
1156.731160	0.003994
1156.885513	0.009399
1157.039849	0.009416
1157.194166	-0.003031
1157.348465	-0.012475
1157.502746	-0.013293
1157.657009	-0.027677
1157.811253	-0.030850
1157.965479	-0.028786
1158.119687	-0.032220
1158.273877	-0.040776
1158.428048	-0.042889
1158.582201	-0.040117
1158.736337	-0.025430
1158.890453	-0.025734
1159.044552	-0.028195
1159.198632	-0.013017
1159.352694	-0.013504
1159.506738	-0.010579
1159.660764	0.001941
1159.814771	0.003537
1159.968761	0.003474
1160.122732	-0.000444
1160.276685	-0.011509
1160.430619	-0.003602
1160.584535	-0.013074
1160.738434	-0.017030
1160.892313	-0.026982
1161.046175	-0.027677
1161.200019	-0.034505
1161.353844	-0.024626
1161.507651	-0.033052
1161.661440	-0.019170
1161.815210	-0.016579
1161.968962	-0.019387
1162.122697	-0.010372
1162.276412	-0.001857
1162.430110	-0.007739
1162.583789	-0.003398
1162.737451	-0.018014
1162.891094	-0.015967
1163.044718	-0.023389
1163.198325	-0.023766
1163.351913	-0.016714
1163.505483	-0.026906
1163.659035	-0.029295
1163.812569	-0.022264
1163.966084	-0.024864
1164.119581	-0.000200
1164.273060	0.009784
1164.426521	0.006846
1164.579964	0.007570
1164.733388	0.000707
1164.886794	0.001349
1165.040182	0.006442
1165.193551	0.001266
1165.346903	0.013119
1165.500236	-0.010044
1165.653551	-0.009206
1165.806848	-0.007598
1165.960126	-0.015111
1166.113386	-0.019791
1166.266628	-0.008273
1166.419852	-0.015286
1166.573058	-0.019439
1166.726245	-0.021915
1166.879414	-0.011657
1167.032565	-0.016958
1167.185698	-0.015855
1167.338812	0.000018
1167.491909	-0.002158
1167.644987	-0.013207
1167.798046	-0.021024
1167.951088	-0.020058
1168.104111	-0.020325
1168.257117	-0.026179
1168.410103	-0.034535
1168.563072	-0.040840
1168.716023	-0.049710
1168.868955	-0.038654
1169.021869	-0.030290
1169.174765	-0.020827
1169.327642	-0.015920
1169.480501	-0.022188
1169.633343	-0.017976
1169.786165	-0.007385
1169.938970	0.003025
1170.091757	0.004512
1170.244525	-0.013367
1170.397275	-0.013608
1170.550007	-0.009336
1170.702720	-0.011671
1170.855415	-0.003643
1171.008092	-0.012322
1171.160751	-0.019833
1171.313392	-0.021774
1171.466014	0.080742
1171.618619	-0.030170
1171.771205	-0.030170
1171.923772	-0.030170
