sample name	sample
index	164
start time	 02-18-2021  10:06:19 AM


Wavelength (nm)	Absorbance
494.344910	-0.012706
494.563924	-0.012706
494.782919	-0.012706
495.001897	-0.029818
495.220856	-0.061002
495.439797	-0.064041
495.658719	-0.105017
495.877624	-0.110516
496.096510	-0.072981
496.315378	-0.061310
496.534227	-0.001075
496.753059	0.001479
496.971872	-0.022860
497.190667	0.001814
497.409444	0.006461
497.628203	0.008657
497.846943	0.010209
498.065665	0.009271
498.284369	0.008277
498.503055	0.008260
498.721723	0.007816
498.940372	0.007490
499.159003	0.007715
499.377616	0.007987
499.596210	0.007095
499.814787	0.007287
500.033345	0.007220
500.251885	0.006822
500.470406	0.006591
500.688910	0.007064
500.907395	0.007024
501.125862	0.006787
501.344311	0.005560
501.562742	0.006092
501.781154	0.004731
501.999548	0.004147
502.217924	0.004765
502.436282	0.004303
502.654621	0.003542
502.872942	0.004384
503.091245	0.004234
503.309530	0.005500
503.527797	0.005556
503.746045	0.006099
503.964275	0.006348
504.182487	0.006891
504.400681	0.006180
504.618856	0.005830
504.837013	0.004860
505.055152	0.005189
505.273273	0.004193
505.491376	0.003450
505.709460	0.003327
505.927526	0.004165
506.145574	0.003730
506.363604	0.004898
506.581615	0.004672
506.799608	0.004438
507.017583	0.004083
507.235540	0.004573
507.453478	0.004858
507.671399	0.004457
507.889301	0.003561
508.107185	0.003924
508.325050	0.002955
508.542898	0.003538
508.760727	0.003863
508.978538	0.003541
509.196330	0.003197
509.414105	0.003899
509.631861	0.004693
509.849599	0.004410
510.067319	0.004516
510.285021	0.004112
510.502704	0.003424
510.720369	0.003534
510.938016	0.004145
511.155645	0.003835
511.373255	0.003699
511.590848	0.002768
511.808422	0.002556
512.025977	0.001787
512.243515	0.002496
512.461034	0.003379
512.678536	0.003243
512.896018	0.003423
513.113483	0.003521
513.330930	0.003550
513.548358	0.003885
513.765768	0.004558
513.983160	0.004620
514.200533	0.004503
514.417889	0.003550
514.635226	0.003004
514.852545	0.002438
515.069845	0.002340
515.287128	0.002183
515.504392	0.001941
515.721638	0.001616
515.938866	0.001576
516.156075	0.000895
516.373267	0.001390
516.590440	0.001445
516.807594	0.001203
517.024731	0.000915
517.241850	0.000375
517.458950	0.000721
517.676032	-0.000510
517.893095	-0.000856
518.110141	-0.000812
518.327168	-0.000666
518.544177	-0.000770
518.761168	-0.000472
518.978141	0.000238
519.195095	-0.000092
519.412031	-0.000493
519.628949	0.000031
519.845849	0.000281
520.062731	0.000830
520.279594	0.001159
520.496439	0.001298
520.713266	0.001259
520.930074	0.001033
521.146865	0.001650
521.363637	0.001760
521.580391	0.002039
521.797127	0.001915
522.013844	0.001668
522.230543	0.000970
522.447224	0.000921
522.663887	0.000293
522.880532	0.000089
523.097158	-0.000395
523.313766	-0.000200
523.530356	-0.000222
523.746928	0.000042
523.963481	0.000114
524.180017	-0.000013
524.396534	-0.000058
524.613032	-0.000118
524.829513	-0.000730
525.045975	-0.000567
525.262420	-0.001207
525.478845	-0.001516
525.695253	-0.001538
525.911643	-0.001836
526.128014	-0.001633
526.344367	-0.002018
526.560702	-0.001366
526.777018	-0.001271
526.993316	-0.002076
527.209597	-0.002144
527.425858	-0.001868
527.642102	-0.002322
527.858328	-0.002435
528.074535	-0.002831
528.290724	-0.002858
528.506894	-0.002967
528.723047	-0.002629
528.939181	-0.001976
529.155297	-0.001239
529.371395	-0.001267
529.587475	-0.001127
529.803536	-0.000840
530.019579	-0.000618
530.235604	-0.000536
530.451611	-0.000576
530.667600	-0.000648
530.883570	-0.000833
531.099522	-0.001682
531.315456	-0.001809
531.531372	-0.001838
531.747269	-0.002014
531.963148	-0.001842
532.179009	-0.001158
532.394852	-0.000986
532.610676	-0.000937
532.826482	-0.001075
533.042271	-0.000648
533.258040	-0.000456
533.473792	-0.000395
533.689525	-0.000217
533.905240	-0.000216
534.120937	-0.000621
534.336616	-0.000843
534.552277	-0.001073
534.767919	-0.000721
534.983543	-0.000855
535.199149	-0.001214
535.414736	-0.001653
535.630306	-0.001773
535.845857	-0.001557
536.061390	-0.001898
536.276904	-0.001997
536.492401	-0.002205
536.707879	-0.002027
536.923339	-0.002333
537.138781	-0.001931
537.354204	-0.001754
537.569610	-0.001872
537.784997	-0.002446
538.000366	-0.002521
538.215716	-0.002371
538.431049	-0.002150
538.646363	-0.002678
538.861659	-0.002750
539.076937	-0.002930
539.292196	-0.003151
539.507438	-0.002909
539.722661	-0.003385
539.937866	-0.003533
540.153052	-0.003702
540.368221	-0.003906
540.583371	-0.003887
540.798503	-0.003622
541.013617	-0.003731
541.228712	-0.003635
541.443789	-0.003910
541.658848	-0.003701
541.873889	-0.003612
542.088912	-0.003622
542.303916	-0.003346
542.518902	-0.003070
542.733870	-0.002787
542.948820	-0.002646
543.163752	-0.002377
543.378665	-0.002291
543.593560	-0.002445
543.808437	-0.002132
544.023295	-0.001980
544.238136	-0.002358
544.452958	-0.002649
544.667762	-0.002971
544.882548	-0.003552
545.097315	-0.003821
545.312064	-0.003919
545.526795	-0.003469
545.741508	-0.003708
545.956203	-0.004048
546.170879	-0.003844
546.385537	-0.003736
546.600177	-0.003884
546.814799	-0.003656
547.029402	-0.003897
547.243988	-0.004214
547.458555	-0.004583
547.673103	-0.004574
547.887634	-0.004655
548.102146	-0.004706
548.316640	-0.004857
548.531116	-0.004882
548.745574	-0.004809
548.960013	-0.004438
549.174435	-0.004549
549.388838	-0.004716
549.603222	-0.004947
549.817589	-0.004881
550.031937	-0.004718
550.246267	-0.004812
550.460579	-0.004733
550.674873	-0.004526
550.889148	-0.004950
551.103405	-0.004636
551.317644	-0.004357
551.531865	-0.004500
551.746068	-0.004553
551.960252	-0.004773
552.174418	-0.004586
552.388566	-0.004960
552.602696	-0.005391
552.816807	-0.004808
553.030900	-0.004936
553.244975	-0.004960
553.459032	-0.004719
553.673070	-0.005156
553.887091	-0.005279
554.101093	-0.005294
554.315077	-0.005213
554.529042	-0.005154
554.742990	-0.005358
554.956919	-0.005373
555.170830	-0.005525
555.384722	-0.005577
555.598597	-0.005492
555.812453	-0.005400
556.026291	-0.005638
556.240111	-0.005914
556.453913	-0.005805
556.667696	-0.006354
556.881461	-0.006723
557.095208	-0.006606
557.308937	-0.006458
557.522647	-0.006012
557.736339	-0.006132
557.950013	-0.006526
558.163669	-0.006397
558.377307	-0.006530
558.590926	-0.006473
558.804527	-0.006356
559.018110	-0.006434
559.231675	-0.006776
559.445221	-0.006897
559.658749	-0.006589
559.872259	-0.006427
560.085751	-0.006052
560.299225	-0.006192
560.512680	-0.005914
560.726117	-0.005606
560.939536	-0.005718
561.152937	-0.005621
561.366319	-0.005953
561.579683	-0.006193
561.793029	-0.006086
562.006357	-0.006438
562.219667	-0.006351
562.432958	-0.006345
562.646231	-0.006640
562.859486	-0.006587
563.072723	-0.006167
563.285941	-0.006220
563.499141	-0.006873
563.712323	-0.006560
563.925487	-0.006328
564.138632	-0.006623
564.351760	-0.006661
564.564869	-0.006447
564.777960	-0.006432
564.991032	-0.007103
565.204087	-0.006643
565.417123	-0.006094
565.630141	-0.006388
565.843140	-0.006606
566.056122	-0.006267
566.269085	-0.006421
566.482030	-0.006565
566.694957	-0.006487
566.907866	-0.006372
567.120756	-0.006588
567.333628	-0.006741
567.546482	-0.006613
567.759318	-0.006458
567.972135	-0.006590
568.184935	-0.006711
568.397716	-0.006801
568.610478	-0.006921
568.823223	-0.006944
569.035949	-0.006881
569.248657	-0.006919
569.461347	-0.007108
569.674019	-0.007230
569.886672	-0.007143
570.099308	-0.007141
570.311925	-0.007075
570.524523	-0.007137
570.737104	-0.007046
570.949666	-0.007431
571.162210	-0.007282
571.374736	-0.007178
571.587244	-0.007454
571.799733	-0.007553
572.012205	-0.007255
572.224658	-0.007131
572.437092	-0.007075
572.649509	-0.006937
572.861907	-0.006914
573.074287	-0.006841
573.286649	-0.006898
573.498993	-0.006731
573.711318	-0.006565
573.923625	-0.006942
574.135914	-0.006862
574.348185	-0.006812
574.560438	-0.007067
574.772672	-0.006596
574.984888	-0.006586
575.197086	-0.006479
575.409266	-0.006306
575.621427	-0.006092
575.833570	-0.006110
576.045695	-0.006358
576.257802	-0.006524
576.469890	-0.006096
576.681961	-0.006387
576.894013	-0.006621
577.106046	-0.006682
577.318062	-0.006802
577.530059	-0.007372
577.742039	-0.007206
577.954000	-0.007135
578.165942	-0.007080
578.377867	-0.007370
578.589773	-0.006966
578.801661	-0.006979
579.013531	-0.006955
579.225382	-0.006972
579.437216	-0.006719
579.649031	-0.006672
579.860828	-0.006681
580.072606	-0.006529
580.284367	-0.006624
580.496109	-0.006895
580.707833	-0.006731
580.919539	-0.006585
581.131227	-0.006560
581.342896	-0.006593
581.554547	-0.006264
581.766180	-0.006311
581.977795	-0.006493
582.189391	-0.006458
582.400969	-0.006919
582.612529	-0.007073
582.824071	-0.007139
583.035595	-0.007213
583.247100	-0.007412
583.458587	-0.007508
583.670056	-0.007336
583.881506	-0.006931
584.092939	-0.007025
584.304353	-0.006845
584.515749	-0.006814
584.727127	-0.006783
584.938486	-0.006739
585.149828	-0.006573
585.361151	-0.006668
585.572456	-0.007118
585.783742	-0.007590
585.995011	-0.007586
586.206261	-0.007604
586.417493	-0.007617
586.628706	-0.007574
586.839902	-0.007633
587.051079	-0.007433
587.262238	-0.007712
587.473379	-0.007743
587.684502	-0.007761
587.895606	-0.007735
588.106692	-0.007436
588.317760	-0.007486
588.528810	-0.007540
588.739841	-0.007482
588.950855	-0.007884
589.161850	-0.007786
589.372827	-0.007628
589.583785	-0.007524
589.794726	-0.007621
590.005648	-0.007887
590.216552	-0.007792
590.427437	-0.008127
590.638305	-0.008206
590.849154	-0.008070
591.059985	-0.007918
591.270798	-0.007826
591.481592	-0.007709
591.692369	-0.007555
591.903127	-0.007459
592.113867	-0.007591
592.324588	-0.007276
592.535292	-0.007184
592.745977	-0.007106
592.956644	-0.007129
593.167293	-0.007285
593.377923	-0.007234
593.588536	-0.007155
593.799130	-0.007264
594.009706	-0.007474
594.220263	-0.007565
594.430803	-0.007663
594.641324	-0.007582
594.851827	-0.007623
595.062312	-0.007329
595.272778	-0.007259
595.483227	-0.007534
595.693657	-0.007209
595.904069	-0.006938
596.114462	-0.006810
596.324838	-0.006638
596.535195	-0.006764
596.745534	-0.007199
596.955855	-0.007364
597.166157	-0.007725
597.376441	-0.007484
597.586707	-0.007694
597.796955	-0.007941
598.007185	-0.008162
598.217396	-0.008056
598.427589	-0.008274
598.637764	-0.008038
598.847921	-0.007901
599.058060	-0.007882
599.268180	-0.008192
599.478282	-0.008364
599.688366	-0.008288
599.898431	-0.008383
600.108479	-0.008662
600.318508	-0.008628
600.528519	-0.008329
600.738511	-0.008386
600.948486	-0.008408
601.158442	-0.008103
601.368380	-0.007771
601.578300	-0.007831
601.788202	-0.007831
601.998085	-0.008018
602.207950	-0.007906
602.417797	-0.008347
602.627626	-0.008457
602.837436	-0.008502
603.047228	-0.008552
603.257002	-0.009002
603.466758	-0.009143
603.676496	-0.009178
603.886215	-0.009115
604.095916	-0.009268
604.305599	-0.009210
604.515264	-0.009174
604.724910	-0.008904
604.934538	-0.009129
605.144148	-0.009110
605.353740	-0.008776
605.563314	-0.008841
605.772869	-0.008562
605.982406	-0.008495
606.191925	-0.008474
606.401425	-0.008434
606.610908	-0.008702
606.820372	-0.008589
607.029818	-0.008316
607.239246	-0.008524
607.448655	-0.008533
607.658047	-0.008662
607.867420	-0.008482
608.076775	-0.008251
608.286111	-0.008419
608.495430	-0.008358
608.704730	-0.008540
608.914012	-0.008728
609.123275	-0.008471
609.332521	-0.008364
609.541748	-0.008356
609.750957	-0.008255
609.960148	-0.008118
610.169321	-0.008299
610.378475	-0.008107
610.587611	-0.007867
610.796729	-0.007824
611.005829	-0.007808
611.214910	-0.007706
611.423974	-0.007888
611.633019	-0.008247
611.842045	-0.008650
612.051054	-0.008398
612.260044	-0.008692
612.469017	-0.008711
612.677970	-0.008643
612.886906	-0.008696
613.095824	-0.008879
613.304723	-0.008744
613.513604	-0.008826
613.722467	-0.008912
613.931311	-0.008925
614.140138	-0.008734
614.348946	-0.008768
614.557736	-0.008791
614.766507	-0.008667
614.975261	-0.008531
615.183996	-0.008683
615.392713	-0.008595
615.601412	-0.008396
615.810092	-0.008350
616.018754	-0.008167
616.227399	-0.008183
616.436024	-0.008007
616.644632	-0.008196
616.853222	-0.008259
617.061793	-0.008015
617.270346	-0.007775
617.478880	-0.007802
617.687397	-0.007794
617.895895	-0.007943
618.104375	-0.007997
618.312837	-0.007926
618.521281	-0.007771
618.729706	-0.007698
618.938113	-0.007714
619.146502	-0.007890
619.354873	-0.007949
619.563226	-0.008002
619.771560	-0.008128
619.979876	-0.008112
620.188174	-0.008534
620.396453	-0.008684
620.604715	-0.008645
620.812958	-0.008807
621.021183	-0.008668
621.229390	-0.008670
621.437578	-0.008875
621.645748	-0.008828
621.853900	-0.008799
622.062034	-0.008651
622.270150	-0.008683
622.478247	-0.008899
622.686326	-0.008893
622.894387	-0.009071
623.102430	-0.008989
623.310454	-0.008822
623.518461	-0.008902
623.726449	-0.008915
623.934418	-0.008942
624.142370	-0.008789
624.350303	-0.008844
624.558218	-0.008819
624.766115	-0.008788
624.973994	-0.008821
625.181855	-0.008720
625.389697	-0.008604
625.597521	-0.008642
625.805327	-0.008625
626.013114	-0.008857
626.220883	-0.008637
626.428634	-0.008618
626.636367	-0.008601
626.844082	-0.008643
627.051778	-0.008753
627.259457	-0.008945
627.467117	-0.008788
627.674758	-0.008904
627.882382	-0.008794
628.089987	-0.008800
628.297574	-0.008682
628.505143	-0.008655
628.712694	-0.008668
628.920226	-0.008622
629.127740	-0.008247
629.335236	-0.008338
629.542714	-0.008122
629.750174	-0.008281
629.957615	-0.008136
630.165038	-0.008331
630.372443	-0.008240
630.579829	-0.008147
630.787198	-0.008014
630.994548	-0.008278
631.201880	-0.008455
631.409194	-0.008530
631.616489	-0.008419
631.823766	-0.008787
632.031025	-0.008753
632.238266	-0.009083
632.445489	-0.009034
632.652693	-0.009147
632.859879	-0.009159
633.067047	-0.009070
633.274197	-0.009073
633.481329	-0.009126
633.688442	-0.008891
633.895537	-0.008835
634.102614	-0.008429
634.309672	-0.008426
634.516713	-0.008552
634.723735	-0.008590
634.930739	-0.008648
635.137724	-0.008622
635.344692	-0.008531
635.551641	-0.008543
635.758572	-0.008379
635.965485	-0.008546
636.172379	-0.008810
636.379256	-0.008736
636.586114	-0.008858
636.792954	-0.008774
636.999775	-0.008822
637.206579	-0.008761
637.413364	-0.008818
637.620131	-0.009085
637.826880	-0.009221
638.033610	-0.009058
638.240323	-0.009134
638.447017	-0.008992
638.653692	-0.009035
638.860350	-0.009037
639.066990	-0.009095
639.273611	-0.009181
639.480214	-0.009084
639.686798	-0.008887
639.893365	-0.008870
640.099913	-0.008897
640.306443	-0.008991
640.512955	-0.008902
640.719449	-0.009055
640.925924	-0.009033
641.132381	-0.009023
641.338820	-0.009053
641.545241	-0.009142
641.751644	-0.009254
641.958028	-0.009054
642.164394	-0.008967
642.370742	-0.008888
642.577071	-0.008742
642.783383	-0.008811
642.989676	-0.008658
643.195951	-0.008567
643.402207	-0.008478
643.608446	-0.008456
643.814666	-0.008635
644.020868	-0.008578
644.227052	-0.008638
644.433218	-0.008737
644.639365	-0.008721
644.845494	-0.008703
645.051605	-0.008771
645.257698	-0.008799
645.463772	-0.008773
645.669828	-0.008571
645.875866	-0.008592
646.081886	-0.008644
646.287888	-0.008555
646.493871	-0.008449
646.699836	-0.008678
646.905783	-0.008702
647.111712	-0.008758
647.317622	-0.008753
647.523514	-0.008866
647.729388	-0.008904
647.935244	-0.008715
648.141082	-0.008755
648.346901	-0.008836
648.552702	-0.008624
648.758485	-0.008603
648.964250	-0.008552
649.169996	-0.008534
649.375724	-0.008608
649.581434	-0.008543
649.787126	-0.008611
649.992800	-0.008609
650.198455	-0.008662
650.404092	-0.008844
650.609711	-0.008892
650.815311	-0.008888
651.020894	-0.008907
651.226458	-0.008879
651.432004	-0.008779
651.637532	-0.008922
651.843041	-0.008956
652.048532	-0.008895
652.254006	-0.008749
652.459460	-0.008751
652.664897	-0.008757
652.870315	-0.008755
653.075716	-0.008618
653.281097	-0.008823
653.486461	-0.008799
653.691807	-0.008733
653.897134	-0.008800
654.102443	-0.008743
654.307734	-0.008710
654.513006	-0.008673
654.718261	-0.008447
654.923497	-0.008532
655.128715	-0.008313
655.333915	-0.008126
655.539096	-0.008051
655.744259	-0.008028
655.949404	-0.008081
656.154531	-0.008062
656.359640	-0.008211
656.564730	-0.008332
656.769802	-0.008232
656.974856	-0.008279
657.179892	-0.008463
657.384909	-0.008552
657.589908	-0.008464
657.794889	-0.008516
657.999852	-0.008584
658.204797	-0.008569
658.409723	-0.008676
658.614631	-0.008812
658.819521	-0.008908
659.024393	-0.008823
659.229246	-0.008875
659.434081	-0.008917
659.638898	-0.008926
659.843697	-0.008899
660.048478	-0.008808
660.253240	-0.008688
660.457984	-0.008581
660.662710	-0.008492
660.867417	-0.008522
661.072107	-0.008443
661.276778	-0.008534
661.481431	-0.008473
661.686066	-0.008387
661.890682	-0.008302
662.095281	-0.008318
662.299861	-0.008400
662.504422	-0.008428
662.708966	-0.008286
662.913491	-0.008232
663.117999	-0.008190
663.322488	-0.008245
663.526958	-0.008342
663.731411	-0.008514
663.935845	-0.008581
664.140261	-0.008686
664.344659	-0.008884
664.549038	-0.009048
664.753400	-0.009067
664.957743	-0.008952
665.162068	-0.008927
665.366375	-0.008824
665.570663	-0.008766
665.774933	-0.008787
665.979185	-0.008577
666.183419	-0.008515
666.387635	-0.008575
666.591832	-0.008628
666.796011	-0.008677
667.000172	-0.008707
667.204315	-0.008788
667.408439	-0.008568
667.612545	-0.008523
667.816634	-0.008460
668.020703	-0.008260
668.224755	-0.008198
668.428788	-0.008182
668.632803	-0.008289
668.836800	-0.008490
669.040779	-0.008468
669.244739	-0.008648
669.448681	-0.008689
669.652605	-0.008742
669.856511	-0.008697
670.060399	-0.008684
670.264268	-0.008625
670.468119	-0.008548
670.671952	-0.008264
670.875767	-0.007988
671.079563	-0.008016
671.283341	-0.007756
671.487101	-0.007810
671.690843	-0.007782
671.894567	-0.007750
672.098272	-0.007863
672.301959	-0.007891
672.505628	-0.007928
672.709278	-0.008201
672.912911	-0.008175
673.116525	-0.008528
673.320121	-0.008517
673.523699	-0.008623
673.727258	-0.008762
673.930799	-0.008793
674.134322	-0.008613
674.337827	-0.008595
674.541314	-0.008444
674.744782	-0.008523
674.948232	-0.008330
675.151664	-0.008421
675.355078	-0.008408
675.558474	-0.008457
675.761851	-0.008263
675.965210	-0.008256
676.168551	-0.008314
676.371873	-0.008325
676.575178	-0.008319
676.778464	-0.008248
676.981732	-0.008260
677.184981	-0.008433
677.388213	-0.008223
677.591426	-0.008373
677.794621	-0.008642
677.997798	-0.008627
678.200956	-0.008535
678.404097	-0.008620
678.607219	-0.008845
678.810323	-0.008644
679.013408	-0.008462
679.216476	-0.008565
679.419525	-0.008593
679.622556	-0.008561
679.825569	-0.008439
680.028563	-0.008638
680.231540	-0.008243
680.434498	-0.008011
680.637438	-0.008150
680.840359	-0.008258
681.043263	-0.008310
681.246148	-0.008244
681.449015	-0.008204
681.651864	-0.008280
681.854694	-0.008209
682.057506	-0.008435
682.260301	-0.008607
682.463076	-0.008562
682.665834	-0.008365
682.868573	-0.008153
683.071295	-0.008080
683.273998	-0.008005
683.476682	-0.007886
683.679349	-0.007944
683.881997	-0.008041
684.084627	-0.008086
684.287239	-0.008122
684.489833	-0.008151
684.692408	-0.008169
684.894965	-0.008250
685.097504	-0.008208
685.300025	-0.008286
685.502527	-0.008181
685.705012	-0.008027
685.907478	-0.007998
686.109925	-0.007871
686.312355	-0.008101
686.514766	-0.008092
686.717159	-0.008048
686.919534	-0.007973
687.121891	-0.007936
687.324230	-0.007955
687.526550	-0.008041
687.728852	-0.007971
687.931136	-0.007876
688.133401	-0.007734
688.335649	-0.007853
688.537878	-0.007911
688.740089	-0.007947
688.942281	-0.007986
689.144456	-0.008124
689.346612	-0.008104
689.548750	-0.008096
689.750870	-0.008402
689.952971	-0.008401
690.155055	-0.008323
690.357120	-0.008217
690.559167	-0.008316
690.761195	-0.008368
690.963206	-0.008133
691.165198	-0.008004
691.367172	-0.007981
691.569128	-0.007719
691.771065	-0.007626
691.972984	-0.007537
692.174885	-0.007455
692.376768	-0.007346
692.578633	-0.007315
692.780479	-0.007463
692.982308	-0.007531
693.184118	-0.007621
693.385909	-0.007710
693.587683	-0.007852
693.789438	-0.007982
693.991175	-0.008092
694.192894	-0.008122
694.394595	-0.008143
694.596277	-0.008031
694.797941	-0.008146
694.999587	-0.007953
695.201215	-0.008021
695.402824	-0.008007
695.604416	-0.007922
695.805989	-0.008039
696.007543	-0.007988
696.209080	-0.007986
696.410598	-0.008152
696.612099	-0.008016
696.813580	-0.008249
697.015044	-0.008158
697.216490	-0.008126
697.417917	-0.008188
697.619326	-0.008010
697.820717	-0.007970
698.022089	-0.007991
698.223444	-0.007912
698.424780	-0.007973
698.626098	-0.007989
698.827397	-0.007977
699.028679	-0.007978
699.229942	-0.007933
699.431187	-0.007951
699.632414	-0.008075
699.833622	-0.007830
700.034813	-0.007777
700.235985	-0.007790
700.437139	-0.007491
700.638274	-0.007603
700.839392	-0.007554
701.040491	-0.007588
701.241572	-0.007389
701.442635	-0.007340
701.643679	-0.007475
701.844706	-0.007388
702.045714	-0.007338
702.246704	-0.007442
702.447675	-0.007425
702.648629	-0.007396
702.849564	-0.007437
703.050481	-0.007676
703.251380	-0.007816
703.452260	-0.007939
703.653122	-0.008107
703.853966	-0.008131
704.054792	-0.008129
704.255600	-0.008023
704.456389	-0.008197
704.657160	-0.008196
704.857913	-0.008100
705.058648	-0.008000
705.259365	-0.008061
705.460063	-0.008050
705.660743	-0.008054
705.861405	-0.008083
706.062048	-0.008152
706.262674	-0.008144
706.463281	-0.008089
706.663870	-0.008032
706.864441	-0.008076
707.064993	-0.008028
707.265527	-0.007977
707.466043	-0.007987
707.666541	-0.008006
707.867021	-0.008095
708.067482	-0.007961
708.267925	-0.008138
708.468350	-0.008481
708.668757	-0.008483
708.869145	-0.008547
709.069516	-0.008608
709.269868	-0.008657
709.470201	-0.008822
709.670517	-0.008825
709.870814	-0.008873
710.071093	-0.008877
710.271354	-0.008753
710.471597	-0.008780
710.671821	-0.008738
710.872028	-0.008752
711.072216	-0.008634
711.272385	-0.008653
711.472537	-0.008677
711.672670	-0.008649
711.872785	-0.008490
712.072882	-0.008620
712.272961	-0.008531
712.473021	-0.008453
712.673063	-0.008396
712.873087	-0.008440
713.073093	-0.008380
713.273081	-0.008317
713.473050	-0.008504
713.673001	-0.008591
713.872934	-0.008488
714.072849	-0.008534
714.272745	-0.008524
714.472623	-0.008684
714.672483	-0.008748
714.872325	-0.008663
715.072148	-0.008794
715.271954	-0.008640
715.471741	-0.008589
715.671509	-0.008631
715.871260	-0.008627
716.070992	-0.008713
716.270707	-0.008592
716.470403	-0.008702
716.670080	-0.008645
716.869740	-0.008553
717.069381	-0.008549
717.269004	-0.008535
717.468609	-0.008439
717.668195	-0.008520
717.867764	-0.008546
718.067314	-0.008631
718.266846	-0.008609
718.466360	-0.008896
718.665855	-0.008914
718.865332	-0.009053
719.064791	-0.009034
719.264232	-0.009042
719.463655	-0.009132
719.663059	-0.009218
719.862445	-0.009171
720.061813	-0.008991
720.261163	-0.008814
720.460494	-0.008859
720.659807	-0.008715
720.859102	-0.008920
721.058379	-0.008888
721.257638	-0.008822
721.456878	-0.008761
721.656100	-0.008950
721.855304	-0.009178
722.054490	-0.009124
722.253657	-0.009219
722.452806	-0.009480
722.651937	-0.009428
722.851050	-0.009545
723.050145	-0.009538
723.249221	-0.009537
723.448279	-0.009541
723.647319	-0.009454
723.846340	-0.009665
724.045344	-0.009442
724.244329	-0.009367
724.443296	-0.009253
724.642245	-0.009390
724.841175	-0.009461
725.040088	-0.009523
725.238982	-0.009461
725.437857	-0.009486
725.636715	-0.009441
725.835554	-0.009586
726.034376	-0.009501
726.233179	-0.009624
726.431963	-0.009377
726.630730	-0.009293
726.829478	-0.009315
727.028208	-0.009232
727.226920	-0.009234
727.425614	-0.009334
727.624289	-0.009516
727.822946	-0.009567
728.021585	-0.009568
728.220206	-0.009622
728.418808	-0.009644
728.617392	-0.009554
728.815958	-0.009599
729.014506	-0.009502
729.213036	-0.009249
729.411547	-0.009221
729.610040	-0.009363
729.808515	-0.009364
730.006972	-0.009427
730.205410	-0.009578
730.403831	-0.009626
730.602233	-0.009762
730.800616	-0.009928
730.998982	-0.010177
731.197329	-0.010164
731.395658	-0.010151
731.593969	-0.010235
731.792262	-0.010340
731.990536	-0.010450
732.188793	-0.010519
732.387031	-0.010599
732.585250	-0.010583
732.783452	-0.010495
732.981635	-0.010521
733.179800	-0.010605
733.377947	-0.010580
733.576076	-0.010519
733.774186	-0.010450
733.972278	-0.010410
734.170352	-0.010261
734.368408	-0.010380
734.566446	-0.010481
734.764465	-0.010570
734.962466	-0.010444
735.160449	-0.010515
735.358413	-0.010631
735.556360	-0.010722
735.754288	-0.011051
735.952198	-0.011155
736.150090	-0.011261
736.347963	-0.011063
736.545818	-0.011043
736.743655	-0.011136
736.941474	-0.011282
737.139275	-0.011381
737.337057	-0.011237
737.534821	-0.011147
737.732567	-0.011103
737.930295	-0.011137
738.128005	-0.011297
738.325696	-0.011336
738.523369	-0.011334
738.721024	-0.011346
738.918660	-0.011331
739.116279	-0.011490
739.313879	-0.011428
739.511461	-0.011448
739.709024	-0.011368
739.906570	-0.011419
740.104097	-0.011314
740.301606	-0.011447
740.499097	-0.011251
740.696569	-0.011062
740.894024	-0.010751
741.091460	-0.010555
741.288878	-0.010690
741.486277	-0.010714
741.683659	-0.010771
741.881022	-0.010839
742.078367	-0.010531
742.275694	-0.010697
742.473002	-0.010582
742.670293	-0.010853
742.867565	-0.011081
743.064819	-0.010931
743.262054	-0.010958
743.459272	-0.010953
743.656471	-0.010727
743.853652	-0.010968
744.050815	-0.010930
744.247959	-0.011156
744.445085	-0.011014
744.642194	-0.010956
744.839283	-0.011099
745.036355	-0.010983
745.233408	-0.010972
745.430444	-0.011090
745.627461	-0.011065
745.824459	-0.011080
746.021440	-0.010963
746.218402	-0.010966
746.415346	-0.010804
746.612272	-0.010790
746.809180	-0.010938
747.006069	-0.010880
747.202940	-0.010912
747.399793	-0.010918
747.596628	-0.010937
747.793444	-0.011076
747.990243	-0.011110
748.187023	-0.011260
748.383784	-0.011257
748.580528	-0.011122
748.777253	-0.011192
748.973960	-0.011148
749.170649	-0.011108
749.367320	-0.010917
749.563973	-0.010931
749.760607	-0.010990
749.957223	-0.010815
750.153821	-0.010779
750.350400	-0.010693
750.546962	-0.010595
750.743505	-0.010707
750.940030	-0.010651
751.136536	-0.010650
751.333025	-0.010593
751.529495	-0.010558
751.725947	-0.010599
751.922381	-0.010506
752.118796	-0.010472
752.315194	-0.010383
752.511573	-0.010312
752.707934	-0.010186
752.904276	-0.010169
753.100601	-0.010073
753.296907	-0.009941
753.493195	-0.010007
753.689465	-0.009838
753.885716	-0.009757
754.081949	-0.009606
754.278164	-0.009480
754.474361	-0.009627
754.670540	-0.009526
754.866700	-0.009610
755.062843	-0.009579
755.258967	-0.009581
755.455072	-0.009654
755.651160	-0.009747
755.847229	-0.009879
756.043280	-0.009732
756.239313	-0.009666
756.435328	-0.009920
756.631324	-0.009722
756.827302	-0.009752
757.023262	-0.009568
757.219204	-0.009595
757.415127	-0.009608
757.611033	-0.009497
757.806920	-0.009541
758.002788	-0.009755
758.198639	-0.009594
758.394471	-0.009646
758.590286	-0.009649
758.786081	-0.009859
758.981859	-0.009852
759.177619	-0.009834
759.373360	-0.010000
759.569083	-0.010193
759.764788	-0.009875
759.960474	-0.009794
760.156143	-0.009974
760.351793	-0.010100
760.547425	-0.009873
760.743038	-0.009752
760.938634	-0.009813
761.134211	-0.009618
761.329770	-0.009287
761.525311	-0.009247
761.720833	-0.009381
761.916338	-0.009071
762.111824	-0.008980
762.307292	-0.009153
762.502741	-0.009209
762.698173	-0.009106
762.893586	-0.009241
763.088981	-0.009367
763.284358	-0.009443
763.479716	-0.009444
763.675057	-0.009549
763.870379	-0.009460
764.065683	-0.009294
764.260968	-0.009227
764.456236	-0.009390
764.651485	-0.009362
764.846716	-0.009393
765.041929	-0.009360
765.237123	-0.009180
765.432299	-0.009231
765.627457	-0.009286
765.822597	-0.009274
766.017719	-0.009564
766.212822	-0.009414
766.407907	-0.009334
766.602974	-0.009392
766.798023	-0.009397
766.993054	-0.009503
767.188066	-0.009342
767.383060	-0.009448
767.578036	-0.009610
767.772993	-0.009209
767.967933	-0.009119
768.162854	-0.009116
768.357757	-0.009043
768.552642	-0.008950
768.747508	-0.008751
768.942356	-0.008834
769.137186	-0.008463
769.331998	-0.008195
769.526792	-0.008188
769.721567	-0.008029
769.916324	-0.008159
770.111063	-0.008351
770.305784	-0.008489
770.500486	-0.008639
770.695171	-0.008649
770.889837	-0.008744
771.084484	-0.009022
771.279114	-0.009307
771.473725	-0.009532
771.668318	-0.009536
771.862893	-0.009479
772.057450	-0.009322
772.251988	-0.009332
772.446509	-0.009255
772.641011	-0.009221
772.835494	-0.008992
773.029960	-0.008827
773.224407	-0.008745
773.418836	-0.008620
773.613247	-0.008471
773.807640	-0.008295
774.002014	-0.008191
774.196370	-0.008232
774.390708	-0.008192
774.585028	-0.008003
774.779330	-0.007827
774.973613	-0.007793
775.167878	-0.007865
775.362125	-0.007897
775.556354	-0.008217
775.750564	-0.008330
775.944756	-0.008162
776.138930	-0.008301
776.333086	-0.008534
776.527223	-0.008755
776.721343	-0.008640
776.915444	-0.008554
777.109526	-0.008268
777.303591	-0.008009
777.497637	-0.007867
777.691666	-0.007816
777.885676	-0.007761
778.079667	-0.007612
778.273641	-0.007619
778.467596	-0.007663
778.661533	-0.007660
778.855452	-0.007859
779.049352	-0.007868
779.243235	-0.007778
779.437099	-0.007822
779.630945	-0.007787
779.824773	-0.007936
780.018582	-0.007765
780.212373	-0.007837
780.406146	-0.007842
780.599901	-0.007940
780.793638	-0.007918
780.987356	-0.008070
781.181056	-0.008022
781.374738	-0.008027
781.568402	-0.007922
781.762047	-0.008025
781.955674	-0.008213
782.149283	-0.008129
782.342874	-0.008119
782.536447	-0.008199
782.730001	-0.008047
782.923537	-0.008294
783.117055	-0.008193
783.310555	-0.008168
783.504036	-0.008155
783.697499	-0.007873
783.890944	-0.007821
784.084371	-0.007601
784.277780	-0.007514
784.471170	-0.007545
784.664542	-0.007510
784.857896	-0.007578
785.051231	-0.007648
785.244549	-0.007324
785.437848	-0.007397
785.631129	-0.007199
785.824392	-0.007282
786.017636	-0.007379
786.210863	-0.007234
786.404071	-0.007098
786.597260	-0.007138
786.790432	-0.007017
786.983585	-0.007219
787.176721	-0.007105
787.369838	-0.007289
787.562936	-0.007245
787.756017	-0.007125
787.949079	-0.007328
788.142123	-0.007428
788.335149	-0.007356
788.528156	-0.007416
788.721146	-0.007468
788.914117	-0.007411
789.107070	-0.007465
789.300005	-0.007623
789.492921	-0.007646
789.685819	-0.007660
789.878699	-0.007490
790.071561	-0.007446
790.264405	-0.007459
790.457230	-0.007413
790.650037	-0.007644
790.842826	-0.007627
791.035597	-0.007562
791.228349	-0.007542
791.421084	-0.007468
791.613800	-0.007480
791.806497	-0.007399
791.999177	-0.007299
792.191838	-0.007331
792.384481	-0.007324
792.577106	-0.007250
792.769713	-0.007201
792.962301	-0.007356
793.154871	-0.007346
793.347423	-0.007324
793.539957	-0.007573
793.732473	-0.007846
793.924970	-0.007859
794.117449	-0.007629
794.309910	-0.007790
794.502353	-0.007701
794.694777	-0.007649
794.887183	-0.007839
795.079571	-0.007965
795.271941	-0.008023
795.464293	-0.007993
795.656626	-0.007980
795.848941	-0.008117
796.041238	-0.007905
796.233516	-0.008096
796.425777	-0.007856
796.618019	-0.007712
796.810243	-0.007930
797.002449	-0.007778
797.194636	-0.007627
797.386805	-0.007612
797.578956	-0.007675
797.771089	-0.007819
797.963204	-0.007680
798.155300	-0.007825
798.347378	-0.007800
798.539438	-0.007467
798.731480	-0.007542
798.923503	-0.007433
799.115509	-0.007425
799.307496	-0.007341
799.499465	-0.007314
799.691415	-0.007354
799.883348	-0.007267
800.075262	-0.007312
800.267158	-0.007318
800.459035	-0.007194
800.650895	-0.007235
800.842736	-0.007276
801.034559	-0.007119
801.226364	-0.007127
801.418150	-0.007136
801.609919	-0.007271
801.801669	-0.007130
801.993401	-0.007321
802.185114	-0.007454
802.376810	-0.007666
802.568487	-0.007695
802.760146	-0.007929
802.951787	-0.008063
803.143409	-0.007949
803.335014	-0.008015
803.526600	-0.008147
803.718168	-0.007926
803.909717	-0.007904
804.101249	-0.007784
804.292762	-0.007614
804.484257	-0.007744
804.675734	-0.007603
804.867192	-0.007778
805.058632	-0.007690
805.250054	-0.007658
805.441458	-0.007730
805.632844	-0.007675
805.824211	-0.007650
806.015561	-0.008090
806.206891	-0.007911
806.398204	-0.007952
806.589499	-0.007849
806.780775	-0.007792
806.972033	-0.007674
807.163273	-0.007744
807.354495	-0.007822
807.545698	-0.007773
807.736883	-0.007339
807.928050	-0.007334
808.119199	-0.007249
808.310329	-0.007169
808.501441	-0.007247
808.692535	-0.007379
808.883611	-0.007466
809.074669	-0.007419
809.265708	-0.007518
809.456729	-0.007506
809.647732	-0.007600
809.838717	-0.007719
810.029683	-0.007812
810.220632	-0.007799
810.411562	-0.007798
810.602474	-0.007593
810.793367	-0.007502
810.984242	-0.007361
811.175100	-0.007410
811.365938	-0.007265
811.556759	-0.007335
811.747562	-0.007443
811.938346	-0.007568
812.129112	-0.007469
812.319860	-0.007495
812.510589	-0.007679
812.701300	-0.007819
812.891994	-0.007877
813.082668	-0.007914
813.273325	-0.007873
813.463964	-0.007900
813.654584	-0.007801
813.845186	-0.007984
814.035769	-0.007961
814.226335	-0.007914
814.416882	-0.007958
814.607411	-0.007921
814.797922	-0.007940
814.988415	-0.007882
815.178889	-0.007764
815.369345	-0.007865
815.559783	-0.007671
815.750203	-0.007703
815.940605	-0.007718
816.130988	-0.007679
816.321353	-0.007707
816.511700	-0.007921
816.702028	-0.007901
816.892339	-0.007890
817.082631	-0.007943
817.272905	-0.008108
817.463161	-0.008218
817.653398	-0.008273
817.843617	-0.008348
818.033819	-0.008361
818.224001	-0.008225
818.414166	-0.008351
818.604312	-0.008463
818.794440	-0.008415
818.984550	-0.008330
819.174642	-0.008411
819.364716	-0.008373
819.554771	-0.008394
819.744808	-0.008468
819.934827	-0.008502
820.124827	-0.008508
820.314810	-0.008689
820.504774	-0.008756
820.694720	-0.008784
820.884647	-0.008818
821.074557	-0.008754
821.264448	-0.008738
821.454321	-0.008879
821.644176	-0.008822
821.834012	-0.008945
822.023831	-0.008776
822.213631	-0.008867
822.403413	-0.008858
822.593176	-0.008879
822.782922	-0.008879
822.972649	-0.008870
823.162358	-0.008919
823.352049	-0.009075
823.541721	-0.008810
823.731376	-0.008882
823.921012	-0.008764
824.110629	-0.008924
824.300229	-0.008779
824.489811	-0.008700
824.679374	-0.008830
824.868919	-0.008810
825.058445	-0.008729
825.247954	-0.008848
825.437444	-0.008801
825.626916	-0.008784
825.816370	-0.008719
826.005806	-0.008911
826.195223	-0.008936
826.384622	-0.008707
826.574003	-0.008733
826.763366	-0.008949
826.952711	-0.009120
827.142037	-0.009304
827.331345	-0.009414
827.520635	-0.009518
827.709906	-0.009724
827.899160	-0.010073
828.088395	-0.010372
828.277612	-0.010407
828.466810	-0.010364
828.655991	-0.010042
828.845153	-0.009871
829.034297	-0.009879
829.223423	-0.009921
829.412531	-0.009727
829.601620	-0.009822
829.790691	-0.009626
829.979744	-0.009605
830.168779	-0.009684
830.357795	-0.009972
830.546793	-0.009945
830.735773	-0.009893
830.924735	-0.009801
831.113679	-0.009906
831.302604	-0.009611
831.491511	-0.009644
831.680400	-0.009605
831.869271	-0.009338
832.058123	-0.009290
832.246957	-0.009408
832.435773	-0.009498
832.624571	-0.009765
832.813351	-0.009625
833.002112	-0.009658
833.190855	-0.009847
833.379580	-0.009769
833.568287	-0.009856
833.756975	-0.009791
833.945645	-0.009745
834.134297	-0.009602
834.322931	-0.009632
834.511547	-0.009787
834.700144	-0.009881
834.888723	-0.009796
835.077284	-0.009888
835.265826	-0.009983
835.454351	-0.010312
835.642857	-0.010318
835.831345	-0.010438
836.019815	-0.010091
836.208266	-0.010061
836.396699	-0.009978
836.585114	-0.010078
836.773511	-0.010200
836.961890	-0.010423
837.150250	-0.010271
837.338592	-0.010301
837.526916	-0.010343
837.715222	-0.010543
837.903510	-0.010510
838.091779	-0.010592
838.280030	-0.010459
838.468263	-0.010315
838.656477	-0.010088
838.844674	-0.010234
839.032852	-0.010274
839.221012	-0.010511
839.409153	-0.010488
839.597277	-0.010464
839.785382	-0.010594
839.973469	-0.010690
840.161538	-0.010704
840.349589	-0.010669
840.537621	-0.010474
840.725635	-0.010453
840.913631	-0.010235
841.101609	-0.010372
841.289568	-0.010416
841.477509	-0.010305
841.665432	-0.010159
841.853337	-0.010365
842.041224	-0.010356
842.229092	-0.010393
842.416942	-0.010418
842.604774	-0.010339
842.792588	-0.010093
842.980383	-0.010185
843.168160	-0.010219
843.355919	-0.010198
843.543660	-0.010050
843.731382	-0.010156
843.919087	-0.009967
844.106773	-0.009871
844.294441	-0.009864
844.482090	-0.009928
844.669722	-0.009703
844.857335	-0.009479
845.044930	-0.009762
845.232507	-0.009768
845.420065	-0.009671
845.607605	-0.009833
845.795127	-0.010021
845.982631	-0.009937
846.170117	-0.009878
846.357584	-0.010039
846.545033	-0.010183
846.732464	-0.010198
846.919877	-0.010047
847.107272	-0.009993
847.294648	-0.010121
847.482006	-0.010001
847.669346	-0.010135
847.856667	-0.010185
848.043971	-0.010381
848.231256	-0.010593
848.418523	-0.010640
848.605771	-0.010686
848.793002	-0.010899
848.980214	-0.010879
849.167408	-0.011009
849.354584	-0.011075
849.541742	-0.011283
849.728881	-0.011164
849.916002	-0.010927
850.103105	-0.010847
850.290190	-0.010694
850.477256	-0.010593
850.664304	-0.010522
850.851334	-0.010492
851.038346	-0.010621
851.225340	-0.010639
851.412315	-0.010354
851.599272	-0.010357
851.786211	-0.010322
851.973132	-0.010497
852.160034	-0.010357
852.346918	-0.010434
852.533784	-0.010365
852.720632	-0.010024
852.907462	-0.009887
853.094273	-0.009994
853.281066	-0.009940
853.467841	-0.009746
853.654598	-0.009929
853.841336	-0.010048
854.028056	-0.010059
854.214758	-0.010049
854.401442	-0.010226
854.588107	-0.010231
854.774755	-0.010168
854.961384	-0.010184
855.147995	-0.010114
855.334587	-0.009931
855.521162	-0.009961
855.707718	-0.009740
855.894256	-0.009744
856.080775	-0.009800
856.267277	-0.009774
856.453760	-0.009826
856.640225	-0.009920
856.826672	-0.010112
857.013101	-0.010320
857.199511	-0.010112
857.385903	-0.010182
857.572277	-0.010216
857.758633	-0.009988
857.944970	-0.009798
858.131290	-0.009823
858.317591	-0.009739
858.503873	-0.009790
858.690138	-0.009662
858.876384	-0.009808
859.062612	-0.009718
859.248822	-0.009623
859.435014	-0.009604
859.621188	-0.009605
859.807343	-0.009504
859.993480	-0.009618
860.179599	-0.009553
860.365699	-0.009209
860.551781	-0.009082
860.737846	-0.009195
860.923891	-0.009155
861.109919	-0.008951
861.295929	-0.008928
861.481920	-0.008901
861.667893	-0.008710
861.853848	-0.008690
862.039784	-0.008883
862.225702	-0.008965
862.411603	-0.008872
862.597484	-0.008836
862.783348	-0.008950
862.969193	-0.009009
863.155021	-0.008989
863.340830	-0.009046
863.526620	-0.008935
863.712393	-0.008793
863.898147	-0.008666
864.083883	-0.008589
864.269601	-0.008590
864.455301	-0.008500
864.640982	-0.008325
864.826645	-0.008124
865.012290	-0.008190
865.197917	-0.008264
865.383526	-0.008365
865.569116	-0.008489
865.754688	-0.008454
865.940242	-0.008381
866.125777	-0.008514
866.311295	-0.008538
866.496794	-0.008675
866.682275	-0.008403
866.867737	-0.008191
867.053182	-0.008239
867.238608	-0.007947
867.424016	-0.007980
867.609406	-0.007989
867.794778	-0.008001
867.980131	-0.008250
868.165466	-0.008321
868.350783	-0.008337
868.536082	-0.008565
868.721362	-0.008599
868.906625	-0.008667
869.091869	-0.008551
869.277094	-0.008596
869.462302	-0.008645
869.647491	-0.008524
869.832662	-0.008302
870.017815	-0.008265
870.202950	-0.008153
870.388066	-0.008175
870.573165	-0.008182
870.758245	-0.008506
870.943306	-0.008342
871.128350	-0.008324
871.313375	-0.008311
871.498382	-0.008126
871.683371	-0.008368
871.868342	-0.008112
872.053294	-0.007822
872.238229	-0.007583
872.423144	-0.007238
872.608042	-0.007211
872.792922	-0.007151
872.977783	-0.007042
873.162626	-0.007332
873.347451	-0.007113
873.532258	-0.007258
873.717046	-0.007265
873.901816	-0.007599
874.086568	-0.007847
874.271302	-0.007842
874.456017	-0.007865
874.640715	-0.008047
874.825394	-0.007985
875.010055	-0.008339
875.194697	-0.008280
875.379322	-0.008365
875.563928	-0.008107
875.748516	-0.007851
875.933085	-0.007654
876.117637	-0.007589
876.302170	-0.007321
876.486685	-0.007438
876.671182	-0.007189
876.855661	-0.007014
877.040121	-0.006780
877.224563	-0.007053
877.408987	-0.007326
877.593393	-0.007344
877.777780	-0.007146
877.962150	-0.007206
878.146501	-0.007054
878.330833	-0.007067
878.515148	-0.007050
878.699444	-0.007282
878.883722	-0.006965
879.067982	-0.006776
879.252224	-0.006809
879.436447	-0.007149
879.620653	-0.007179
879.804840	-0.007157
879.989008	-0.007045
880.173159	-0.007032
880.357291	-0.007008
880.541405	-0.007080
880.725501	-0.006854
880.909579	-0.006884
881.093638	-0.006574
881.277680	-0.006520
881.461703	-0.006772
881.645707	-0.006568
881.829694	-0.006779
882.013662	-0.006644
882.197612	-0.006616
882.381544	-0.006754
882.565458	-0.006997
882.749353	-0.006967
882.933230	-0.007001
883.117089	-0.006511
883.300930	-0.006714
883.484753	-0.006415
883.668557	-0.006348
883.852343	-0.006510
884.036111	-0.006735
884.219861	-0.006724
884.403592	-0.006895
884.587305	-0.006960
884.771000	-0.007301
884.954677	-0.007292
885.138335	-0.007661
885.321976	-0.007615
885.505598	-0.007700
885.689201	-0.007623
885.872787	-0.007376
886.056354	-0.007357
886.239904	-0.007054
886.423434	-0.006937
886.606947	-0.006794
886.790442	-0.006574
886.973918	-0.006994
887.157376	-0.006904
887.340816	-0.006736
887.524237	-0.007014
887.707641	-0.006904
887.891026	-0.006926
888.074393	-0.006829
888.257741	-0.006907
888.441072	-0.007123
888.624384	-0.006582
888.807678	-0.006493
888.990954	-0.006340
889.174211	-0.006203
889.357451	-0.006251
889.540672	-0.006419
889.723875	-0.006337
889.907059	-0.006147
890.090226	-0.005836
890.273374	-0.005819
890.456504	-0.005992
890.639616	-0.005995
890.822709	-0.005962
891.005785	-0.005827
891.188842	-0.005781
891.371881	-0.006300
891.554901	-0.006508
891.737904	-0.006328
891.920888	-0.006666
892.103854	-0.006369
892.286802	-0.006408
892.469731	-0.006236
892.652643	-0.006202
892.835536	-0.006243
893.018410	-0.005464
893.201267	-0.005418
893.384106	-0.005866
893.566926	-0.005779
893.749728	-0.005650
893.932511	-0.005783
894.115277	-0.005835
894.298024	-0.005996
894.480753	-0.005840
894.663464	-0.006386
894.846157	-0.006402
895.028831	-0.006363
895.211487	-0.006335
895.394125	-0.006489
895.576745	-0.006246
895.759346	-0.006316
895.941930	-0.006527
896.124495	-0.006780
896.307041	-0.006478
896.489570	-0.006356
896.672080	-0.006327
896.854573	-0.006549
897.037046	-0.006723
897.219502	-0.006770
897.401940	-0.006909
897.584359	-0.006393
897.766760	-0.006063
897.949143	-0.005974
898.131507	-0.006272
898.313854	-0.005953
898.496182	-0.005562
898.678492	-0.005426
898.860783	-0.005489
899.043057	-0.005222
899.225312	-0.005771
899.407549	-0.005942
899.589768	-0.006179
899.771968	-0.006127
899.954151	-0.006538
900.136315	-0.006827
900.318461	-0.006861
900.500588	-0.006890
900.682698	-0.007117
900.864789	-0.006866
901.046862	-0.007280
901.228917	-0.007808
901.410953	-0.007439
901.592971	-0.007359
901.774972	-0.007572
901.956953	-0.007465
902.138917	-0.007484
902.320862	-0.007419
902.502790	-0.007342
902.684699	-0.007036
902.866589	-0.006529
903.048462	-0.006680
903.230316	-0.006642
903.412152	-0.006590
903.593970	-0.006868
903.775770	-0.006829
903.957551	-0.007022
904.139314	-0.007182
904.321059	-0.007423
904.502786	-0.007663
904.684494	-0.007893
904.866185	-0.008054
905.047857	-0.007973
905.229510	-0.007874
905.411146	-0.008072
905.592763	-0.008019
905.774363	-0.008118
905.955943	-0.007914
906.137506	-0.007962
906.319051	-0.007723
906.500577	-0.007620
906.682085	-0.007808
906.863575	-0.007752
907.045046	-0.007534
907.226500	-0.007469
907.407935	-0.006982
907.589352	-0.006927
907.770750	-0.006528
907.952131	-0.006457
908.133493	-0.006250
908.314837	-0.005930
908.496163	-0.006028
908.677470	-0.006098
908.858760	-0.005892
909.040031	-0.006476
909.221284	-0.006246
909.402518	-0.006309
909.583735	-0.006601
909.764933	-0.006680
909.946113	-0.006511
910.127275	-0.006285
910.308418	-0.006646
910.489544	-0.006797
910.670651	-0.006804
910.851740	-0.006992
911.032810	-0.007294
911.213863	-0.007364
911.394897	-0.007288
911.575913	-0.007460
911.756911	-0.007707
911.937890	-0.007647
912.118851	-0.007490
912.299794	-0.007073
912.480719	-0.007197
912.661626	-0.006961
912.842514	-0.007058
913.023384	-0.007429
913.204236	-0.007558
913.385070	-0.007345
913.565886	-0.007307
913.746683	-0.007886
913.927462	-0.008273
914.108223	-0.008357
914.288965	-0.008540
914.469690	-0.008580
914.650396	-0.008907
914.831084	-0.008842
915.011754	-0.009237
915.192405	-0.008920
915.373038	-0.008757
915.553653	-0.008644
915.734250	-0.008740
915.914829	-0.008694
916.095389	-0.008740
916.275931	-0.008384
916.456455	-0.008660
916.636961	-0.008115
916.817448	-0.008174
916.997917	-0.008439
917.178368	-0.008206
917.358801	-0.008082
917.539216	-0.008082
917.719612	-0.007720
917.899990	-0.007755
918.080350	-0.007586
918.260692	-0.007978
918.441015	-0.008377
918.621320	-0.008161
918.801607	-0.008736
918.981876	-0.009126
919.162127	-0.009506
919.342359	-0.009724
919.522573	-0.009580
919.702769	-0.010140
919.882947	-0.010477
920.063106	-0.010362
920.243247	-0.010353
920.423370	-0.010353
920.603475	-0.010160
920.783562	-0.010098
920.963630	-0.010430
921.143680	-0.010679
921.323712	-0.010295
921.503725	-0.010295
921.683721	-0.010127
921.863698	-0.010271
922.043657	-0.010726
922.223598	-0.010707
922.403520	-0.010834
922.583424	-0.010446
922.763311	-0.010393
922.943178	-0.010210
923.123028	-0.010495
923.302859	-0.011141
923.482673	-0.011180
923.662467	-0.010840
923.842244	-0.011024
924.022003	-0.010916
924.201743	-0.011533
924.381465	-0.011813
924.561169	-0.011981
924.740854	-0.011778
924.920522	-0.011228
925.100171	-0.011426
925.279802	-0.011058
925.459414	-0.011279
925.639009	-0.011506
925.818585	-0.011066
925.998143	-0.011599
926.177683	-0.011762
926.357205	-0.012033
926.536708	-0.012242
926.716193	-0.012267
926.895660	-0.012852
927.075109	-0.012448
927.254539	-0.012559
927.433951	-0.013063
927.613345	-0.012872
927.792721	-0.013061
927.972079	-0.012755
928.151418	-0.013179
928.330739	-0.013141
928.510042	-0.013029
928.689327	-0.013399
928.868593	-0.013096
929.047841	-0.013105
929.227071	-0.013264
929.406283	-0.012979
929.585476	-0.013414
929.764652	-0.013630
929.943809	-0.013505
930.122948	-0.013649
930.302068	-0.013958
930.481171	-0.014604
930.660255	-0.014669
930.839321	-0.014586
931.018369	-0.015250
931.197398	-0.015353
931.376409	-0.015151
931.555402	-0.015804
931.734377	-0.015862
931.913334	-0.015788
932.092272	-0.015536
932.271192	-0.015575
932.450094	-0.014967
932.628978	-0.015288
932.807844	-0.015267
932.986691	-0.014877
933.165520	-0.014809
933.344331	-0.015260
933.523123	-0.015341
933.701898	-0.015666
933.880654	-0.015942
934.059392	-0.016911
934.238111	-0.015963
934.416813	-0.016482
934.595496	-0.017150
934.774161	-0.016776
934.952808	-0.016206
935.131437	-0.016458
935.310047	-0.016772
935.488639	-0.017000
935.667213	-0.016638
935.845769	-0.016829
936.024306	-0.016951
936.202825	-0.016934
936.381326	-0.017511
936.559809	-0.017714
936.738274	-0.017873
936.916720	-0.017290
937.095148	-0.017083
937.273558	-0.016687
937.451950	-0.017281
937.630323	-0.016312
937.808678	-0.016647
937.987015	-0.016700
938.165334	-0.016975
938.343635	-0.016758
938.521917	-0.017357
938.700181	-0.017629
938.878427	-0.018323
939.056655	-0.018365
939.234864	-0.019020
939.413055	-0.018656
939.591228	-0.018659
939.769383	-0.018762
939.947519	-0.019170
940.125638	-0.019171
940.303738	-0.018765
940.481820	-0.018281
940.659883	-0.018915
940.837929	-0.018806
941.015956	-0.019226
941.193965	-0.019780
941.371955	-0.019620
941.549928	-0.019024
941.727882	-0.018792
941.905818	-0.019277
942.083736	-0.019611
942.261636	-0.019347
942.439517	-0.019114
942.617380	-0.019588
942.795225	-0.018805
942.973052	-0.019114
943.150860	-0.020046
943.328651	-0.021092
943.506423	-0.020517
943.684176	-0.020674
943.861912	-0.020483
944.039629	-0.021185
944.217328	-0.020620
944.395009	-0.020818
944.572672	-0.020900
944.750317	-0.020357
944.927943	-0.019333
945.105551	-0.019394
945.283141	-0.019361
945.460712	-0.020063
945.638265	-0.019850
945.815801	-0.019408
945.993317	-0.019278
946.170816	-0.019260
946.348297	-0.019131
946.525759	-0.019646
946.703203	-0.020323
946.880629	-0.020495
947.058036	-0.020058
947.235425	-0.020658
947.412797	-0.021675
947.590149	-0.021355
947.767484	-0.021235
947.944800	-0.020931
948.122099	-0.019642
948.299379	-0.019392
948.476640	-0.019570
948.653884	-0.018910
948.831109	-0.019200
949.008316	-0.018025
949.185505	-0.017905
949.362676	-0.016810
949.539828	-0.016948
949.716962	-0.017248
949.894078	-0.016961
950.071176	-0.017722
950.248256	-0.018461
950.425317	-0.016902
950.602360	-0.017257
950.779385	-0.018285
950.956391	-0.018421
951.133380	-0.017727
951.310350	-0.018347
951.487302	-0.018290
951.664235	-0.016950
951.841151	-0.016611
952.018048	-0.017198
952.194927	-0.017082
952.371788	-0.016841
952.548631	-0.017651
952.725455	-0.018455
952.902261	-0.017698
953.079049	-0.017039
953.255819	-0.016007
953.432570	-0.016364
953.609303	-0.014630
953.786018	-0.014412
953.962715	-0.012763
954.139394	-0.011604
954.316054	-0.011918
954.492696	-0.011216
954.669320	-0.010654
954.845926	-0.010824
955.022513	-0.009072
955.199083	-0.008948
955.375634	-0.007668
955.552166	-0.008221
955.728681	-0.009768
955.905177	-0.009420
956.081655	-0.009310
956.258115	-0.009033
956.434557	-0.010166
956.610980	-0.011425
956.787385	-0.010814
956.963772	-0.011169
957.140141	-0.010080
957.316492	-0.008860
957.492824	-0.007005
957.669138	-0.007586
957.845434	-0.007258
958.021712	-0.006236
958.197971	-0.003997
958.374212	-0.003348
958.550435	-0.002688
958.726640	-0.004071
958.902826	-0.003416
959.078995	-0.004267
959.255145	-0.004441
959.431277	-0.005271
959.607390	-0.006443
959.783486	-0.007392
959.959563	-0.008670
960.135622	-0.010181
960.311662	-0.009313
960.487685	-0.010556
960.663689	-0.008557
960.839675	-0.007057
961.015643	-0.008062
961.191593	-0.007648
961.367524	-0.006449
961.543437	-0.007187
961.719332	-0.005370
961.895209	-0.004988
962.071067	-0.003656
962.246907	-0.006052
962.422730	-0.007058
962.598533	-0.004603
962.774319	-0.002814
962.950086	-0.003524
963.125835	-0.002067
963.301566	-0.003286
963.477279	-0.003390
963.652973	-0.003139
963.828650	-0.000933
964.004308	0.000870
964.179947	-0.000357
964.355569	0.000343
964.531172	-0.000096
964.706757	-0.000035
964.882324	0.000852
965.057873	0.001308
965.233403	0.001578
965.408916	0.001702
965.584410	0.000828
965.759885	0.002555
965.935343	0.002530
966.110782	0.004138
966.286203	0.003887
966.461606	0.004752
966.636991	0.004945
966.812357	0.005998
966.987705	0.005489
967.163035	0.006830
967.338347	0.005082
967.513641	0.003770
967.688916	0.002876
967.864173	0.001913
968.039412	0.000653
968.214632	0.001142
968.389835	0.002022
968.565019	0.003288
968.740185	0.001805
968.915333	0.002990
969.090462	0.002715
969.265573	0.001446
969.440667	0.003447
969.615741	0.004588
969.790798	0.004407
969.965836	0.003686
970.140856	0.004311
970.315858	0.004875
970.490842	0.002835
970.665808	0.005347
970.840755	0.009102
971.015684	0.009199
971.190595	0.008453
971.365487	0.008506
971.540362	0.008154
971.715218	0.007241
971.890056	0.005993
972.064875	0.010122
972.239677	0.010740
972.414460	0.008414
972.589225	0.008481
972.763972	0.010137
972.938700	0.011096
973.113411	0.010223
973.288103	0.009983
973.462777	0.012188
973.637432	0.009994
973.812070	0.009992
973.986689	0.010091
974.161290	0.010165
974.335873	0.008957
974.510437	0.007700
974.684984	0.007507
974.859512	0.007614
975.034022	0.006775
975.208513	0.005079
975.382987	0.004146
975.557442	0.004027
975.731879	0.003783
975.906298	0.005180
976.080698	0.003967
976.255080	0.006070
976.429445	0.006282
976.603790	0.006652
976.778118	0.008505
976.952427	0.006413
977.126719	0.005241
977.300992	0.004759
977.475246	0.002676
977.649483	0.004800
977.823701	0.002671
977.997901	0.003276
978.172083	0.004311
978.346247	0.003882
978.520392	0.004051
978.694519	0.005337
978.868628	0.005240
979.042719	0.004268
979.216791	0.004635
979.390845	0.006414
979.564882	0.005273
979.738899	0.003258
979.912899	0.003671
980.086880	0.005206
980.260843	0.006281
980.434788	0.005587
980.608715	0.007555
980.782623	0.008042
980.956514	0.005759
981.130386	0.006750
981.304240	0.008953
981.478075	0.009826
981.651892	0.007111
981.825692	0.005213
981.999472	0.006524
982.173235	0.005576
982.346980	0.003102
982.520706	0.003858
982.694414	0.003174
982.868104	0.002648
983.041775	0.002430
983.215428	0.006966
983.389064	0.009848
983.562680	0.009898
983.736279	0.009221
983.909860	0.010459
984.083422	0.010694
984.256966	0.010249
984.430491	0.009088
984.603999	0.010220
984.777488	0.007766
984.950959	0.006318
985.124412	0.006882
985.297847	0.009104
985.471263	0.008712
985.644661	0.008956
985.818041	0.008914
985.991403	0.009706
986.164747	0.009581
986.338072	0.010303
986.511379	0.010767
986.684668	0.008678
986.857938	0.007938
987.031191	0.009756
987.204425	0.009631
987.377641	0.011477
987.550839	0.009742
987.724018	0.008414
987.897179	0.005929
988.070322	0.004826
988.243447	0.005773
988.416554	0.005945
988.589642	0.004211
988.762712	0.005431
988.935764	0.005892
989.108798	0.007654
989.281813	0.008574
989.454811	0.008778
989.627790	0.008772
989.800751	0.008258
989.973693	0.006200
990.146617	0.006621
990.319524	0.006450
990.492412	0.004102
990.665281	0.004158
990.838133	0.002459
991.010966	0.004263
991.183781	0.005101
991.356578	0.004808
991.529356	0.006448
991.702117	0.005334
991.874859	0.003771
992.047583	0.004467
992.220288	0.005310
992.392976	0.007323
992.565645	0.005917
992.738296	0.006513
992.910929	0.008124
993.083543	0.008256
993.256139	0.010396
993.428718	0.010642
993.601277	0.009673
993.773819	0.008497
993.946342	0.006860
994.118848	0.007751
994.291335	0.005647
994.463803	0.005190
994.636254	0.004589
994.808686	0.003152
994.981100	0.004182
995.153496	0.006689
995.325874	0.006733
995.498233	0.006228
995.670574	0.006487
995.842897	0.006949
996.015202	0.007232
996.187488	0.008393
996.359757	0.007750
996.532007	0.004964
996.704239	0.003161
996.876452	0.002228
997.048648	0.003193
997.220825	0.003617
997.392984	0.004404
997.565124	0.003734
997.737247	0.002363
997.909351	0.001383
998.081437	0.005180
998.253505	0.003404
998.425554	0.004040
998.597586	0.003326
998.769599	0.004271
998.941594	0.004579
999.113571	0.005501
999.285529	0.005920
999.457469	0.007568
999.629391	0.005320
999.801295	0.006150
999.973181	0.006227
1000.145048	0.007042
1000.316897	0.005853
1000.488728	0.005013
1000.660541	0.004642
1000.832335	0.003850
1001.004111	0.004643
1001.175869	0.004981
1001.347609	0.006656
1001.519331	0.007261
1001.691034	0.007063
1001.862719	0.007127
1002.034386	0.006587
1002.206035	0.006127
1002.377665	0.005594
1002.549277	0.005450
1002.720871	0.005753
1002.892447	0.005148
1003.064004	0.005566
1003.235544	0.005604
1003.407065	0.006097
1003.578568	0.006633
1003.750052	0.006020
1003.921519	0.006664
1004.092967	0.005200
1004.264397	0.003993
1004.435809	0.002736
1004.607202	0.001969
1004.778577	0.002411
1004.949934	0.001907
1005.121273	0.000698
1005.292594	0.000172
1005.463896	0.001055
1005.635180	0.001528
1005.806446	0.003547
1005.977694	0.004020
1006.148923	0.003792
1006.320135	0.002511
1006.491328	0.002481
1006.662503	0.003425
1006.833659	0.005067
1007.004798	0.005162
1007.175918	0.005338
1007.347020	0.004595
1007.518103	0.005761
1007.689169	0.004828
1007.860216	0.005313
1008.031245	0.004845
1008.202256	0.005126
1008.373248	0.004499
1008.544223	0.005425
1008.715179	0.004472
1008.886117	0.004438
1009.057036	0.003403
1009.227938	0.004950
1009.398821	0.003827
1009.569686	0.004580
1009.740533	0.004767
1009.911361	0.004210
1010.082172	0.002560
1010.252964	0.003182
1010.423738	0.002023
1010.594493	0.001583
1010.765231	0.000430
1010.935950	0.000981
1011.106651	-0.000454
1011.277334	0.000230
1011.447998	0.000561
1011.618645	0.002800
1011.789273	0.003454
1011.959882	0.004943
1012.130474	0.005795
1012.301048	0.005987
1012.471603	0.005804
1012.642140	0.006481
1012.812658	0.005970
1012.983159	0.006270
1013.153641	0.004767
1013.324105	0.003731
1013.494551	0.003700
1013.664979	0.003681
1013.835388	0.003489
1014.005779	0.002711
1014.176152	0.003398
1014.346507	0.002699
1014.516843	0.002316
1014.687162	0.001657
1014.857462	0.002463
1015.027744	0.001370
1015.198007	0.001473
1015.368252	0.002179
1015.538480	0.003662
1015.708689	0.003020
1015.878879	0.003275
1016.049052	0.004106
1016.219206	0.004216
1016.389342	0.002789
1016.559460	0.001634
1016.729559	0.002154
1016.899641	-0.000798
1017.069704	0.000294
1017.239749	0.000677
1017.409775	0.000870
1017.579784	0.000714
1017.749774	0.000054
1017.919746	0.001853
1018.089700	0.003651
1018.259635	0.002748
1018.429553	0.004515
1018.599452	0.004858
1018.769333	0.003464
1018.939195	0.004221
1019.109040	0.002497
1019.278866	0.003034
1019.448674	0.002693
1019.618464	0.002649
1019.788235	0.002557
1019.957989	0.003389
1020.127724	0.002045
1020.297441	0.001556
1020.467139	-0.000160
1020.636820	0.001489
1020.806482	0.002146
1020.976126	0.001748
1021.145752	0.001507
1021.315359	0.003557
1021.484948	0.003859
1021.654519	0.003383
1021.824072	0.004943
1021.993607	0.005752
1022.163123	0.005376
1022.332621	0.004114
1022.502101	0.004086
1022.671563	0.003928
1022.841007	0.002150
1023.010432	0.001172
1023.179839	0.001887
1023.349228	0.001119
1023.518598	0.000230
1023.687951	-0.000210
1023.857285	0.001403
1024.026601	0.001363
1024.195899	0.002023
1024.365178	0.002500
1024.534439	0.002754
1024.703682	0.002378
1024.872907	0.003138
1025.042114	0.004607
1025.211302	0.005398
1025.380472	0.004801
1025.549624	0.004494
1025.718758	0.005028
1025.887873	0.005577
1026.056970	0.005895
1026.226049	0.007009
1026.395110	0.005477
1026.564153	0.004245
1026.733177	0.003366
1026.902183	0.003593
1027.071171	0.003485
1027.240141	0.002699
1027.409092	0.001988
1027.578026	0.002205
1027.746940	0.001535
1027.915837	0.002588
1028.084716	0.002062
1028.253576	0.002904
1028.422418	0.001068
1028.591242	0.001483
1028.760048	0.002241
1028.928835	0.002743
1029.097604	0.001976
1029.266355	0.000316
1029.435088	-0.000199
1029.603803	0.000867
1029.772499	0.000173
1029.941177	0.001663
1030.109837	0.003615
1030.278478	0.002366
1030.447102	0.002153
1030.615707	0.002390
1030.784294	0.003502
1030.952863	0.004584
1031.121413	0.004936
1031.289945	0.005526
1031.458460	0.006306
1031.626955	0.003418
1031.795433	0.001904
1031.963892	0.001087
1032.132334	0.001541
1032.300756	0.000938
1032.469161	0.000560
1032.637548	-0.000951
1032.805916	-0.001471
1032.974266	-0.001881
1033.142598	-0.001130
1033.310911	-0.000295
1033.479207	0.000554
1033.647484	0.001394
1033.815743	0.002867
1033.983983	0.002606
1034.152206	0.003557
1034.320410	0.004254
1034.488596	0.004205
1034.656764	0.005642
1034.824914	0.006357
1034.993045	0.004720
1035.161158	0.003529
1035.329253	0.003074
1035.497330	0.001654
1035.665388	0.002292
1035.833428	0.001672
1036.001450	0.000168
1036.169454	-0.002077
1036.337440	-0.001829
1036.505407	-0.000449
1036.673356	-0.000016
1036.841287	-0.001669
1037.009200	-0.000474
1037.177094	-0.000881
1037.344970	-0.001035
1037.512828	-0.000593
1037.680668	-0.000794
1037.848489	-0.002413
1038.016293	-0.001306
1038.184078	-0.001837
1038.351845	-0.002069
1038.519593	-0.002201
1038.687324	-0.003214
1038.855036	-0.003695
1039.022730	-0.003570
1039.190406	-0.002004
1039.358063	-0.001463
1039.525702	-0.003353
1039.693323	-0.003849
1039.860926	-0.002356
1040.028511	-0.001157
1040.196077	-0.000788
1040.363625	0.000073
1040.531155	0.000918
1040.698667	-0.000176
1040.866161	0.001763
1041.033636	0.002149
1041.201093	0.002733
1041.368532	0.003639
1041.535952	0.002599
1041.703355	0.003679
1041.870739	0.002505
1042.038105	0.001988
1042.205452	0.003627
1042.372782	0.003763
1042.540093	0.003585
1042.707386	0.002894
1042.874661	0.001128
1043.041918	0.001772
1043.209156	0.001207
1043.376376	0.002981
1043.543578	0.002504
1043.710762	0.001535
1043.877927	0.000640
1044.045074	-0.000519
1044.212203	0.000835
1044.379314	0.001717
1044.546407	0.002262
1044.713481	0.001672
1044.880537	0.000913
1045.047575	0.001477
1045.214595	0.001614
1045.381596	0.000366
1045.548579	0.002233
1045.715544	0.001768
1045.882491	0.001699
1046.049420	-0.000438
1046.216330	-0.000670
1046.383222	-0.000263
1046.550096	0.000196
1046.716951	0.000739
1046.883789	0.000840
1047.050608	-0.000901
1047.217409	-0.001435
1047.384192	-0.000737
1047.550956	0.000957
1047.717703	0.002119
1047.884431	0.002958
1048.051140	0.001710
1048.217832	-0.000008
1048.384505	0.000799
1048.551161	0.000862
1048.717798	0.000979
1048.884416	-0.000674
1049.051017	-0.002812
1049.217599	-0.002769
1049.384163	-0.003264
1049.550709	-0.002022
1049.717237	-0.000952
1049.883746	0.000529
1050.050237	0.003660
1050.216710	0.002618
1050.383165	0.003160
1050.549601	0.006157
1050.716019	0.005905
1050.882420	0.004591
1051.048801	0.003921
1051.215165	0.004299
1051.381510	0.001432
1051.547837	-0.001607
1051.714146	-0.000913
1051.880437	-0.001650
1052.046709	-0.003866
1052.212964	-0.004605
1052.379200	-0.004511
1052.545417	-0.003837
1052.711617	-0.004181
1052.877798	-0.002823
1053.043961	-0.000351
1053.210106	0.000131
1053.376233	0.000588
1053.542341	0.001055
1053.708432	0.001393
1053.874504	0.000716
1054.040557	-0.001299
1054.206593	-0.001911
1054.372610	-0.001906
1054.538609	-0.003900
1054.704590	-0.005296
1054.870553	-0.004467
1055.036497	-0.002509
1055.202424	-0.003500
1055.368331	-0.001921
1055.534221	-0.001615
1055.700093	-0.001707
1055.865946	-0.001688
1056.031781	-0.003454
1056.197598	-0.002195
1056.363397	-0.003097
1056.529177	-0.005517
1056.694939	-0.004101
1056.860683	-0.004357
1057.026409	-0.002922
1057.192116	-0.003661
1057.357806	-0.002956
1057.523477	-0.000822
1057.689130	-0.000588
1057.854764	0.000518
1058.020381	0.000024
1058.185979	-0.000006
1058.351559	-0.001356
1058.517120	-0.002221
1058.682664	-0.001112
1058.848189	-0.002900
1059.013696	-0.003177
1059.179185	-0.004208
1059.344656	-0.005884
1059.510108	-0.004369
1059.675542	-0.004126
1059.840958	-0.002679
1060.006356	-0.003446
1060.171735	-0.003697
1060.337096	-0.001894
1060.502439	-0.001329
1060.667764	-0.000542
1060.833071	-0.000523
1060.998359	-0.001120
1061.163629	-0.001852
1061.328881	-0.001060
1061.494115	-0.001069
1061.659330	-0.001556
1061.824527	-0.002658
1061.989706	-0.003719
1062.154867	-0.005028
1062.320010	-0.004002
1062.485134	-0.003434
1062.650240	-0.003909
1062.815328	-0.007245
1062.980398	-0.006712
1063.145449	-0.005285
1063.310482	-0.006013
1063.475497	-0.005486
1063.640494	-0.003454
1063.805473	-0.003028
1063.970433	-0.003895
1064.135375	-0.003174
1064.300299	-0.001166
1064.465204	-0.001029
1064.630092	-0.002803
1064.794961	-0.002517
1064.959812	-0.002086
1065.124645	-0.002372
1065.289459	-0.004294
1065.454256	-0.004314
1065.619034	-0.005512
1065.783793	-0.005555
1065.948535	-0.003725
1066.113258	-0.002976
1066.277964	-0.002019
1066.442651	-0.002500
1066.607319	-0.002388
1066.771970	-0.002266
1066.936602	-0.001824
1067.101216	-0.001224
1067.265812	-0.001965
1067.430389	-0.005085
1067.594949	-0.002560
1067.759490	-0.003190
1067.924013	-0.002765
1068.088518	-0.003951
1068.253004	-0.002579
1068.417472	-0.003131
1068.581922	-0.000985
1068.746354	0.001412
1068.910768	0.003704
1069.075163	0.002112
1069.239540	0.002095
1069.403899	0.002743
1069.568240	0.003719
1069.732562	0.004150
1069.896866	0.003805
1070.061152	0.001938
1070.225420	0.000799
1070.389670	-0.000084
1070.553901	-0.000649
1070.718114	-0.000205
1070.882309	-0.002066
1071.046486	-0.003522
1071.210644	-0.002880
1071.374784	-0.002301
1071.538906	-0.000745
1071.703010	-0.002871
1071.867096	-0.004148
1072.031163	-0.004525
1072.195212	-0.006422
1072.359243	-0.006775
1072.523256	-0.006603
1072.687250	-0.007779
1072.851226	-0.007716
1073.015184	-0.007692
1073.179124	-0.006330
1073.343045	-0.002884
1073.506949	-0.003086
1073.670834	0.000894
1073.834701	-0.000429
1073.998549	0.000754
1074.162380	0.000692
1074.326192	0.000990
1074.489986	-0.001562
1074.653761	-0.001691
1074.817519	-0.004212
1074.981258	-0.004585
1075.144979	-0.007571
1075.308682	-0.006284
1075.472367	-0.007834
1075.636033	-0.008691
1075.799681	-0.009279
1075.963311	-0.009792
1076.126923	-0.008918
1076.290516	-0.008112
1076.454092	-0.007289
1076.617649	-0.006736
1076.781187	-0.003382
1076.944708	-0.002409
1077.108210	-0.001455
1077.271695	-0.000092
1077.435160	0.000504
1077.598608	-0.000437
1077.762038	-0.002130
1077.925449	-0.002852
1078.088842	-0.003270
1078.252217	-0.006869
1078.415573	-0.005154
1078.578912	-0.003836
1078.742232	-0.004895
1078.905534	-0.003393
1079.068817	-0.002931
1079.232083	-0.002110
1079.395330	-0.001395
1079.558559	0.000646
1079.721770	0.003020
1079.884962	0.000341
1080.048136	-0.000953
1080.211293	0.000260
1080.374430	-0.001447
1080.537550	-0.002960
1080.700651	-0.003114
1080.863735	-0.003458
1081.026800	-0.007252
1081.189846	-0.008255
1081.352875	-0.008294
1081.515885	-0.009061
1081.678877	-0.009812
1081.841851	-0.008410
1082.004807	-0.009599
1082.167744	-0.006011
1082.330663	-0.005803
1082.493564	-0.002727
1082.656447	-0.003234
1082.819312	-0.001604
1082.982158	-0.002118
1083.144986	-0.002194
1083.307796	-0.001313
1083.470587	0.000640
1083.633361	-0.002512
1083.796116	-0.001084
1083.958853	-0.000580
1084.121571	0.001358
1084.284272	-0.000044
1084.446954	0.001131
1084.609618	0.001715
1084.772264	-0.001163
1084.934892	-0.000067
1085.097501	-0.001580
1085.260092	-0.002402
1085.422665	-0.003087
1085.585220	-0.004601
1085.747756	-0.005357
1085.910274	-0.006568
1086.072774	-0.007896
1086.235256	-0.006632
1086.397720	-0.007087
1086.560165	-0.005436
1086.722592	-0.006420
1086.885001	-0.009075
1087.047392	-0.009387
1087.209764	-0.008048
1087.372119	-0.006554
1087.534455	-0.007055
1087.696772	-0.006825
1087.859072	-0.006180
1088.021353	-0.005873
1088.183616	-0.006123
1088.345861	-0.005066
1088.508088	-0.007813
1088.670296	-0.008211
1088.832486	-0.008490
1088.994658	-0.005934
1089.156812	-0.006455
1089.318948	-0.006884
1089.481065	-0.008915
1089.643164	-0.007299
1089.805245	-0.004994
1089.967308	-0.001932
1090.129352	0.000215
1090.291378	0.000146
1090.453386	-0.002697
1090.615376	-0.001786
1090.777347	-0.002385
1090.939301	-0.000811
1091.101236	-0.002496
1091.263153	-0.004583
1091.425051	-0.004836
1091.586932	-0.006187
1091.748794	-0.005498
1091.910638	-0.002640
1092.072463	-0.004884
1092.234271	-0.006100
1092.396060	-0.006312
1092.557831	-0.005713
1092.719584	-0.005124
1092.881319	-0.003956
1093.043035	-0.006609
1093.204733	-0.005972
1093.366413	-0.008021
1093.528075	-0.003683
1093.689718	-0.001836
1093.851343	-0.000315
1094.012950	-0.000458
1094.174539	0.000354
1094.336110	-0.000557
1094.497662	0.000497
1094.659196	-0.001023
1094.820712	-0.001112
1094.982210	-0.004126
1095.143689	-0.005080
1095.305151	-0.007524
1095.466594	-0.008210
1095.628018	-0.009023
1095.789425	-0.007671
1095.950813	-0.004549
1096.112183	-0.005092
1096.273535	-0.002463
1096.434869	-0.002184
1096.596184	-0.001073
1096.757482	0.000522
1096.918761	0.002211
1097.080021	0.000894
1097.241264	-0.000701
1097.402488	-0.002486
1097.563694	-0.001979
1097.724882	-0.004713
1097.886052	-0.004588
1098.047203	-0.007038
1098.208336	-0.005235
1098.369451	-0.005475
1098.530548	-0.004347
1098.691627	-0.005760
1098.852687	-0.007481
1099.013729	-0.007645
1099.174753	-0.006167
1099.335758	-0.005587
1099.496746	-0.003162
1099.657715	-0.006013
1099.818666	-0.008006
1099.979599	-0.007883
1100.140513	-0.009346
1100.301409	-0.007910
1100.462287	-0.009911
1100.623147	-0.012665
1100.783989	-0.015027
1100.944812	-0.015306
1101.105617	-0.012576
1101.266404	-0.014000
1101.427173	-0.015925
1101.587923	-0.012725
1101.748656	-0.012717
1101.909370	-0.012478
1102.070066	-0.011459
1102.230743	-0.012162
1102.391403	-0.013645
1102.552044	-0.017334
1102.712667	-0.014098
1102.873271	-0.011721
1103.033858	-0.014259
1103.194426	-0.012965
1103.354976	-0.013077
1103.515508	-0.011913
1103.676021	-0.008254
1103.836517	-0.006345
1103.996994	-0.004023
1104.157453	-0.006408
1104.317893	-0.006639
1104.478316	-0.002982
1104.638720	-0.003353
1104.799106	-0.001372
1104.959474	-0.003423
1105.119823	-0.005590
1105.280155	-0.006423
1105.440468	-0.008860
1105.600763	-0.008268
1105.761039	-0.009657
1105.921298	-0.010168
1106.081538	-0.011105
1106.241760	-0.011420
1106.401964	-0.009342
1106.562149	-0.009355
1106.722316	-0.013050
1106.882465	-0.013323
1107.042596	-0.010763
1107.202709	-0.011393
1107.362803	-0.014637
1107.522879	-0.017230
1107.682937	-0.014380
1107.842977	-0.014323
1108.002999	-0.013583
1108.163002	-0.008628
1108.322987	-0.005807
1108.482954	-0.007824
1108.642902	-0.007071
1108.802833	-0.005530
1108.962745	-0.000908
1109.122639	-0.005741
1109.282515	-0.006597
1109.442372	-0.008120
1109.602211	-0.010953
1109.762032	-0.010837
1109.921835	-0.013310
1110.081620	-0.010256
1110.241386	-0.010059
1110.401134	-0.012228
1110.560864	-0.011442
1110.720576	-0.010971
1110.880269	-0.012070
1111.039945	-0.009855
1111.199602	-0.006234
1111.359240	-0.003189
1111.518861	-0.006813
1111.678463	-0.007701
1111.838047	-0.006575
1111.997613	-0.004660
1112.157161	-0.006225
1112.316690	-0.004392
1112.476202	-0.004696
1112.635695	-0.009913
1112.795169	-0.014170
1112.954626	-0.012763
1113.114064	-0.011168
1113.273484	-0.012691
1113.432886	-0.014409
1113.592270	-0.009411
1113.751635	-0.007569
1113.910983	-0.007446
1114.070312	-0.007220
1114.229622	-0.003937
1114.388915	-0.005260
1114.548189	-0.005967
1114.707445	-0.005856
1114.866683	-0.002797
1115.025903	-0.008845
1115.185104	-0.010816
1115.344287	-0.013388
1115.503452	-0.012572
1115.662599	-0.013748
1115.821727	-0.012001
1115.980838	-0.010452
1116.139930	-0.009340
1116.299004	-0.008417
1116.458059	-0.008087
1116.617097	-0.006202
1116.776116	-0.006914
1116.935117	-0.009793
1117.094099	-0.007345
1117.253064	-0.008973
1117.412010	-0.008305
1117.570938	-0.007383
1117.729848	-0.009014
1117.888740	-0.005820
1118.047613	-0.007298
1118.206468	-0.004541
1118.365305	-0.005665
1118.524124	-0.005621
1118.682924	-0.005730
1118.841707	-0.008323
1119.000471	-0.011529
1119.159216	-0.013748
1119.317944	-0.017376
1119.476653	-0.018473
1119.635344	-0.014585
1119.794017	-0.011231
1119.952672	-0.010702
1120.111308	-0.012259
1120.269927	-0.009810
1120.428527	-0.009792
1120.587108	-0.011039
1120.745672	-0.007445
1120.904217	-0.005282
1121.062744	-0.008902
1121.221253	-0.009746
1121.379744	-0.010310
1121.538216	-0.011349
1121.696671	-0.013451
1121.855107	-0.011523
1122.013524	-0.008384
1122.171924	-0.013726
1122.330305	-0.018224
1122.488668	-0.021106
1122.647013	-0.022932
1122.805340	-0.022098
1122.963648	-0.022933
1123.121938	-0.024127
1123.280210	-0.021274
1123.438464	-0.016960
1123.596700	-0.014550
1123.754917	-0.013186
1123.913116	-0.008301
1124.071297	-0.005216
1124.229459	-0.004088
1124.387604	0.001152
1124.545730	0.001602
1124.703838	-0.004332
1124.861928	-0.011513
1125.019999	-0.014715
1125.178052	-0.009990
1125.336088	-0.015153
1125.494104	-0.016171
1125.652103	-0.016018
1125.810083	-0.014086
1125.968045	-0.014292
1126.125989	-0.008874
1126.283915	-0.008684
1126.441823	-0.004867
1126.599712	-0.007245
1126.757583	-0.001245
1126.915436	0.000317
1127.073270	-0.003557
1127.231087	-0.008481
1127.388885	-0.002830
1127.546665	-0.003797
1127.704426	-0.004786
1127.862170	-0.003014
1128.019895	-0.004268
1128.177602	-0.008142
1128.335291	-0.012230
1128.492961	-0.009806
1128.650614	-0.007029
1128.808248	-0.016986
1128.965864	-0.019145
1129.123461	-0.018518
1129.281041	-0.018496
1129.438602	-0.017493
1129.596145	-0.016440
1129.753670	-0.016293
1129.911176	-0.018052
1130.068665	-0.016774
1130.226135	-0.013853
1130.383587	-0.015007
1130.541020	-0.015488
1130.698436	-0.019259
1130.855833	-0.019889
1131.013212	-0.019345
1131.170573	-0.023830
1131.327915	-0.023151
1131.485239	-0.020984
1131.642545	-0.019691
1131.799833	-0.016262
1131.957103	-0.012222
1132.114354	-0.010729
1132.271588	-0.010075
1132.428803	-0.010562
1132.585999	-0.005216
1132.743178	-0.002378
1132.900338	-0.008726
1133.057480	-0.003211
1133.214604	-0.002619
1133.371710	-0.008342
1133.528797	-0.006225
1133.685866	-0.006798
1133.842917	-0.007944
1133.999950	-0.009345
1134.156964	-0.007291
1134.313960	-0.010373
1134.470938	-0.013972
1134.627898	-0.017872
1134.784840	-0.012493
1134.941763	-0.015347
1135.098668	-0.016636
1135.255555	-0.016016
1135.412424	-0.012090
1135.569274	-0.018587
1135.726107	-0.014264
1135.882921	-0.012403
1136.039716	-0.010208
1136.196494	-0.007780
1136.353253	-0.004245
1136.509995	-0.002997
1136.666717	-0.009548
1136.823422	-0.014315
1136.980109	-0.013178
1137.136777	-0.013728
1137.293427	-0.019925
1137.450059	-0.022579
1137.606672	-0.024263
1137.763267	-0.028220
1137.919844	-0.027748
1138.076403	-0.020087
1138.232944	-0.018779
1138.389466	-0.022034
1138.545971	-0.017597
1138.702457	-0.014762
1138.858924	-0.014623
1139.015374	-0.014536
1139.171805	-0.015674
1139.328218	-0.014496
1139.484613	-0.014603
1139.640990	-0.009212
1139.797348	-0.007080
1139.953688	-0.013793
1140.110010	-0.017436
1140.266314	-0.010640
1140.422600	-0.014973
1140.578867	-0.009071
1140.735116	-0.005037
1140.891347	-0.007801
1141.047559	-0.007209
1141.203754	-0.005568
1141.359930	0.001120
1141.516088	0.005646
1141.672228	0.000946
1141.828349	0.000984
1141.984452	-0.000067
1142.140537	-0.004176
1142.296604	-0.007194
1142.452653	-0.007574
1142.608683	-0.007803
1142.764695	-0.013653
1142.920689	-0.009708
1143.076665	-0.010948
1143.232622	-0.008880
1143.388562	-0.008528
1143.544483	-0.011001
1143.700385	-0.004039
1143.856270	-0.005262
1144.012136	-0.006175
1144.167985	0.000572
1144.323814	-0.001806
1144.479626	-0.001988
1144.635420	-0.007055
1144.791195	-0.009692
1144.946952	-0.004856
1145.102691	-0.003387
1145.258411	-0.002216
1145.414113	0.002302
1145.569798	-0.003360
1145.725463	-0.006453
1145.881111	-0.007021
1146.036741	-0.002087
1146.192352	-0.003232
1146.347945	-0.008208
1146.503519	-0.014343
1146.659076	-0.019910
1146.814614	-0.019735
1146.970134	-0.019646
1147.125636	-0.017909
1147.281120	-0.017941
1147.436585	-0.015273
1147.592032	-0.016823
1147.747461	-0.015043
1147.902872	-0.015478
1148.058265	-0.009285
1148.213639	-0.019201
1148.368995	-0.016471
1148.524333	-0.015161
1148.679653	-0.018514
1148.834954	-0.025231
1148.990237	-0.021976
1149.145502	-0.024252
1149.300749	-0.020220
1149.455977	-0.026877
1149.611188	-0.020767
1149.766380	-0.025433
1149.921553	-0.029563
1150.076709	-0.023460
1150.231846	-0.021027
1150.386966	-0.024306
1150.542066	-0.026862
1150.697149	-0.027041
1150.852214	-0.024654
1151.007260	-0.025874
1151.162288	-0.027600
1151.317298	-0.026350
1151.472289	-0.033029
1151.627263	-0.029919
1151.782218	-0.025561
1151.937155	-0.025443
1152.092073	-0.032360
1152.246974	-0.033418
1152.401856	-0.043333
1152.556720	-0.036014
1152.711566	-0.033937
1152.866393	-0.034150
1153.021203	-0.038789
1153.175994	-0.036842
1153.330767	-0.029866
1153.485521	-0.025898
1153.640258	-0.027621
1153.794976	-0.018507
1153.949676	-0.019059
1154.104358	-0.014356
1154.259021	-0.008916
1154.413667	-0.002413
1154.568294	-0.003409
1154.722903	-0.003620
1154.877493	0.000391
1155.032066	0.003371
1155.186620	0.003111
1155.341156	0.008655
1155.495674	0.001456
1155.650173	-0.004490
1155.804654	-0.009810
1155.959118	-0.017654
1156.113562	-0.015263
1156.267989	-0.020157
1156.422397	-0.020390
1156.576788	-0.020321
1156.731160	-0.021922
1156.885513	-0.012479
1157.039849	-0.010751
1157.194166	-0.007033
1157.348465	-0.002333
1157.502746	-0.007131
1157.657009	-0.008401
1157.811253	-0.008660
1157.965479	-0.007213
1158.119687	-0.009367
1158.273877	-0.027320
1158.428048	-0.027626
1158.582201	-0.032865
1158.736337	-0.031710
1158.890453	-0.035444
1159.044552	-0.033178
1159.198632	-0.038052
1159.352694	-0.036038
1159.506738	-0.037599
1159.660764	-0.025964
1159.814771	-0.020909
1159.968761	-0.015637
1160.122732	-0.019811
1160.276685	-0.020154
1160.430619	-0.024090
1160.584535	-0.017593
1160.738434	-0.009805
1160.892313	-0.014147
1161.046175	-0.015525
1161.200019	-0.009000
1161.353844	-0.002447
1161.507651	0.002497
1161.661440	0.013974
1161.815210	0.015615
1161.968962	0.017490
1162.122697	0.007370
1162.276412	0.004966
1162.430110	0.009687
1162.583789	0.004205
1162.737451	-0.000840
1162.891094	0.005243
1163.044718	-0.002015
1163.198325	0.001615
1163.351913	0.001410
1163.505483	0.005522
1163.659035	0.002419
1163.812569	-0.007140
1163.966084	-0.019421
1164.119581	-0.019392
1164.273060	-0.030528
1164.426521	-0.035583
1164.579964	-0.036707
1164.733388	-0.030558
1164.886794	-0.029206
1165.040182	-0.028758
1165.193551	-0.029778
1165.346903	-0.028326
1165.500236	-0.031909
1165.653551	-0.027769
1165.806848	-0.024432
1165.960126	-0.024740
1166.113386	-0.029856
1166.266628	-0.037106
1166.419852	-0.031595
1166.573058	-0.027761
1166.726245	-0.022978
1166.879414	-0.026695
1167.032565	-0.028933
1167.185698	-0.035783
1167.338812	-0.048206
1167.491909	-0.046377
1167.644987	-0.050299
1167.798046	-0.052663
1167.951088	-0.051225
1168.104111	-0.043396
1168.257117	-0.040693
1168.410103	-0.041882
1168.563072	-0.028755
1168.716023	-0.017828
1168.868955	-0.018222
1169.021869	-0.006616
1169.174765	-0.009822
1169.327642	-0.006509
1169.480501	-0.002261
1169.633343	0.003136
1169.786165	0.008669
1169.938970	0.002908
1170.091757	0.009820
1170.244525	0.015329
1170.397275	0.017536
1170.550007	0.024427
1170.702720	0.010525
1170.855415	0.002051
1171.008092	-0.004035
1171.160751	-0.005214
1171.313392	-0.003669
1171.466014	-0.010449
1171.618619	-0.014561
1171.771205	-0.014561
1171.923772	-0.014561
