sample name	sample
index	202
start time	 02-22-2021  09:26:28 AM
880	-0.003419
Peak Time (s)	92.037
Peak Height 	-0.003419
calc peak height	90,93
Baseline Time (s)	10.037
Baseline Value 	-0.002866
subtract baseline	10,4
Abs	-0.008099
Peak Time (s)	91.539
Peak Height 	-0.008099
calc peak height	90,93
Baseline Time (s)	11.036
Baseline Value 	0.001357
subtract baseline	10,3
PK_550	-0.001605
Peak Time (s)	92.037
Peak Height 	-0.001605
calc peak height	90,93
Baseline Time (s)	8.536
Baseline Value 	5.1151E-4
subtract baseline	10,2
PK_880	-0.008980
Peak Time (s)	90.536
Peak Height 	-0.00898
calc peak height	90,93
Baseline Time (s)	11.537
Baseline Value 	-1.8914E-4
subtract baseline	10,1


Time (s)	A880-A510	A880-A775	A880-A975	A880	I510	I775	I975	I880	
0.036500	-0.003971	-0.001307	-0.003232	0.005367	6751.321333	46906.545618	3800.067812	24538.840521
0.536500	-0.001741	-0.000099	-0.002412	0.005983	6766.494274	46966.845392	3800.611698	24507.824296
1.037000	-0.000446	-0.000573	-0.002311	0.002631	6810.477727	47261.288571	3809.816486	24677.151789
1.537000	0.002038	0.000037	0.002822	-0.000708	6866.256411	47668.351084	3832.716446	24847.077194
2.037000	-0.002385	-0.000389	-0.002598	0.004742	6772.120513	47063.917439	3803.415942	24570.381352
2.535000	-0.001669	-0.001000	-0.002970	-0.000346	6827.199079	47523.709048	3816.036493	24828.583806
3.035000	0.001263	-0.000356	-0.001757	-0.001238	6863.894193	47682.548379	3821.715229	24874.162063
3.535000	0.000651	0.000236	-0.003125	0.001113	6835.434924	47500.732186	3811.702616	24754.243296
4.038500	0.000749	-0.001051	-0.001243	0.003643	6812.214484	47108.568468	3809.967055	24625.865610
4.536000	-0.000866	0.000695	-0.000420	0.001172	6820.370386	47541.963439	3818.816998	24751.221453
5.036500	0.000657	-0.000091	0.001543	0.000642	6840.005256	47515.603203	3825.561043	24778.203626
5.537000	0.001080	0.000025	-0.000900	0.000343	6846.930739	47558.475588	3819.760433	24793.439464
6.037000	-0.000739	-0.000742	-0.004573	0.000266	6830.239181	47487.160348	3810.093197	24797.369530
6.537000	-0.000296	-0.000353	-0.000756	0.000095	6836.111820	47545.032364	3820.818306	24806.087917
7.034500	-0.001541	-0.000478	0.001992	-0.000329	6828.263535	47575.922460	3829.422867	24827.749822
7.535000	0.000755	0.000454	0.006089	0.000277	6844.455376	47609.658310	3838.962669	24796.842396
8.035000	0.000083	-0.000572	0.002905	-0.000226	6842.826330	47555.594110	3831.628605	24822.493772
8.535500	-0.000163	0.000000	-0.000478	0.000266	6835.752176	47563.778195	3821.107342	24797.354972
9.035500	-0.001474	-0.000310	-0.001768	-0.000163	6827.317313	47576.157056	3818.783638	24819.276076
9.536000	0.000677	-0.000574	-0.001145	-0.000257	6848.822392	47558.563497	3820.717243	24824.046052
10.036500	-0.000198	0.000066	0.004242	0.000000	6837.965675	47598.188483	3834.662531	24810.943022
10.536500	0.000899	0.000542	0.002416	0.000386	6844.779990	47607.429388	3828.629983	24791.259310
11.036000	0.000547	0.000565	0.000000	0.000678	6838.610949	47579.626765	3821.286743	24776.386938
11.537000	0.000000	-0.000863	0.001349	-0.000385	6843.553968	47541.911931	3827.823966	24830.587057
12.038000	0.000240	0.000484	0.002650	0.000405	6838.282284	47599.478836	3829.213168	24790.290835
12.535500	-0.000397	-0.000021	-0.002722	0.000006	6836.004505	47588.527128	3815.757147	24810.638755
13.035500	0.003124	0.000526	0.001379	-0.002033	6889.587724	47856.717666	3832.396080	24914.916413
13.537000	-0.000814	-0.000148	0.002355	-0.002668	6857.669765	47852.666117	3836.798622	24947.453062
14.036000	-0.001186	-0.001214	-0.001234	0.001641	6812.854916	47297.056907	3815.363451	24727.383731
14.536500	-0.003418	-0.001012	0.002753	-0.001292	6819.544722	47620.276068	3834.123603	24876.958360
15.036500	0.001123	-0.000247	0.001469	-0.002962	6879.200190	47872.937832	3835.177568	24962.547612
15.536500	0.000537	-0.000017	0.004127	-0.002649	6870.512751	47864.372408	3841.610646	24946.507148
16.039500	-0.001537	0.000358	0.001213	0.002467	6801.663210	47373.778649	3819.731359	24685.451336
16.534500	0.002217	0.000498	0.000022	-0.002275	6883.144714	47878.973801	3829.356146	24927.318713
17.035000	0.003837	0.001005	0.002719	-0.001895	6895.160158	47892.083587	3835.676905	24907.799485
17.535500	-0.001228	0.000135	0.001256	0.000263	6825.598789	47578.115072	3825.814017	24797.542583
18.035000	0.000915	0.000450	-0.001860	0.001371	6835.489867	47496.185333	3814.405212	24741.106723
18.536000	0.000573	0.000115	0.001741	0.000040	6844.974758	47599.088672	3827.733284	24808.883611
19.036000	-0.000401	-0.000565	0.002329	-0.000340	6839.278754	47568.059177	3830.369451	24828.289138
19.536500	-0.001654	-0.000385	0.001073	-0.000119	6825.178916	47563.801450	3826.352343	24817.007157
20.036500	-0.000738	-0.000310	-0.005099	0.001369	6819.718293	47418.082526	3805.739043	24741.219584
20.538000	-0.001937	-0.000851	0.000007	-0.000489	6826.009966	47553.877685	3824.462908	24835.890423
21.034500	-0.000618	0.000211	0.007177	0.000274	6831.329873	47584.864333	3841.960309	24796.981400
21.535000	-0.001344	-0.000219	0.002171	0.000080	6826.233539	47560.362137	3828.794530	24806.846884
22.035000	0.000247	-0.000067	0.000316	0.001811	6824.907416	47397.557043	3819.081006	24718.762471
22.535500	-0.001145	-0.000772	0.002714	-0.000525	6833.921346	47565.745531	3831.920791	24837.716978
23.036000	0.000244	0.000551	0.006432	0.000693	6835.563386	47576.666588	3838.762885	24775.627850
23.536000	0.001381	-0.000884	0.000300	-0.000755	6860.379177	47577.961116	3825.979235	24849.473149
24.036000	-0.002204	-0.000453	-0.004016	0.001485	6804.668528	47391.408482	3808.323002	24735.344687
24.536500	0.000783	-0.000128	0.002410	-0.000044	6847.802058	47582.647624	3829.785303	24813.199248
25.036500	-0.002022	0.000040	-0.001286	0.000517	6815.602322	47542.008996	3818.249890	24784.567064
25.539500	0.000349	-0.000040	-0.000618	0.000169	6841.584152	47569.656289	3820.992836	24802.315087
26.037500	-0.000925	-0.000129	0.001931	0.000092	6830.129840	47568.534229	3828.111126	24806.271740
26.534500	-0.000963	-0.000406	-0.000621	-0.000388	6834.358611	47589.518944	3822.490675	24830.759958
27.035500	0.000188	-0.000133	0.000318	-0.001724	6858.229415	47756.197223	3828.662070	24899.080975
27.535500	-0.000662	0.000362	0.000021	-0.002477	6857.289567	47885.802255	3829.900772	24937.639736
28.036000	0.002652	0.000288	0.004369	-0.002085	6885.513207	47837.388034	3840.724670	24917.576861
28.536000	0.001056	-0.000333	0.001973	-0.002501	6874.096692	47816.045328	3835.296945	24938.903665
29.035500	0.000529	-0.000045	0.001221	-0.002657	6870.500251	47862.198583	3833.666870	24946.874221
29.536500	0.002608	-0.000223	0.003844	-0.002762	6891.646624	47854.698932	3841.143843	24952.310061
30.040000	-0.001915	-0.000762	0.001563	0.003261	6790.553176	47177.227451	3818.532919	24645.206102
30.537500	-0.000016	0.000189	-0.000232	0.001495	6825.403675	47456.392457	3818.454407	24734.790271
31.035000	-0.000032	0.000044	0.003843	-0.000206	6841.532174	47617.238125	3834.135480	24821.463601
31.535500	0.002802	0.000233	0.005976	-0.002143	6887.526947	47837.673938	3845.309420	24920.546388
32.035500	-0.003980	-0.000786	0.002162	0.003808	6765.890502	47118.856945	3818.673195	24617.558156
32.535500	0.002238	0.000112	0.002132	-0.002392	6884.477705	47850.939328	3835.432417	24933.301087
33.036000	0.002329	0.000029	0.002728	-0.002375	6885.186123	47840.525258	3837.017565	24932.403933
33.536500	0.000025	-0.000394	0.005278	-0.000991	6849.617077	47653.070603	3840.215504	24861.564537
34.037000	0.000464	0.000184	0.000977	0.001135	6833.439613	47493.074898	3822.694813	24753.130311
34.536500	-0.001287	0.000716	-0.002718	0.001293	6815.212588	47531.668516	3812.312242	24745.076764
35.037000	-0.001555	-0.000185	0.000150	0.000342	6821.727093	47536.829436	3822.600894	24793.512082
35.534000	-0.000135	-0.000500	0.001991	0.000335	6835.360861	47505.144968	3827.613217	24793.881378
36.035000	-0.001768	-0.001351	0.001145	0.001323	6810.344868	47315.645505	3822.637491	24743.536666
36.535000	0.000466	0.000232	0.002253	0.001149	6833.324442	47496.609060	3826.113347	24752.394478
37.035500	0.000381	-0.001143	0.001591	-0.000220	6845.627345	47496.035149	3828.034111	24822.184333
37.536000	0.000458	0.000348	0.001374	0.001137	6833.362191	47509.777386	3823.760948	24753.010499
38.036000	0.000260	0.000510	0.002040	0.001172	6831.127298	47522.845974	3825.471790	24751.222178
38.536000	0.000251	-0.000062	-0.001200	0.001058	6832.139183	47475.645366	3817.022911	24757.038807
39.036500	0.000289	-0.000077	0.001403	0.001376	6829.456403	47441.360141	3823.193771	24740.869719
39.540000	-0.000953	-0.000377	0.000888	0.000722	6823.839452	47477.763564	3823.568825	24774.122380
40.040000	-0.000605	0.000172	0.003056	0.002439	6810.798882	47357.618542	3824.792517	24686.900348
40.535000	-0.000671	0.000247	0.006006	0.001322	6820.803847	47480.300197	3835.869010	24743.586272
41.035500	0.001471	0.000144	0.000026	0.000941	6844.947731	47508.972852	3820.644446	24762.981206
41.535000	-0.001658	0.000101	0.000594	0.000816	6816.217705	47517.426050	3822.520351	24769.351862
42.036000	-0.000266	0.000202	0.001367	0.002277	6815.571393	47377.331141	3820.661729	24695.111550
42.536000	0.000956	-0.000236	0.000268	0.000614	6843.137307	47503.545676	3822.185337	24779.637063
43.036000	-0.000808	-0.000249	0.000585	0.000612	6826.272176	47502.394759	3823.046284	24779.739728
43.537000	0.000878	-0.000192	0.007262	-0.001538	6863.085228	47730.706470	3847.190059	24889.556549
44.037000	-0.001700	-0.000143	0.001396	0.003295	6792.274319	47237.237440	3817.992493	24643.518972
44.539500	0.000734	0.000493	0.005223	-0.001626	6862.545638	47811.046439	3841.810411	24894.062386
45.033500	0.001874	-0.000708	0.002161	-0.002234	6879.412004	47749.366718	3835.078915	24925.173814
45.534500	0.002231	-0.000184	0.001894	-0.001980	6880.407782	47777.327801	3833.655612	24912.153294
46.035000	-0.002959	0.000373	0.002712	0.003988	6773.808454	47219.088848	3819.669596	24608.422487
46.535000	0.000628	-0.000283	0.001791	-0.001497	6860.277050	47717.066772	3832.057227	24887.451473
47.035500	-0.001761	-0.000340	0.003033	0.001056	6812.959711	47447.209926	3828.485732	24757.153052
47.536000	-0.000247	-0.000260	0.002861	0.001396	6824.141338	47420.449547	3827.092466	24739.836538
48.036500	-0.001263	-0.000083	-0.001686	0.003911	6790.576991	47180.270466	3808.064847	24612.346115
48.536500	0.000163	-0.000282	0.000487	-0.001871	6859.397974	47755.933348	3829.522414	24906.585643
49.039000	0.002625	-0.000526	0.008958	-0.002305	6887.376350	47775.575304	3854.011342	24928.811587
49.537500	0.001927	-0.000217	0.004628	-0.002861	6886.008872	47865.546946	3843.572654	24957.371696
50.037500	-0.001737	0.000436	0.001319	0.003291	6791.953066	47297.080638	3817.793468	24643.702191
50.535000	-0.001240	-0.000884	0.000341	-0.005970	6885.434301	48120.255496	3840.330458	25117.558501
51.035000	-0.017129	-0.010933	-0.000447	0.173515	5361.062555	32052.389858	3435.046400	17514.186557
51.535500	-0.017991	-0.018463	0.007446	0.010284	6577.516876	44715.181999	3815.463309	24292.501234
52.035500	-0.013520	-0.015607	0.008866	-0.047770	7181.397303	51043.219177	3986.900749	27386.828338
52.536000	-0.030187	-0.019329	-0.007941	-0.080672	7352.942164	54403.921140	4037.475562	29333.153247
53.036500	-0.023454	-0.027102	-0.011601	-0.143936	8170.560343	61452.686817	4241.973062	33516.328390
53.537500	-0.008454	-0.029141	-0.004722	-0.156890	8535.746018	62948.395334	4316.484138	34450.650110
54.037000	-0.001695	-0.024717	0.001159	-0.150165	8536.200329	62629.830124	4313.243371	33962.119480
54.537000	0.000079	-0.016458	0.000191	-0.131462	8312.229049	61205.566926	4239.472418	32642.593064
55.035000	-0.000632	-0.011176	-0.003892	-0.108335	8011.297731	58849.888205	4142.780178	31087.606679
55.535000	-0.002764	-0.012010	-0.005181	-0.100998	7896.260477	57802.973061	4113.369385	30611.292541
56.035500	-0.006681	-0.010298	-0.009966	-0.087490	7691.033677	56326.078637	4052.900425	29755.200977
56.535500	-0.002729	-0.005211	-0.003833	-0.073880	7580.778074	55283.759620	4028.912400	28919.200740
57.036000	-0.001940	-0.008093	-0.003723	-0.076921	7624.204546	55302.947196	4038.969872	29103.710585
57.536500	0.000093	-0.007306	-0.007403	-0.090757	7808.288778	57104.681606	4071.896646	29959.823572
58.036000	-0.002552	-0.006966	0.000979	-0.058411	7411.139984	53238.451347	3995.422581	28000.212919
58.540000	-0.002606	-0.003222	0.000037	-0.043720	7253.130865	51980.184758	3947.759752	27157.267668
59.037500	-0.007031	-0.005227	-0.003934	-0.038800	7155.729612	51200.379418	3921.406177	26881.257967
59.534500	-0.007357	-0.005046	-0.008146	-0.029465	7057.217360	50188.498608	3882.279450	26366.143276
60.035000	-0.011417	-0.005236	-0.005159	-0.025890	6980.907884	49778.541195	3880.607597	26171.783857
60.535500	-0.011031	-0.004732	-0.006844	-0.020999	6936.493638	49305.184266	3862.073601	25908.436021
61.036000	-0.009204	-0.005730	-0.010094	-0.023131	6975.498449	49427.146953	3858.952744	26022.891726
61.536000	-0.011947	-0.006018	-0.008380	-0.032801	7044.597651	50447.789734	3891.130288	26548.963403
62.036000	-0.009367	-0.004791	-0.007523	-0.034633	7089.183147	50785.413211	3898.857154	26649.979838
62.536000	-0.012810	-0.005243	-0.011049	-0.032301	7030.910473	50478.118169	3882.087569	26521.485112
63.040500	-0.007836	-0.003819	-0.008776	-0.034579	7104.212111	50887.174074	3895.094293	26646.991149
63.537000	-0.010535	-0.004163	-0.011893	-0.034695	7077.965748	50861.862326	3886.501231	26653.387192
64.038000	-0.013896	-0.005217	-0.011827	-0.028099	6978.230094	50020.698855	3868.012386	26291.712490
64.537500	-0.009721	-0.004227	-0.005040	-0.032667	7065.678854	50630.363312	3900.345233	26541.587665
65.034500	-0.010134	-0.004734	-0.005502	-0.031854	7053.311128	50484.916686	3896.673209	26496.949036
65.535500	-0.008792	-0.005748	-0.011970	-0.030897	7057.197745	50268.485163	3875.495882	26444.467154
66.036000	-0.013681	-0.005170	-0.011031	-0.023804	6938.016604	49559.976771	3858.215547	26059.123965
66.536000	-0.010698	-0.005358	-0.003180	-0.028298	7011.990494	50026.959056	3893.127551	26302.504762
67.036000	-0.010534	-0.005382	-0.006551	-0.027141	7002.104900	49898.506498	3880.208651	26239.617989
67.537000	-0.009674	-0.005605	-0.001046	-0.026126	7000.552190	49764.014455	3893.018450	26184.547157
68.037000	-0.014315	-0.005368	-0.011889	-0.019776	6892.532468	49106.133514	3844.668689	25843.075962
68.537000	-0.011902	-0.005694	-0.010930	-0.024502	6962.377244	49578.702259	3860.443594	26096.729442
69.037500	-0.012419	-0.004505	-0.006206	-0.023080	6943.298220	49553.571879	3869.702640	26020.110864
69.537500	-0.011489	-0.004984	-0.008707	-0.022910	6950.770606	49483.558638	3862.208247	26010.981000
70.035000	-0.015204	-0.004876	-0.007953	-0.015610	6843.754962	48715.064701	3844.036376	25621.722577
70.538000	-0.012042	-0.004922	-0.006581	-0.021180	6928.366887	49304.221088	3863.315024	25918.118736
71.035500	-0.009813	-0.004087	-0.006797	-0.019478	6933.520435	49211.198484	3857.958219	25827.135270
71.536000	-0.010438	-0.004786	-0.007860	-0.019933	6931.870094	49185.160516	3856.264952	25851.470383
72.036500	-0.012978	-0.004518	-0.010648	-0.013133	6841.351389	48491.073212	3829.868772	25491.127471
72.539500	-0.009958	-0.003810	-0.007506	-0.017936	6917.028586	49075.958651	3851.699826	25745.037209
73.037000	-0.009903	-0.004742	-0.007853	-0.018187	6920.015178	49003.233580	3851.435129	25758.383834
73.537500	-0.009888	-0.004066	-0.007373	-0.017044	6909.013448	48953.498940	3849.595735	25697.657274
74.038000	-0.013202	-0.004048	-0.010957	-0.010692	6815.882024	48283.666839	3822.405329	25363.148598
74.535000	-0.009792	-0.003747	-0.005252	-0.015536	6895.269894	48826.936666	3851.294562	25617.782620
75.035000	-0.009728	-0.003698	-0.005313	-0.015723	6897.720059	48852.072192	3851.645275	25627.710939
75.535000	-0.012496	-0.003835	-0.008145	-0.012804	6842.815806	48528.325646	3835.801997	25473.819772
76.036000	-0.008974	-0.003590	-0.007238	-0.014777	6895.857360	48763.089509	3843.709848	25577.729060
76.536500	-0.009167	-0.004159	-0.006375	-0.014808	6894.274215	48706.028015	3846.174722	25579.332535
77.037000	-0.009830	-0.003988	-0.010442	-0.014614	6885.963417	48703.623896	3834.470340	25569.120525
77.537000	-0.012003	-0.002906	-0.011819	-0.010271	6823.302926	48359.347436	3818.937581	25341.147505
78.036500	-0.010472	-0.004358	-0.007309	-0.014067	6874.462463	48606.530425	3841.559779	25540.285203
78.540000	-0.009045	-0.003451	-0.006776	-0.013261	6880.466776	48617.196817	3840.809655	25497.852207
79.037500	-0.011208	-0.003125	-0.007593	-0.013122	6858.239939	48636.928221	3838.183315	25490.514276
79.535000	-0.009505	-0.002670	-0.007921	-0.008806	6833.166681	48230.290717	3825.517097	25264.718195
80.035500	-0.007501	-0.002870	-0.007584	-0.012040	6883.598926	48549.641473	3835.246836	25433.735318
80.536000	-0.011377	-0.002700	-0.007240	-0.012210	6847.854035	48585.513209	3836.652563	25442.625712
81.036000	-0.008668	-0.002472	-0.010273	-0.011661	6868.648669	48551.519471	3826.885936	25413.844862
81.536500	-0.010592	-0.003410	-0.007391	-0.012189	6855.197218	48508.367354	3836.184642	25441.549753
82.039000	-0.009440	-0.001620	-0.010189	-0.010802	6852.935151	48550.808944	3824.781553	25368.866924
82.537000	-0.009066	-0.002160	-0.007120	-0.011157	6859.954215	48531.293587	3834.100983	25387.443248
83.037500	-0.010804	-0.002836	-0.005513	-0.011502	6846.558842	48496.384590	3839.448476	25405.509853
83.537500	-0.012798	-0.002971	-0.010544	-0.006680	6781.646166	47976.449580	3812.705559	25154.345965
84.035000	-0.014469	-0.002800	-0.009577	-0.005042	6750.497596	47823.732004	3810.907409	25069.647972
84.537500	-0.009395	-0.002431	-0.007883	-0.010691	6852.306083	48453.561699	3830.748654	25363.092797
85.035500	-0.009052	-0.001763	-0.003904	-0.010337	6852.196346	48486.665044	3840.665025	25344.547489
85.535500	-0.012220	-0.001984	-0.009853	-0.005400	6775.019159	47945.952083	3811.128003	25088.133180
86.036500	-0.014917	-0.003313	-0.008018	-0.004927	6745.218648	47758.490581	3814.783055	25063.701724
86.537000	-0.009262	-0.002237	-0.006056	-0.010632	6853.012525	48467.765513	3835.575998	25359.984266
87.036500	-0.009929	-0.003020	-0.007828	-0.011011	6850.244021	48425.187728	3831.768501	25379.789203
87.537500	-0.011773	-0.001781	-0.013210	-0.005016	6775.607119	47927.099977	3801.144620	25068.294675
88.037000	-0.008319	-0.001672	-0.003037	-0.009575	6851.915756	48415.981431	3840.955937	25304.793652
88.534500	-0.011017	-0.002309	-0.003106	-0.010172	6831.770991	48411.761588	3842.407798	25335.946385
89.038000	-0.008375	-0.002350	-0.006405	-0.010190	6857.292186	48409.311858	3833.413448	25336.893504
89.535500	-0.010923	-0.002584	-0.010498	-0.005201	6785.387473	47862.714486	3808.869230	25077.864138
90.035500	-0.011242	-0.002344	-0.012471	-0.003946	6770.522742	47757.284365	3800.264582	25013.137209
90.536000	-0.008980	-0.001860	-0.008747	-0.009718	6846.939781	48411.257441	3825.752254	25312.270978
91.036500	-0.009444	-0.001840	-0.010693	-0.009624	6841.593391	48403.468334	3820.230473	25307.371231
91.539000	-0.011679	-0.002010	-0.008099	-0.004385	6770.543049	47837.577093	3813.108947	25035.753933
92.037000	-0.011346	-0.001605	-0.009204	-0.003419	6764.583056	47779.268074	3807.562515	24986.058931
92.537500	-0.010516	-0.001854	-0.008720	-0.010103	6835.905441	48452.445792	3826.870529	25332.357889
93.040500	-0.007800	-0.001520	-0.003712	-0.009692	6858.028619	48444.248431	3839.422328	25310.883388
93.534500	-0.011791	-0.001580	-0.007608	-0.004175	6767.512483	47860.388993	3813.863650	25024.941451
94.116000	-0.011001	-0.001311	-0.006161	-0.005373	6786.274898	48013.357957	3820.990736	25086.736776
94.536000	-0.008648	-0.001694	-0.006622	-0.009697	6849.929833	48426.497619	3831.475109	25311.182929
95.035000	-0.008480	-0.001916	-0.009493	-0.009982	6854.274812	48433.044969	3824.445470	25326.011055
95.536500	-0.011146	-0.001864	-0.012529	-0.003771	6769.783938	47788.920127	3799.648055	25004.143286
96.039000	-0.011668	-0.001078	-0.006373	-0.002762	6755.382214	47765.818349	3813.386260	24952.293311
96.536500	-0.007497	-0.000670	-0.004470	-0.008814	6852.506483	48441.317971	3834.939622	25265.144077
