sample name	sample
index	403
start time	 03-08-2021  10:34:50 AM


Wavelength (nm)	Absorbance
494.344910	-0.308595
494.563924	-0.308595
494.782919	-0.308595
495.001897	0.744187
495.220856	-0.034036
495.439797	-0.013833
495.658719	0.045131
495.877624	0.147131
496.096510	0.132327
496.315378	0.122184
496.534227	0.174124
496.753059	0.030806
496.971872	0.034856
497.190667	0.021631
497.409444	0.018799
497.628203	0.016159
497.846943	0.016490
498.065665	0.013698
498.284369	0.012952
498.503055	0.011316
498.721723	0.011600
498.940372	0.012093
499.159003	0.012464
499.377616	0.012420
499.596210	0.012295
499.814787	0.011053
500.033345	0.011568
500.251885	0.012668
500.470406	0.013454
500.688910	0.013433
500.907395	0.012973
501.125862	0.011741
501.344311	0.011054
501.562742	0.011027
501.781154	0.011505
501.999548	0.011960
502.217924	0.011238
502.436282	0.010978
502.654621	0.010274
502.872942	0.010552
503.091245	0.011062
503.309530	0.011594
503.527797	0.011254
503.746045	0.011053
503.964275	0.011091
504.182487	0.011109
504.400681	0.011354
504.618856	0.012192
504.837013	0.011171
505.055152	0.011161
505.273273	0.010546
505.491376	0.010670
505.709460	0.010258
505.927526	0.010007
506.145574	0.009844
506.363604	0.010272
506.581615	0.010281
506.799608	0.010823
507.017583	0.010948
507.235540	0.011270
507.453478	0.011745
507.671399	0.010859
507.889301	0.011097
508.107185	0.011648
508.325050	0.010886
508.542898	0.010559
508.760727	0.010368
508.978538	0.010493
509.196330	0.010774
509.414105	0.010633
509.631861	0.011798
509.849599	0.011371
510.067319	0.010937
510.285021	0.011009
510.502704	0.011201
510.720369	0.011118
510.938016	0.011027
511.155645	0.010343
511.373255	0.010316
511.590848	0.010586
511.808422	0.011071
512.025977	0.011324
512.243515	0.011447
512.461034	0.011583
512.678536	0.012329
512.896018	0.012517
513.113483	0.012728
513.330930	0.012678
513.548358	0.012354
513.765768	0.011881
513.983160	0.012282
514.200533	0.012739
514.417889	0.012447
514.635226	0.012212
514.852545	0.012330
515.069845	0.012173
515.287128	0.012259
515.504392	0.012639
515.721638	0.012895
515.938866	0.012213
516.156075	0.012201
516.373267	0.012441
516.590440	0.012157
516.807594	0.012450
517.024731	0.013002
517.241850	0.013039
517.458950	0.013076
517.676032	0.012927
517.893095	0.012958
518.110141	0.013145
518.327168	0.013157
518.544177	0.013385
518.761168	0.013191
518.978141	0.013146
519.195095	0.012759
519.412031	0.012266
519.628949	0.012002
519.845849	0.012146
520.062731	0.011287
520.279594	0.011681
520.496439	0.011466
520.713266	0.010820
520.930074	0.010809
521.146865	0.011175
521.363637	0.011518
521.580391	0.011492
521.797127	0.011321
522.013844	0.011888
522.230543	0.011407
522.447224	0.011464
522.663887	0.012155
522.880532	0.012476
523.097158	0.012710
523.313766	0.011961
523.530356	0.012654
523.746928	0.013176
523.963481	0.012790
524.180017	0.013112
524.396534	0.013099
524.613032	0.012650
524.829513	0.012450
525.045975	0.012613
525.262420	0.012853
525.478845	0.012501
525.695253	0.012701
525.911643	0.013099
526.128014	0.012490
526.344367	0.012353
526.560702	0.012091
526.777018	0.012390
526.993316	0.011740
527.209597	0.012398
527.425858	0.012605
527.642102	0.011988
527.858328	0.011859
528.074535	0.012282
528.290724	0.012604
528.506894	0.013007
528.723047	0.012726
528.939181	0.013154
529.155297	0.012555
529.371395	0.012599
529.587475	0.012562
529.803536	0.012614
530.019579	0.013024
530.235604	0.013081
530.451611	0.013179
530.667600	0.012943
530.883570	0.012749
531.099522	0.013219
531.315456	0.013208
531.531372	0.013837
531.747269	0.014051
531.963148	0.013465
532.179009	0.013784
532.394852	0.013945
532.610676	0.013858
532.826482	0.013808
533.042271	0.013819
533.258040	0.014341
533.473792	0.013653
533.689525	0.013549
533.905240	0.013944
534.120937	0.013828
534.336616	0.013331
534.552277	0.013760
534.767919	0.014141
534.983543	0.013694
535.199149	0.013490
535.414736	0.013819
535.630306	0.013639
535.845857	0.013721
536.061390	0.013597
536.276904	0.014086
536.492401	0.014250
536.707879	0.013983
536.923339	0.014552
537.138781	0.014331
537.354204	0.014648
537.569610	0.014929
537.784997	0.014879
538.000366	0.015031
538.215716	0.015007
538.431049	0.014601
538.646363	0.014841
538.861659	0.014669
539.076937	0.014651
539.292196	0.014494
539.507438	0.015115
539.722661	0.015192
539.937866	0.015023
540.153052	0.015205
540.368221	0.015592
540.583371	0.015767
540.798503	0.016035
541.013617	0.016022
541.228712	0.015845
541.443789	0.015394
541.658848	0.015602
541.873889	0.015535
542.088912	0.015337
542.303916	0.015126
542.518902	0.015208
542.733870	0.015273
542.948820	0.016084
543.163752	0.016310
543.378665	0.016105
543.593560	0.016073
543.808437	0.016462
544.023295	0.016619
544.238136	0.016712
544.452958	0.016436
544.667762	0.016237
544.882548	0.015401
545.097315	0.015496
545.312064	0.016133
545.526795	0.016023
545.741508	0.016069
545.956203	0.016040
546.170879	0.015934
546.385537	0.016169
546.600177	0.016156
546.814799	0.016101
547.029402	0.015989
547.243988	0.015485
547.458555	0.015438
547.673103	0.015350
547.887634	0.015200
548.102146	0.015311
548.316640	0.015468
548.531116	0.015735
548.745574	0.016146
548.960013	0.016302
549.174435	0.016329
549.388838	0.016331
549.603222	0.016192
549.817589	0.016298
550.031937	0.016761
550.246267	0.016510
550.460579	0.016312
550.674873	0.016301
550.889148	0.016129
551.103405	0.016268
551.317644	0.016716
551.531865	0.016664
551.746068	0.016422
551.960252	0.016442
552.174418	0.016042
552.388566	0.016002
552.602696	0.015547
552.816807	0.015477
553.030900	0.015328
553.244975	0.014972
553.459032	0.015221
553.673070	0.015596
553.887091	0.015443
554.101093	0.015843
554.315077	0.016068
554.529042	0.016576
554.742990	0.016759
554.956919	0.016985
555.170830	0.017049
555.384722	0.016912
555.598597	0.017167
555.812453	0.016991
556.026291	0.017287
556.240111	0.017447
556.453913	0.017155
556.667696	0.017159
556.881461	0.016883
557.095208	0.017032
557.308937	0.016876
557.522647	0.016553
557.736339	0.016618
557.950013	0.016348
558.163669	0.016057
558.377307	0.016126
558.590926	0.015949
558.804527	0.016270
559.018110	0.015899
559.231675	0.016168
559.445221	0.016115
559.658749	0.016222
559.872259	0.016719
560.085751	0.016737
560.299225	0.016851
560.512680	0.017278
560.726117	0.017321
560.939536	0.017530
561.152937	0.017520
561.366319	0.017221
561.579683	0.016907
561.793029	0.016662
562.006357	0.016538
562.219667	0.016286
562.432958	0.015965
562.646231	0.016028
562.859486	0.015944
563.072723	0.016127
563.285941	0.016620
563.499141	0.016959
563.712323	0.016783
563.925487	0.017086
564.138632	0.017394
564.351760	0.017596
564.564869	0.017852
564.777960	0.018252
564.991032	0.018130
565.204087	0.018144
565.417123	0.018124
565.630141	0.018265
565.843140	0.018288
566.056122	0.018250
566.269085	0.018274
566.482030	0.017930
566.694957	0.017830
566.907866	0.017860
567.120756	0.017842
567.333628	0.017933
567.546482	0.017898
567.759318	0.018199
567.972135	0.018274
568.184935	0.018384
568.397716	0.018510
568.610478	0.018173
568.823223	0.017917
569.035949	0.017996
569.248657	0.017813
569.461347	0.017933
569.674019	0.017735
569.886672	0.017850
570.099308	0.017695
570.311925	0.017551
570.524523	0.017941
570.737104	0.018345
570.949666	0.018373
571.162210	0.018339
571.374736	0.018122
571.587244	0.018076
571.799733	0.018171
572.012205	0.018494
572.224658	0.018841
572.437092	0.018799
572.649509	0.018719
572.861907	0.018876
573.074287	0.019193
573.286649	0.019357
573.498993	0.019454
573.711318	0.019317
573.923625	0.019158
574.135914	0.018729
574.348185	0.018675
574.560438	0.018762
574.772672	0.018581
574.984888	0.018310
575.197086	0.018211
575.409266	0.018407
575.621427	0.018539
575.833570	0.018541
576.045695	0.018653
576.257802	0.018671
576.469890	0.018411
576.681961	0.018547
576.894013	0.018746
577.106046	0.019017
577.318062	0.018775
577.530059	0.018628
577.742039	0.019058
577.954000	0.019095
578.165942	0.019090
578.377867	0.019196
578.589773	0.019277
578.801661	0.019501
579.013531	0.019279
579.225382	0.019402
579.437216	0.019452
579.649031	0.019150
579.860828	0.019550
580.072606	0.019494
580.284367	0.019626
580.496109	0.019728
580.707833	0.019661
580.919539	0.019786
581.131227	0.019685
581.342896	0.019969
581.554547	0.020030
581.766180	0.019888
581.977795	0.020317
582.189391	0.020891
582.400969	0.020905
582.612529	0.021058
582.824071	0.021244
583.035595	0.021539
583.247100	0.021723
583.458587	0.021703
583.670056	0.021582
583.881506	0.021472
584.092939	0.021194
584.304353	0.021279
584.515749	0.021032
584.727127	0.020895
584.938486	0.020842
585.149828	0.020613
585.361151	0.020670
585.572456	0.020754
585.783742	0.020820
585.995011	0.020702
586.206261	0.020776
586.417493	0.020907
586.628706	0.020834
586.839902	0.020767
587.051079	0.020969
587.262238	0.020789
587.473379	0.020860
587.684502	0.020806
587.895606	0.020879
588.106692	0.020721
588.317760	0.020791
588.528810	0.021299
588.739841	0.021245
588.950855	0.021050
589.161850	0.020956
589.372827	0.020743
589.583785	0.020484
589.794726	0.020399
590.005648	0.020275
590.216552	0.020335
590.427437	0.020219
590.638305	0.020129
590.849154	0.020070
591.059985	0.020075
591.270798	0.020310
591.481592	0.020618
591.692369	0.020952
591.903127	0.021012
592.113867	0.021065
592.324588	0.021037
592.535292	0.021356
592.745977	0.021402
592.956644	0.021788
593.167293	0.021829
593.377923	0.021968
593.588536	0.021862
593.799130	0.021946
594.009706	0.021975
594.220263	0.021817
594.430803	0.022010
594.641324	0.022357
594.851827	0.022369
595.062312	0.022317
595.272778	0.022087
595.483227	0.021982
595.693657	0.021981
595.904069	0.021959
596.114462	0.021963
596.324838	0.021687
596.535195	0.021253
596.745534	0.021450
596.955855	0.021337
597.166157	0.021247
597.376441	0.021278
597.586707	0.021205
597.796955	0.021066
598.007185	0.021160
598.217396	0.021088
598.427589	0.021416
598.637764	0.021274
598.847921	0.021642
599.058060	0.021922
599.268180	0.022185
599.478282	0.022231
599.688366	0.022288
599.898431	0.022470
600.108479	0.022727
600.318508	0.022654
600.528519	0.022623
600.738511	0.022717
600.948486	0.022714
601.158442	0.022259
601.368380	0.022587
601.578300	0.022639
601.788202	0.022452
601.998085	0.022420
602.207950	0.022237
602.417797	0.022132
602.627626	0.021891
602.837436	0.021979
603.047228	0.022328
603.257002	0.022222
603.466758	0.022392
603.676496	0.022352
603.886215	0.022447
604.095916	0.022607
604.305599	0.022609
604.515264	0.022880
604.724910	0.022756
604.934538	0.022835
605.144148	0.022596
605.353740	0.022646
605.563314	0.022758
605.772869	0.022570
605.982406	0.022601
606.191925	0.022743
606.401425	0.022530
606.610908	0.022613
606.820372	0.022589
607.029818	0.022696
607.239246	0.022689
607.448655	0.022801
607.658047	0.022909
607.867420	0.022874
608.076775	0.022836
608.286111	0.022824
608.495430	0.022767
608.704730	0.022599
608.914012	0.022665
609.123275	0.022459
609.332521	0.022724
609.541748	0.023058
609.750957	0.023235
609.960148	0.023252
610.169321	0.023339
610.378475	0.023207
610.587611	0.023236
610.796729	0.023453
611.005829	0.023736
611.214910	0.023634
611.423974	0.023202
611.633019	0.023224
611.842045	0.023477
612.051054	0.023425
612.260044	0.023632
612.469017	0.023701
612.677970	0.023591
612.886906	0.023394
613.095824	0.023108
613.304723	0.023542
613.513604	0.023553
613.722467	0.023369
613.931311	0.023530
614.140138	0.023381
614.348946	0.023543
614.557736	0.023680
614.766507	0.023718
614.975261	0.023796
615.183996	0.023782
615.392713	0.023817
615.601412	0.023938
615.810092	0.023843
616.018754	0.024135
616.227399	0.024228
616.436024	0.024083
616.644632	0.024287
616.853222	0.024461
617.061793	0.024396
617.270346	0.024354
617.478880	0.024534
617.687397	0.024740
617.895895	0.024908
618.104375	0.024841
618.312837	0.025334
618.521281	0.025100
618.729706	0.025125
618.938113	0.025143
619.146502	0.025143
619.354873	0.024869
619.563226	0.024888
619.771560	0.024669
619.979876	0.024771
620.188174	0.024304
620.396453	0.024373
620.604715	0.024396
620.812958	0.024405
621.021183	0.024471
621.229390	0.024580
621.437578	0.024561
621.645748	0.024622
621.853900	0.024512
622.062034	0.024667
622.270150	0.024692
622.478247	0.024747
622.686326	0.024631
622.894387	0.024772
623.102430	0.024885
623.310454	0.024756
623.518461	0.024736
623.726449	0.024948
623.934418	0.024925
624.142370	0.025114
624.350303	0.025014
624.558218	0.025052
624.766115	0.025001
624.973994	0.025105
625.181855	0.025060
625.389697	0.025056
625.597521	0.024985
625.805327	0.025046
626.013114	0.024987
626.220883	0.025036
626.428634	0.025063
626.636367	0.025097
626.844082	0.024953
627.051778	0.025075
627.259457	0.025412
627.467117	0.025461
627.674758	0.025576
627.882382	0.025804
628.089987	0.025808
628.297574	0.025908
628.505143	0.025851
628.712694	0.025951
628.920226	0.025872
629.127740	0.025935
629.335236	0.026040
629.542714	0.026120
629.750174	0.025950
629.957615	0.026109
630.165038	0.026137
630.372443	0.026248
630.579829	0.026094
630.787198	0.026296
630.994548	0.026272
631.201880	0.026194
631.409194	0.026089
631.616489	0.026140
631.823766	0.026107
632.031025	0.026127
632.238266	0.026078
632.445489	0.026086
632.652693	0.025914
632.859879	0.025636
633.067047	0.025648
633.274197	0.025491
633.481329	0.025637
633.688442	0.025714
633.895537	0.025678
634.102614	0.025659
634.309672	0.025836
634.516713	0.026118
634.723735	0.026322
634.930739	0.026219
635.137724	0.026251
635.344692	0.026247
635.551641	0.026282
635.758572	0.026299
635.965485	0.026373
636.172379	0.026514
636.379256	0.026455
636.586114	0.026587
636.792954	0.026668
636.999775	0.026868
637.206579	0.026966
637.413364	0.027040
637.620131	0.027237
637.826880	0.027329
638.033610	0.027328
638.240323	0.027500
638.447017	0.027301
638.653692	0.027422
638.860350	0.027269
639.066990	0.027319
639.273611	0.027221
639.480214	0.027033
639.686798	0.027017
639.893365	0.026816
640.099913	0.026697
640.306443	0.026802
640.512955	0.026837
640.719449	0.027018
640.925924	0.026887
641.132381	0.027061
641.338820	0.027199
641.545241	0.027249
641.751644	0.027237
641.958028	0.027233
642.164394	0.027403
642.370742	0.027277
642.577071	0.027233
642.783383	0.027139
642.989676	0.026970
643.195951	0.026906
643.402207	0.026953
643.608446	0.027253
643.814666	0.027346
644.020868	0.027241
644.227052	0.027371
644.433218	0.027529
644.639365	0.027621
644.845494	0.027689
645.051605	0.027668
645.257698	0.027635
645.463772	0.027618
645.669828	0.027683
645.875866	0.027708
646.081886	0.027586
646.287888	0.027565
646.493871	0.027526
646.699836	0.027635
646.905783	0.027590
647.111712	0.027664
647.317622	0.027476
647.523514	0.027434
647.729388	0.027447
647.935244	0.027580
648.141082	0.027775
648.346901	0.027817
648.552702	0.027590
648.758485	0.027855
648.964250	0.028005
649.169996	0.028287
649.375724	0.028254
649.581434	0.028337
649.787126	0.028464
649.992800	0.028423
650.198455	0.028615
650.404092	0.028918
650.609711	0.028894
650.815311	0.028915
651.020894	0.028990
651.226458	0.029087
651.432004	0.029058
651.637532	0.028931
651.843041	0.028996
652.048532	0.028860
652.254006	0.028686
652.459460	0.028566
652.664897	0.028382
652.870315	0.028107
653.075716	0.027979
653.281097	0.027849
653.486461	0.027973
653.691807	0.027711
653.897134	0.027849
654.102443	0.028001
654.307734	0.028126
654.513006	0.028241
654.718261	0.028353
654.923497	0.028474
655.128715	0.028536
655.333915	0.028514
655.539096	0.028706
655.744259	0.028666
655.949404	0.028724
656.154531	0.028812
656.359640	0.028934
656.564730	0.029029
656.769802	0.029104
656.974856	0.029379
657.179892	0.029439
657.384909	0.029413
657.589908	0.029633
657.794889	0.029708
657.999852	0.029800
658.204797	0.029619
658.409723	0.029622
658.614631	0.029668
658.819521	0.029527
659.024393	0.029566
659.229246	0.029638
659.434081	0.029492
659.638898	0.029453
659.843697	0.029477
660.048478	0.029732
660.253240	0.029712
660.457984	0.029637
660.662710	0.029796
660.867417	0.029896
661.072107	0.029870
661.276778	0.029869
661.481431	0.029984
661.686066	0.029906
661.890682	0.029856
662.095281	0.030141
662.299861	0.030173
662.504422	0.030081
662.708966	0.030096
662.913491	0.030190
663.117999	0.030267
663.322488	0.030116
663.526958	0.030053
663.731411	0.030100
663.935845	0.029730
664.140261	0.029934
664.344659	0.029918
664.549038	0.029897
664.753400	0.029999
664.957743	0.030096
665.162068	0.030259
665.366375	0.030531
665.570663	0.030570
665.774933	0.030941
665.979185	0.031084
666.183419	0.031257
666.387635	0.031272
666.591832	0.031384
666.796011	0.031204
667.000172	0.031314
667.204315	0.031174
667.408439	0.031183
667.612545	0.031160
667.816634	0.030993
668.020703	0.030963
668.224755	0.031040
668.428788	0.031011
668.632803	0.031346
668.836800	0.031318
669.040779	0.031535
669.244739	0.031598
669.448681	0.031842
669.652605	0.032085
669.856511	0.032265
670.060399	0.032466
670.264268	0.032330
670.468119	0.032319
670.671952	0.032374
670.875767	0.032313
671.079563	0.032443
671.283341	0.032287
671.487101	0.032253
671.690843	0.032108
671.894567	0.032096
672.098272	0.032196
672.301959	0.032248
672.505628	0.032193
672.709278	0.032169
672.912911	0.032132
673.116525	0.032031
673.320121	0.032049
673.523699	0.032005
673.727258	0.031813
673.930799	0.031831
674.134322	0.031801
674.337827	0.031942
674.541314	0.032108
674.744782	0.032252
674.948232	0.032413
675.151664	0.032266
675.355078	0.032346
675.558474	0.032429
675.761851	0.032459
675.965210	0.032557
676.168551	0.032426
676.371873	0.032381
676.575178	0.032300
676.778464	0.032458
676.981732	0.032616
677.184981	0.032810
677.388213	0.032868
677.591426	0.032978
677.794621	0.032892
677.997798	0.032907
678.200956	0.032936
678.404097	0.032957
678.607219	0.032731
678.810323	0.032724
679.013408	0.032524
679.216476	0.032398
679.419525	0.032404
679.622556	0.032361
679.825569	0.032501
680.028563	0.032481
680.231540	0.032383
680.434498	0.032470
680.637438	0.032498
680.840359	0.032542
681.043263	0.032764
681.246148	0.032766
681.449015	0.032877
681.651864	0.032886
681.854694	0.032910
682.057506	0.033121
682.260301	0.033199
682.463076	0.033227
682.665834	0.033396
682.868573	0.033473
683.071295	0.033487
683.273998	0.033457
683.476682	0.033464
683.679349	0.033712
683.881997	0.033593
684.084627	0.033504
684.287239	0.033566
684.489833	0.033555
684.692408	0.033487
684.894965	0.033527
685.097504	0.033607
685.300025	0.033736
685.502527	0.033735
685.705012	0.033831
685.907478	0.033987
686.109925	0.034017
686.312355	0.034168
686.514766	0.034204
686.717159	0.034329
686.919534	0.034577
687.121891	0.034486
687.324230	0.034402
687.526550	0.034441
687.728852	0.034517
687.931136	0.034434
688.133401	0.034427
688.335649	0.034409
688.537878	0.034367
688.740089	0.034204
688.942281	0.034274
689.144456	0.034317
689.346612	0.034211
689.548750	0.034063
689.750870	0.034268
689.952971	0.034140
690.155055	0.034106
690.357120	0.034207
690.559167	0.034206
690.761195	0.034066
690.963206	0.034000
691.165198	0.033942
691.367172	0.034054
691.569128	0.033837
691.771065	0.034013
691.972984	0.033910
692.174885	0.033870
692.376768	0.033864
692.578633	0.033757
692.780479	0.033824
692.982308	0.033940
693.184118	0.033962
693.385909	0.034256
693.587683	0.034149
693.789438	0.034398
693.991175	0.034256
694.192894	0.034179
694.394595	0.034451
694.596277	0.034434
694.797941	0.034515
694.999587	0.034479
695.201215	0.034273
695.402824	0.034186
695.604416	0.034055
695.805989	0.034154
696.007543	0.034243
696.209080	0.034266
696.410598	0.034300
696.612099	0.034344
696.813580	0.034406
697.015044	0.034399
697.216490	0.034494
697.417917	0.034707
697.619326	0.034838
697.820717	0.034992
698.022089	0.035010
698.223444	0.035200
698.424780	0.035144
698.626098	0.035111
698.827397	0.035247
699.028679	0.035387
699.229942	0.035449
699.431187	0.035365
699.632414	0.035334
699.833622	0.035379
700.034813	0.035255
700.235985	0.035255
700.437139	0.035295
700.638274	0.035279
700.839392	0.035289
701.040491	0.035227
701.241572	0.035246
701.442635	0.035255
701.643679	0.035173
701.844706	0.035308
702.045714	0.035203
702.246704	0.035187
702.447675	0.035227
702.648629	0.035145
702.849564	0.035108
703.050481	0.035164
703.251380	0.035005
703.452260	0.034883
703.653122	0.034624
703.853966	0.034731
704.054792	0.034736
704.255600	0.034749
704.456389	0.034744
704.657160	0.034758
704.857913	0.034678
705.058648	0.034681
705.259365	0.034730
705.460063	0.034777
705.660743	0.034865
705.861405	0.034836
706.062048	0.034790
706.262674	0.034863
706.463281	0.034776
706.663870	0.034548
706.864441	0.034642
707.064993	0.034624
707.265527	0.034586
707.466043	0.034726
707.666541	0.034800
707.867021	0.034766
708.067482	0.034680
708.267925	0.034993
708.468350	0.035398
708.668757	0.035345
708.869145	0.035555
709.069516	0.035894
709.269868	0.035750
709.470201	0.035815
709.670517	0.035967
709.870814	0.036143
710.071093	0.036115
710.271354	0.036236
710.471597	0.036317
710.671821	0.036259
710.872028	0.035901
711.072216	0.036055
711.272385	0.035967
711.472537	0.035932
711.672670	0.036012
711.872785	0.035994
712.072882	0.035926
712.272961	0.036092
712.473021	0.036326
712.673063	0.036465
712.873087	0.036351
713.073093	0.036468
713.273081	0.036447
713.473050	0.036259
713.673001	0.035974
713.872934	0.035782
714.072849	0.035729
714.272745	0.035624
714.472623	0.035752
714.672483	0.035784
714.872325	0.035781
715.072148	0.035898
715.271954	0.035901
715.471741	0.036230
715.671509	0.036315
715.871260	0.036274
716.070992	0.036107
716.270707	0.035930
716.470403	0.035820
716.670080	0.035817
716.869740	0.035567
717.069381	0.035504
717.269004	0.035321
717.468609	0.035242
717.668195	0.035068
717.867764	0.035196
718.067314	0.035355
718.266846	0.035405
718.466360	0.035375
718.665855	0.035512
718.865332	0.035635
719.064791	0.035583
719.264232	0.035503
719.463655	0.035625
719.663059	0.035570
719.862445	0.035318
720.061813	0.035394
720.261163	0.035297
720.460494	0.035099
720.659807	0.035094
720.859102	0.035105
721.058379	0.035126
721.257638	0.034956
721.456878	0.034900
721.656100	0.034940
721.855304	0.034664
722.054490	0.034684
722.253657	0.034748
722.452806	0.034819
722.651937	0.034819
722.851050	0.034890
723.050145	0.034870
723.249221	0.034820
723.448279	0.034756
723.647319	0.034762
723.846340	0.034700
724.045344	0.034751
724.244329	0.034584
724.443296	0.034529
724.642245	0.034452
724.841175	0.034646
725.040088	0.034714
725.238982	0.034730
725.437857	0.034988
725.636715	0.035125
725.835554	0.035136
726.034376	0.035137
726.233179	0.035121
726.431963	0.035119
726.630730	0.035097
726.829478	0.034955
727.028208	0.034859
727.226920	0.034632
727.425614	0.034600
727.624289	0.034496
727.822946	0.034484
728.021585	0.034455
728.220206	0.034411
728.418808	0.034401
728.617392	0.034435
728.815958	0.034637
729.014506	0.034781
729.213036	0.034698
729.411547	0.034864
729.610040	0.034900
729.808515	0.034785
730.006972	0.034800
730.205410	0.034664
730.403831	0.034674
730.602233	0.034704
730.800616	0.034735
730.998982	0.034917
731.197329	0.034753
731.395658	0.034647
731.593969	0.034829
731.792262	0.034657
731.990536	0.034763
732.188793	0.034819
732.387031	0.034827
732.585250	0.034788
732.783452	0.034762
732.981635	0.034841
733.179800	0.034824
733.377947	0.034611
733.576076	0.034756
733.774186	0.034663
733.972278	0.034699
734.170352	0.034550
734.368408	0.034345
734.566446	0.034134
734.764465	0.033987
734.962466	0.033996
735.160449	0.034240
735.358413	0.034543
735.556360	0.034342
735.754288	0.034194
735.952198	0.034170
736.150090	0.034036
736.347963	0.033868
736.545818	0.033956
736.743655	0.033955
736.941474	0.033767
737.139275	0.033581
737.337057	0.033838
737.534821	0.033777
737.732567	0.033724
737.930295	0.033901
738.128005	0.033985
738.325696	0.034060
738.523369	0.034204
738.721024	0.034297
738.918660	0.034143
739.116279	0.034077
739.313879	0.034226
739.511461	0.034243
739.709024	0.034292
739.906570	0.034406
740.104097	0.034256
740.301606	0.033851
740.499097	0.033752
740.696569	0.033661
740.894024	0.033613
741.091460	0.033399
741.288878	0.033317
741.486277	0.033241
741.683659	0.033182
741.881022	0.033188
742.078367	0.033397
742.275694	0.033283
742.473002	0.033296
742.670293	0.033236
742.867565	0.033345
743.064819	0.033450
743.262054	0.033436
743.459272	0.033419
743.656471	0.033303
743.853652	0.033239
744.050815	0.033348
744.247959	0.033430
744.445085	0.033427
744.642194	0.033238
744.839283	0.033222
745.036355	0.033218
745.233408	0.033233
745.430444	0.033185
745.627461	0.033224
745.824459	0.033097
746.021440	0.033022
746.218402	0.033032
746.415346	0.033231
746.612272	0.033037
746.809180	0.032853
747.006069	0.032676
747.202940	0.032544
747.399793	0.032385
747.596628	0.032364
747.793444	0.032178
747.990243	0.032089
748.187023	0.032051
748.383784	0.032074
748.580528	0.032270
748.777253	0.032472
748.973960	0.032698
749.170649	0.032683
749.367320	0.032804
749.563973	0.032848
749.760607	0.032822
749.957223	0.032624
750.153821	0.032681
750.350400	0.032700
750.546962	0.032551
750.743505	0.032379
750.940030	0.032431
751.136536	0.032238
751.333025	0.032245
751.529495	0.032244
751.725947	0.032221
751.922381	0.032227
752.118796	0.032114
752.315194	0.031952
752.511573	0.031994
752.707934	0.031908
752.904276	0.032022
753.100601	0.031994
753.296907	0.031953
753.493195	0.032036
753.689465	0.032082
753.885716	0.031984
754.081949	0.032106
754.278164	0.032138
754.474361	0.032389
754.670540	0.032393
754.866700	0.032497
755.062843	0.032544
755.258967	0.032644
755.455072	0.032495
755.651160	0.032561
755.847229	0.032566
756.043280	0.032520
756.239313	0.032249
756.435328	0.032191
756.631324	0.032210
756.827302	0.032253
757.023262	0.032188
757.219204	0.031987
757.415127	0.032087
757.611033	0.031983
757.806920	0.031969
758.002788	0.032046
758.198639	0.032127
758.394471	0.031952
758.590286	0.031866
758.786081	0.031756
758.981859	0.032052
759.177619	0.031839
759.373360	0.031991
759.569083	0.031955
759.764788	0.031888
759.960474	0.031811
760.156143	0.031803
760.351793	0.031779
760.547425	0.031734
760.743038	0.031689
760.938634	0.031600
761.134211	0.031569
761.329770	0.031595
761.525311	0.031701
761.720833	0.031707
761.916338	0.031672
762.111824	0.031528
762.307292	0.031574
762.502741	0.031449
762.698173	0.031623
762.893586	0.031282
763.088981	0.031286
763.284358	0.031372
763.479716	0.031070
763.675057	0.031164
763.870379	0.031487
764.065683	0.031533
764.260968	0.031517
764.456236	0.031503
764.651485	0.031675
764.846716	0.031814
765.041929	0.031705
765.237123	0.031979
765.432299	0.031913
765.627457	0.031676
765.822597	0.031478
766.017719	0.031552
766.212822	0.031638
766.407907	0.031705
766.602974	0.031731
766.798023	0.031507
766.993054	0.031375
767.188066	0.031611
767.383060	0.031728
767.578036	0.031843
767.772993	0.031855
767.967933	0.031771
768.162854	0.031855
768.357757	0.031664
768.552642	0.031854
768.747508	0.031941
768.942356	0.031840
769.137186	0.031848
769.331998	0.031929
769.526792	0.031868
769.721567	0.031789
769.916324	0.031793
770.111063	0.031758
770.305784	0.031761
770.500486	0.031743
770.695171	0.031584
770.889837	0.031554
771.084484	0.031567
771.279114	0.031601
771.473725	0.031717
771.668318	0.031508
771.862893	0.031476
772.057450	0.031379
772.251988	0.031512
772.446509	0.031676
772.641011	0.031590
772.835494	0.031751
773.029960	0.031688
773.224407	0.031498
773.418836	0.031486
773.613247	0.031524
773.807640	0.031605
774.002014	0.031489
774.196370	0.031407
774.390708	0.031414
774.585028	0.031206
774.779330	0.031250
774.973613	0.031237
775.167878	0.031445
775.362125	0.031250
775.556354	0.030947
775.750564	0.030782
775.944756	0.030688
776.138930	0.030638
776.333086	0.030489
776.527223	0.030552
776.721343	0.030565
776.915444	0.030449
777.109526	0.030516
777.303591	0.030784
777.497637	0.030930
777.691666	0.030946
777.885676	0.031034
778.079667	0.031239
778.273641	0.031067
778.467596	0.031294
778.661533	0.031371
778.855452	0.031494
779.049352	0.031411
779.243235	0.031338
779.437099	0.031361
779.630945	0.031139
779.824773	0.031002
780.018582	0.031210
780.212373	0.031013
780.406146	0.030847
780.599901	0.030914
780.793638	0.030984
780.987356	0.031256
781.181056	0.031275
781.374738	0.031552
781.568402	0.031404
781.762047	0.031278
781.955674	0.031303
782.149283	0.031525
782.342874	0.031512
782.536447	0.031510
782.730001	0.031537
782.923537	0.031468
783.117055	0.031287
783.310555	0.031470
783.504036	0.031536
783.697499	0.031576
783.890944	0.031494
784.084371	0.031271
784.277780	0.031266
784.471170	0.030994
784.664542	0.031044
784.857896	0.031297
785.051231	0.031377
785.244549	0.031442
785.437848	0.031636
785.631129	0.031560
785.824392	0.031803
786.017636	0.031860
786.210863	0.031985
786.404071	0.031845
786.597260	0.031702
786.790432	0.031648
786.983585	0.031571
787.176721	0.031476
787.369838	0.031552
787.562936	0.031558
787.756017	0.031500
787.949079	0.031383
788.142123	0.031538
788.335149	0.031506
788.528156	0.031533
788.721146	0.031593
788.914117	0.031562
789.107070	0.031517
789.300005	0.031576
789.492921	0.031470
789.685819	0.031516
789.878699	0.031476
790.071561	0.031579
790.264405	0.031479
790.457230	0.031316
790.650037	0.031307
790.842826	0.031271
791.035597	0.031065
791.228349	0.031259
791.421084	0.031293
791.613800	0.031323
791.806497	0.031270
791.999177	0.031354
792.191838	0.031388
792.384481	0.031160
792.577106	0.031284
792.769713	0.031333
792.962301	0.031352
793.154871	0.031337
793.347423	0.031248
793.539957	0.031222
793.732473	0.031209
793.924970	0.031320
794.117449	0.031537
794.309910	0.031461
794.502353	0.031495
794.694777	0.031464
794.887183	0.031326
795.079571	0.031452
795.271941	0.031518
795.464293	0.031550
795.656626	0.031483
795.848941	0.031551
796.041238	0.031495
796.233516	0.031676
796.425777	0.031804
796.618019	0.031971
796.810243	0.031921
797.002449	0.031941
797.194636	0.032041
797.386805	0.032156
797.578956	0.032122
797.771089	0.032231
797.963204	0.032061
798.155300	0.031886
798.347378	0.031950
798.539438	0.032220
798.731480	0.032304
798.923503	0.032243
799.115509	0.032300
799.307496	0.032334
799.499465	0.032474
799.691415	0.032911
799.883348	0.033045
800.075262	0.032871
800.267158	0.032707
800.459035	0.032674
800.650895	0.032761
800.842736	0.032646
801.034559	0.032711
801.226364	0.032567
801.418150	0.032234
801.609919	0.032238
801.801669	0.032452
801.993401	0.032572
802.185114	0.032774
802.376810	0.032637
802.568487	0.032782
802.760146	0.032674
802.951787	0.032717
803.143409	0.032839
803.335014	0.032854
803.526600	0.032843
803.718168	0.032858
803.909717	0.032713
804.101249	0.033069
804.292762	0.033075
804.484257	0.033194
804.675734	0.033296
804.867192	0.033136
805.058632	0.033190
805.250054	0.033195
805.441458	0.033141
805.632844	0.033216
805.824211	0.032921
806.015561	0.033012
806.206891	0.033082
806.398204	0.033066
806.589499	0.033309
806.780775	0.033349
806.972033	0.033503
807.163273	0.033701
807.354495	0.033590
807.545698	0.033593
807.736883	0.033611
807.928050	0.033580
808.119199	0.033453
808.310329	0.033446
808.501441	0.033281
808.692535	0.033053
808.883611	0.032768
809.074669	0.032810
809.265708	0.033081
809.456729	0.032979
809.647732	0.032943
809.838717	0.033086
810.029683	0.033024
810.220632	0.032969
810.411562	0.033211
810.602474	0.033214
810.793367	0.033190
810.984242	0.033073
811.175100	0.033316
811.365938	0.033467
811.556759	0.033405
811.747562	0.033358
811.938346	0.033528
812.129112	0.033439
812.319860	0.033770
812.510589	0.033786
812.701300	0.033851
812.891994	0.033541
813.082668	0.033462
813.273325	0.033422
813.463964	0.033496
813.654584	0.033621
813.845186	0.033696
814.035769	0.033667
814.226335	0.033786
814.416882	0.033790
814.607411	0.033998
814.797922	0.033975
814.988415	0.034251
815.178889	0.034427
815.369345	0.034284
815.559783	0.034352
815.750203	0.034380
815.940605	0.034365
816.130988	0.034653
816.321353	0.034718
816.511700	0.034986
816.702028	0.035151
816.892339	0.035089
817.082631	0.035273
817.272905	0.035381
817.463161	0.035293
817.653398	0.035497
817.843617	0.035254
818.033819	0.035256
818.224001	0.035232
818.414166	0.035030
818.604312	0.035035
818.794440	0.035026
818.984550	0.035052
819.174642	0.035178
819.364716	0.035274
819.554771	0.035387
819.744808	0.035406
819.934827	0.035433
820.124827	0.035561
820.314810	0.035672
820.504774	0.035905
820.694720	0.035806
820.884647	0.035650
821.074557	0.035389
821.264448	0.035375
821.454321	0.035493
821.644176	0.035518
821.834012	0.035632
822.023831	0.035480
822.213631	0.035350
822.403413	0.035527
822.593176	0.035707
822.782922	0.035776
822.972649	0.035825
823.162358	0.035674
823.352049	0.035673
823.541721	0.035388
823.731376	0.035310
823.921012	0.035276
824.110629	0.035127
824.300229	0.035128
824.489811	0.035222
824.679374	0.035182
824.868919	0.035358
825.058445	0.035316
825.247954	0.035354
825.437444	0.035416
825.626916	0.035440
825.816370	0.035573
826.005806	0.035597
826.195223	0.035534
826.384622	0.035630
826.574003	0.035466
826.763366	0.035356
826.952711	0.035550
827.142037	0.035737
827.331345	0.035811
827.520635	0.035794
827.709906	0.035848
827.899160	0.035958
828.088395	0.035900
828.277612	0.036026
828.466810	0.036152
828.655991	0.036145
828.845153	0.036173
829.034297	0.036251
829.223423	0.036467
829.412531	0.036473
829.601620	0.036535
829.790691	0.036587
829.979744	0.036581
830.168779	0.036605
830.357795	0.036479
830.546793	0.036495
830.735773	0.036401
830.924735	0.036255
831.113679	0.036415
831.302604	0.036434
831.491511	0.036554
831.680400	0.036716
831.869271	0.036996
832.058123	0.037165
832.246957	0.037347
832.435773	0.037396
832.624571	0.037499
832.813351	0.037578
833.002112	0.037484
833.190855	0.037508
833.379580	0.037448
833.568287	0.037267
833.756975	0.037363
833.945645	0.037354
834.134297	0.037505
834.322931	0.037648
834.511547	0.037624
834.700144	0.037986
834.888723	0.038082
835.077284	0.038394
835.265826	0.038437
835.454351	0.038608
835.642857	0.038797
835.831345	0.038815
836.019815	0.038704
836.208266	0.038631
836.396699	0.038711
836.585114	0.038888
836.773511	0.038871
836.961890	0.039162
837.150250	0.039144
837.338592	0.039246
837.526916	0.039267
837.715222	0.039242
837.903510	0.039561
838.091779	0.039546
838.280030	0.039598
838.468263	0.039599
838.656477	0.039456
838.844674	0.039502
839.032852	0.039307
839.221012	0.039364
839.409153	0.039392
839.597277	0.039361
839.785382	0.039428
839.973469	0.039429
840.161538	0.039479
840.349589	0.039360
840.537621	0.039391
840.725635	0.039547
840.913631	0.039690
841.101609	0.040044
841.289568	0.040074
841.477509	0.040038
841.665432	0.039818
841.853337	0.039750
842.041224	0.040007
842.229092	0.039966
842.416942	0.040107
842.604774	0.040254
842.792588	0.040216
842.980383	0.040329
843.168160	0.040425
843.355919	0.040756
843.543660	0.040904
843.731382	0.041138
843.919087	0.041302
844.106773	0.041550
844.294441	0.041663
844.482090	0.041641
844.669722	0.041683
844.857335	0.041923
845.044930	0.042074
845.232507	0.042339
845.420065	0.042308
845.607605	0.042522
845.795127	0.042388
845.982631	0.042428
846.170117	0.042467
846.357584	0.042535
846.545033	0.042211
846.732464	0.042193
846.919877	0.042171
847.107272	0.042195
847.294648	0.042267
847.482006	0.042226
847.669346	0.041945
847.856667	0.042234
848.043971	0.042349
848.231256	0.043027
848.418523	0.043152
848.605771	0.043375
848.793002	0.043579
848.980214	0.043667
849.167408	0.043581
849.354584	0.043952
849.541742	0.044016
849.728881	0.044114
849.916002	0.043870
850.103105	0.043941
850.290190	0.044089
850.477256	0.044086
850.664304	0.044367
850.851334	0.044591
851.038346	0.044485
851.225340	0.044691
851.412315	0.044709
851.599272	0.044743
851.786211	0.044777
851.973132	0.044800
852.160034	0.044984
852.346918	0.044931
852.533784	0.045080
852.720632	0.045339
852.907462	0.045304
853.094273	0.045345
853.281066	0.045631
853.467841	0.045879
853.654598	0.045701
853.841336	0.045871
854.028056	0.045950
854.214758	0.045929
854.401442	0.046073
854.588107	0.046000
854.774755	0.046342
854.961384	0.046351
855.147995	0.046379
855.334587	0.046556
855.521162	0.046215
855.707718	0.046250
855.894256	0.046467
856.080775	0.046543
856.267277	0.046594
856.453760	0.046215
856.640225	0.046187
856.826672	0.046207
857.013101	0.046125
857.199511	0.046495
857.385903	0.046423
857.572277	0.046350
857.758633	0.046380
857.944970	0.046634
858.131290	0.046850
858.317591	0.046982
858.503873	0.047197
858.690138	0.047362
858.876384	0.047430
859.062612	0.047673
859.248822	0.048020
859.435014	0.048291
859.621188	0.048211
859.807343	0.048458
859.993480	0.048488
860.179599	0.048597
860.365699	0.048833
860.551781	0.048788
860.737846	0.048717
860.923891	0.048695
861.109919	0.048366
861.295929	0.048604
861.481920	0.048533
861.667893	0.048546
861.853848	0.048348
862.039784	0.048195
862.225702	0.048551
862.411603	0.048491
862.597484	0.048575
862.783348	0.048774
862.969193	0.048878
863.155021	0.048999
863.340830	0.049168
863.526620	0.049412
863.712393	0.049665
863.898147	0.049545
864.083883	0.049853
864.269601	0.049851
864.455301	0.050305
864.640982	0.050203
864.826645	0.050257
865.012290	0.050421
865.197917	0.050235
865.383526	0.050154
865.569116	0.050040
865.754688	0.049959
865.940242	0.050241
866.125777	0.049907
866.311295	0.050030
866.496794	0.050276
866.682275	0.050249
866.867737	0.050464
867.053182	0.050825
867.238608	0.051101
867.424016	0.051178
867.609406	0.051235
867.794778	0.051488
867.980131	0.051688
868.165466	0.051348
868.350783	0.051647
868.536082	0.051718
868.721362	0.051716
868.906625	0.051635
869.091869	0.051605
869.277094	0.051434
869.462302	0.051374
869.647491	0.051300
869.832662	0.051665
870.017815	0.051341
870.202950	0.051337
870.388066	0.051363
870.573165	0.051729
870.758245	0.052009
870.943306	0.052226
871.128350	0.052342
871.313375	0.052507
871.498382	0.052551
871.683371	0.052796
871.868342	0.052858
872.053294	0.052832
872.238229	0.052662
872.423144	0.052535
872.608042	0.052484
872.792922	0.052582
872.977783	0.052554
873.162626	0.052700
873.347451	0.052767
873.532258	0.053128
873.717046	0.052947
873.901816	0.052888
874.086568	0.053509
874.271302	0.053553
874.456017	0.053663
874.640715	0.053862
874.825394	0.053726
875.010055	0.053539
875.194697	0.053343
875.379322	0.053401
875.563928	0.053508
875.748516	0.053315
875.933085	0.053289
876.117637	0.053087
876.302170	0.052809
876.486685	0.053066
876.671182	0.053166
876.855661	0.053145
877.040121	0.053314
877.224563	0.053299
877.408987	0.053062
877.593393	0.053263
877.777780	0.053372
877.962150	0.053713
878.146501	0.053603
878.330833	0.053543
878.515148	0.053582
878.699444	0.053834
878.883722	0.053873
879.067982	0.054009
879.252224	0.053976
879.436447	0.054017
879.620653	0.053959
879.804840	0.053887
879.989008	0.054006
880.173159	0.053952
880.357291	0.053823
880.541405	0.053958
880.725501	0.054188
880.909579	0.054216
881.093638	0.054427
881.277680	0.054573
881.461703	0.054563
881.645707	0.054344
881.829694	0.054337
882.013662	0.054174
882.197612	0.054261
882.381544	0.054046
882.565458	0.053919
882.749353	0.053904
882.933230	0.053529
883.117089	0.053627
883.300930	0.054150
883.484753	0.054285
883.668557	0.054486
883.852343	0.054504
884.036111	0.054545
884.219861	0.054711
884.403592	0.054589
884.587305	0.054742
884.771000	0.054605
884.954677	0.054421
885.138335	0.054405
885.321976	0.054351
885.505598	0.054424
885.689201	0.054332
885.872787	0.054505
886.056354	0.054540
886.239904	0.054832
886.423434	0.055250
886.606947	0.055191
886.790442	0.055233
886.973918	0.055157
887.157376	0.055034
887.340816	0.054941
887.524237	0.054436
887.707641	0.054476
887.891026	0.053937
888.074393	0.053348
888.257741	0.053495
888.441072	0.053469
888.624384	0.053545
888.807678	0.053627
888.990954	0.053659
889.174211	0.053949
889.357451	0.054009
889.540672	0.054155
889.723875	0.054753
889.907059	0.054843
890.090226	0.054679
890.273374	0.054867
890.456504	0.054969
890.639616	0.055111
890.822709	0.055188
891.005785	0.055335
891.188842	0.055603
891.371881	0.055583
891.554901	0.055468
891.737904	0.055678
891.920888	0.055504
892.103854	0.055641
892.286802	0.055590
892.469731	0.055714
892.652643	0.055718
892.835536	0.055717
893.018410	0.055823
893.201267	0.055615
893.384106	0.055508
893.566926	0.055689
893.749728	0.055258
893.932511	0.055397
894.115277	0.055357
894.298024	0.055063
894.480753	0.054916
894.663464	0.054863
894.846157	0.055093
895.028831	0.055275
895.211487	0.055073
895.394125	0.055656
895.576745	0.055692
895.759346	0.055592
895.941930	0.055890
896.124495	0.056153
896.307041	0.055947
896.489570	0.055962
896.672080	0.056030
896.854573	0.056106
897.037046	0.055465
897.219502	0.055472
897.401940	0.055312
897.584359	0.054988
897.766760	0.054770
897.949143	0.054625
898.131507	0.054513
898.313854	0.054413
898.496182	0.054205
898.678492	0.054168
898.860783	0.053964
899.043057	0.054162
899.225312	0.054164
899.407549	0.054310
899.589768	0.054167
899.771968	0.054049
899.954151	0.053983
900.136315	0.054193
900.318461	0.054056
900.500588	0.054338
900.682698	0.054147
900.864789	0.053653
901.046862	0.053069
901.228917	0.053025
901.410953	0.052862
901.592971	0.052738
901.774972	0.052510
901.956953	0.052735
902.138917	0.052313
902.320862	0.052169
902.502790	0.052266
902.684699	0.052688
902.866589	0.052922
903.048462	0.052763
903.230316	0.052875
903.412152	0.052947
903.593970	0.053000
903.775770	0.052870
903.957551	0.052795
904.139314	0.053327
904.321059	0.053013
904.502786	0.052636
904.684494	0.052618
904.866185	0.052292
905.047857	0.052324
905.229510	0.051958
905.411146	0.051966
905.592763	0.052023
905.774363	0.051900
905.955943	0.051849
906.137506	0.051796
906.319051	0.052057
906.500577	0.052106
906.682085	0.051976
906.863575	0.052154
907.045046	0.052144
907.226500	0.052262
907.407935	0.051826
907.589352	0.051617
907.770750	0.051677
907.952131	0.051280
908.133493	0.051154
908.314837	0.050939
908.496163	0.050930
908.677470	0.051274
908.858760	0.051004
909.040031	0.051070
909.221284	0.051239
909.402518	0.051221
909.583735	0.051373
909.764933	0.051146
909.946113	0.050932
910.127275	0.050610
910.308418	0.049983
910.489544	0.049871
910.670651	0.049496
910.851740	0.049371
911.032810	0.049115
911.213863	0.048990
911.394897	0.048770
911.575913	0.048674
911.756911	0.048613
911.937890	0.048382
912.118851	0.048267
912.299794	0.048388
912.480719	0.048406
912.661626	0.048708
912.842514	0.048515
913.023384	0.048780
913.204236	0.049126
913.385070	0.049063
913.565886	0.049314
913.746683	0.048991
913.927462	0.049041
914.108223	0.048884
914.288965	0.048381
914.469690	0.047948
914.650396	0.048005
914.831084	0.047733
915.011754	0.047718
915.192405	0.047203
915.373038	0.047435
915.553653	0.047455
915.734250	0.047432
915.914829	0.047107
916.095389	0.047193
916.275931	0.046842
916.456455	0.046603
916.636961	0.046289
916.817448	0.046315
916.997917	0.046127
917.178368	0.045692
917.358801	0.045021
917.539216	0.045081
917.719612	0.044962
917.899990	0.044775
918.080350	0.044724
918.260692	0.044531
918.441015	0.044461
918.621320	0.044316
918.801607	0.043993
918.981876	0.044009
919.162127	0.043633
919.342359	0.043351
919.522573	0.043048
919.702769	0.042693
919.882947	0.042265
920.063106	0.042234
920.243247	0.041704
920.423370	0.041777
920.603475	0.041603
920.783562	0.041447
920.963630	0.041537
921.143680	0.041462
921.323712	0.041124
921.503725	0.041208
921.683721	0.040667
921.863698	0.040992
922.043657	0.040627
922.223598	0.040794
922.403520	0.040999
922.583424	0.040602
922.763311	0.040337
922.943178	0.040182
923.123028	0.039541
923.302859	0.039771
923.482673	0.039266
923.662467	0.039336
923.842244	0.038697
924.022003	0.038521
924.201743	0.038513
924.381465	0.038179
924.561169	0.038011
924.740854	0.038088
924.920522	0.037727
925.100171	0.037368
925.279802	0.036956
925.459414	0.036797
925.639009	0.036042
925.818585	0.035778
925.998143	0.035537
926.177683	0.035086
926.357205	0.034909
926.536708	0.034769
926.716193	0.035166
926.895660	0.034679
927.075109	0.034842
927.254539	0.034905
927.433951	0.034666
927.613345	0.034525
927.792721	0.034718
927.972079	0.034510
928.151418	0.034050
928.330739	0.032957
928.510042	0.033055
928.689327	0.032701
928.868593	0.032651
929.047841	0.032686
929.227071	0.032259
929.406283	0.031772
929.585476	0.031350
929.764652	0.030883
929.943809	0.030920
930.122948	0.030455
930.302068	0.030181
930.481171	0.029623
930.660255	0.028993
930.839321	0.029115
931.018369	0.029054
931.197398	0.028825
931.376409	0.028824
931.555402	0.028811
931.734377	0.028451
931.913334	0.028746
932.092272	0.028938
932.271192	0.028913
932.450094	0.028447
932.628978	0.028036
932.807844	0.027884
932.986691	0.027247
933.165520	0.026562
933.344331	0.025831
933.523123	0.024929
933.701898	0.024560
933.880654	0.024553
934.059392	0.024605
934.238111	0.024750
934.416813	0.025057
934.595496	0.024988
934.774161	0.025159
934.952808	0.025659
935.131437	0.025114
935.310047	0.024410
935.488639	0.023489
935.667213	0.023362
935.845769	0.023328
936.024306	0.022825
936.202825	0.023025
936.381326	0.022570
936.559809	0.021811
936.738274	0.021450
936.916720	0.021812
937.095148	0.022257
937.273558	0.021458
937.451950	0.020719
937.630323	0.020230
937.808678	0.019329
937.987015	0.019299
938.165334	0.019736
938.343635	0.019740
938.521917	0.019402
938.700181	0.018514
938.878427	0.019177
939.056655	0.019020
939.234864	0.019004
939.413055	0.019584
939.591228	0.019097
939.769383	0.018606
939.947519	0.018215
940.125638	0.017651
940.303738	0.017820
940.481820	0.016531
940.659883	0.016469
940.837929	0.016303
941.015956	0.014656
941.193965	0.014811
941.371955	0.013846
941.549928	0.013746
941.727882	0.013238
941.905818	0.013105
942.083736	0.012613
942.261636	0.011824
942.439517	0.010972
942.617380	0.012400
942.795225	0.011542
942.973052	0.011696
943.150860	0.011425
943.328651	0.011723
943.506423	0.010523
943.684176	0.010136
943.861912	0.010027
944.039629	0.009694
944.217328	0.009097
944.395009	0.008795
944.572672	0.009097
944.750317	0.009225
944.927943	0.008900
945.105551	0.009480
945.283141	0.008756
945.460712	0.008783
945.638265	0.008338
945.815801	0.006903
945.993317	0.007119
946.170816	0.007282
946.348297	0.006404
946.525759	0.005484
946.703203	0.003847
946.880629	0.004283
947.058036	0.002361
947.235425	0.003417
947.412797	0.003156
947.590149	0.001921
947.767484	0.000712
947.944800	0.000683
948.122099	0.001247
948.299379	0.003093
948.476640	0.004244
948.653884	0.005469
948.831109	0.005328
949.008316	0.006520
949.185505	0.007008
949.362676	0.007613
949.539828	0.007406
949.716962	0.007144
949.894078	0.007114
950.071176	0.005613
950.248256	0.005161
950.425317	0.003118
950.602360	0.003378
950.779385	0.003208
950.956391	0.002734
951.133380	0.002732
951.310350	0.002145
951.487302	0.001025
951.664235	0.001396
951.841151	0.002066
952.018048	0.003433
952.194927	0.002575
952.371788	0.002348
952.548631	0.002617
952.725455	0.001730
952.902261	0.002711
953.079049	0.002607
953.255819	0.002607
953.432570	0.002567
953.609303	0.002064
953.786018	0.002256
953.962715	0.002732
954.139394	0.001560
954.316054	0.002308
954.492696	0.000642
954.669320	0.000376
954.845926	-0.000992
955.022513	-0.000882
955.199083	-0.000459
955.375634	-0.000371
955.552166	-0.000911
955.728681	-0.001084
955.905177	-0.001302
956.081655	-0.001356
956.258115	-0.001005
956.434557	0.001159
956.610980	0.000219
956.787385	0.000560
956.963772	-0.000157
957.140141	0.001133
957.316492	0.001810
957.492824	0.003822
957.669138	0.004169
957.845434	0.003959
958.021712	0.002996
958.197971	0.003394
958.374212	0.003576
958.550435	0.004425
958.726640	0.003381
958.902826	0.003202
959.078995	0.001281
959.255145	0.002036
959.431277	0.002010
959.607390	0.001542
959.783486	0.000930
959.959563	-0.000255
960.135622	-0.000833
960.311662	-0.000504
960.487685	0.000367
960.663689	0.001831
960.839675	0.001795
961.015643	0.002180
961.191593	0.004675
961.367524	0.004743
961.543437	0.005206
961.719332	0.006027
961.895209	0.005604
962.071067	0.006080
962.246907	0.005175
962.422730	0.006241
962.598533	0.006392
962.774319	0.003708
962.950086	0.003146
963.125835	0.002091
963.301566	0.002102
963.477279	-0.000745
963.652973	-0.001304
963.828650	-0.002094
964.004308	-0.002280
964.179947	-0.000916
964.355569	0.000549
964.531172	0.002384
964.706757	0.004231
964.882324	0.003834
965.057873	0.008424
965.233403	0.009126
965.408916	0.010158
965.584410	0.008757
965.759885	0.007275
965.935343	0.007512
966.110782	0.006325
966.286203	0.006122
966.461606	0.006031
966.636991	0.006204
966.812357	0.004939
966.987705	0.004088
967.163035	0.004940
967.338347	0.005991
967.513641	0.005463
967.688916	0.006906
967.864173	0.007379
968.039412	0.006945
968.214632	0.005226
968.389835	0.006265
968.565019	0.006626
968.740185	0.006556
968.915333	0.006708
969.090462	0.008084
969.265573	0.006920
969.440667	0.007836
969.615741	0.008152
969.790798	0.009046
969.965836	0.008403
970.140856	0.009674
970.315858	0.009768
970.490842	0.008301
970.665808	0.007662
970.840755	0.008259
971.015684	0.007190
971.190595	0.007549
971.365487	0.006680
971.540362	0.007498
971.715218	0.007650
971.890056	0.007143
972.064875	0.007575
972.239677	0.007068
972.414460	0.006477
972.589225	0.005579
972.763972	0.005596
972.938700	0.006149
973.113411	0.006260
973.288103	0.004856
973.462777	0.005909
973.637432	0.005911
973.812070	0.005660
973.986689	0.004950
974.161290	0.006183
974.335873	0.005633
974.510437	0.007160
974.684984	0.006497
974.859512	0.007603
975.034022	0.008629
975.208513	0.010051
975.382987	0.011478
975.557442	0.012241
975.731879	0.011934
975.906298	0.013490
976.080698	0.012477
976.255080	0.012643
976.429445	0.012906
976.603790	0.012283
976.778118	0.012685
976.952427	0.011586
977.126719	0.010850
977.300992	0.010398
977.475246	0.009520
977.649483	0.008423
977.823701	0.008572
977.997901	0.008309
978.172083	0.006770
978.346247	0.004698
978.520392	0.004364
978.694519	0.006627
978.868628	0.007665
979.042719	0.008473
979.216791	0.009848
979.390845	0.010881
979.564882	0.010714
979.738899	0.011874
979.912899	0.012619
980.086880	0.011483
980.260843	0.010820
980.434788	0.010699
980.608715	0.010526
980.782623	0.009306
980.956514	0.009581
981.130386	0.010060
981.304240	0.009521
981.478075	0.007918
981.651892	0.010116
981.825692	0.009743
981.999472	0.010438
982.173235	0.008963
982.346980	0.010357
982.520706	0.008592
982.694414	0.008005
982.868104	0.008161
983.041775	0.008950
983.215428	0.008058
983.389064	0.007563
983.562680	0.006489
983.736279	0.007293
983.909860	0.006770
984.083422	0.007027
984.256966	0.007156
984.430491	0.006326
984.603999	0.007355
984.777488	0.006465
984.950959	0.007820
985.124412	0.008773
985.297847	0.008293
985.471263	0.007448
985.644661	0.007533
985.818041	0.007114
985.991403	0.007261
986.164747	0.007336
986.338072	0.008257
986.511379	0.007659
986.684668	0.006275
986.857938	0.007045
987.031191	0.007834
987.204425	0.007437
987.377641	0.007865
987.550839	0.008522
987.724018	0.006920
987.897179	0.007892
988.070322	0.007604
988.243447	0.007631
988.416554	0.007614
988.589642	0.009311
988.762712	0.010056
988.935764	0.009806
989.108798	0.008924
989.281813	0.010601
989.454811	0.009735
989.627790	0.009808
989.800751	0.010937
989.973693	0.011776
990.146617	0.009677
990.319524	0.008420
990.492412	0.007906
990.665281	0.008524
990.838133	0.007636
991.010966	0.007536
991.183781	0.009014
991.356578	0.008275
991.529356	0.007713
991.702117	0.008373
991.874859	0.008721
992.047583	0.008119
992.220288	0.008102
992.392976	0.008197
992.565645	0.008136
992.738296	0.005821
992.910929	0.006294
993.083543	0.005655
993.256139	0.005338
993.428718	0.005515
993.601277	0.007505
993.773819	0.008582
993.946342	0.009217
994.118848	0.009473
994.291335	0.011658
994.463803	0.010592
994.636254	0.011178
994.808686	0.010287
994.981100	0.011226
995.153496	0.010082
995.325874	0.008998
995.498233	0.008202
995.670574	0.007312
995.842897	0.006860
996.015202	0.006209
996.187488	0.006216
996.359757	0.008343
996.532007	0.007856
996.704239	0.007459
996.876452	0.007457
997.048648	0.008292
997.220825	0.008794
997.392984	0.007545
997.565124	0.008651
997.737247	0.007495
997.909351	0.005116
998.081437	0.004710
998.253505	0.005250
998.425554	0.005013
998.597586	0.005240
998.769599	0.005224
998.941594	0.004517
999.113571	0.004096
999.285529	0.005216
999.457469	0.007895
999.629391	0.007190
999.801295	0.008542
999.973181	0.007422
1000.145048	0.006285
1000.316897	0.005678
1000.488728	0.006881
1000.660541	0.007022
1000.832335	0.006376
1001.004111	0.004919
1001.175869	0.005227
1001.347609	0.005357
1001.519331	0.006544
1001.691034	0.007092
1001.862719	0.007457
1002.034386	0.007457
1002.206035	0.007506
1002.377665	0.009413
1002.549277	0.009951
1002.720871	0.010886
1002.892447	0.010141
1003.064004	0.009444
1003.235544	0.009545
1003.407065	0.009974
1003.578568	0.009717
1003.750052	0.009632
1003.921519	0.008400
1004.092967	0.008789
1004.264397	0.008242
1004.435809	0.007820
1004.607202	0.007309
1004.778577	0.006980
1004.949934	0.007563
1005.121273	0.008008
1005.292594	0.008369
1005.463896	0.008156
1005.635180	0.008334
1005.806446	0.008939
1005.977694	0.008846
1006.148923	0.009563
1006.320135	0.008372
1006.491328	0.007509
1006.662503	0.006921
1006.833659	0.006731
1007.004798	0.006437
1007.175918	0.004742
1007.347020	0.005102
1007.518103	0.005661
1007.689169	0.006605
1007.860216	0.008153
1008.031245	0.008672
1008.202256	0.008771
1008.373248	0.009412
1008.544223	0.008548
1008.715179	0.010661
1008.886117	0.009287
1009.057036	0.008607
1009.227938	0.008650
1009.398821	0.008305
1009.569686	0.008241
1009.740533	0.008618
1009.911361	0.007977
1010.082172	0.009847
1010.252964	0.008572
1010.423738	0.010321
1010.594493	0.010468
1010.765231	0.010225
1010.935950	0.010353
1011.106651	0.011230
1011.277334	0.011618
1011.447998	0.012432
1011.618645	0.011102
1011.789273	0.011745
1011.959882	0.010658
1012.130474	0.009908
1012.301048	0.009518
1012.471603	0.009262
1012.642140	0.007554
1012.812658	0.006490
1012.983159	0.005766
1013.153641	0.005657
1013.324105	0.003902
1013.494551	0.003823
1013.664979	0.005442
1013.835388	0.005348
1014.005779	0.006151
1014.176152	0.005911
1014.346507	0.006356
1014.516843	0.006942
1014.687162	0.007885
1014.857462	0.008774
1015.027744	0.008078
1015.198007	0.007200
1015.368252	0.007706
1015.538480	0.008396
1015.708689	0.009816
1015.878879	0.009554
1016.049052	0.010168
1016.219206	0.008950
1016.389342	0.008483
1016.559460	0.009329
1016.729559	0.008978
1016.899641	0.008227
1017.069704	0.007946
1017.239749	0.006393
1017.409775	0.006561
1017.579784	0.005923
1017.749774	0.005837
1017.919746	0.007136
1018.089700	0.007103
1018.259635	0.007504
1018.429553	0.006196
1018.599452	0.006345
1018.769333	0.007238
1018.939195	0.007148
1019.109040	0.007041
1019.278866	0.008699
1019.448674	0.007192
1019.618464	0.007177
1019.788235	0.006579
1019.957989	0.008799
1020.127724	0.007687
1020.297441	0.006104
1020.467139	0.005663
1020.636820	0.005078
1020.806482	0.004135
1020.976126	0.003737
1021.145752	0.004077
1021.315359	0.003800
1021.484948	0.004735
1021.654519	0.004197
1021.824072	0.005195
1021.993607	0.006081
1022.163123	0.006748
1022.332621	0.006804
1022.502101	0.007320
1022.671563	0.006348
1022.841007	0.006751
1023.010432	0.006031
1023.179839	0.005874
1023.349228	0.006210
1023.518598	0.006582
1023.687951	0.006200
1023.857285	0.006398
1024.026601	0.007017
1024.195899	0.006865
1024.365178	0.005612
1024.534439	0.004193
1024.703682	0.004443
1024.872907	0.005764
1025.042114	0.006285
1025.211302	0.006850
1025.380472	0.005511
1025.549624	0.004901
1025.718758	0.005196
1025.887873	0.006556
1026.056970	0.007936
1026.226049	0.008769
1026.395110	0.007319
1026.564153	0.006831
1026.733177	0.006759
1026.902183	0.008773
1027.071171	0.010076
1027.240141	0.009594
1027.409092	0.009469
1027.578026	0.008419
1027.746940	0.008834
1027.915837	0.008782
1028.084716	0.008232
1028.253576	0.008121
1028.422418	0.007191
1028.591242	0.007491
1028.760048	0.009390
1028.928835	0.010086
1029.097604	0.010921
1029.266355	0.009588
1029.435088	0.009596
1029.603803	0.008723
1029.772499	0.008365
1029.941177	0.007161
1030.109837	0.005586
1030.278478	0.004576
1030.447102	0.004370
1030.615707	0.003629
1030.784294	0.005200
1030.952863	0.004803
1031.121413	0.005465
1031.289945	0.005824
1031.458460	0.007607
1031.626955	0.008097
1031.795433	0.010062
1031.963892	0.009668
1032.132334	0.011138
1032.300756	0.009101
1032.469161	0.011307
1032.637548	0.011635
1032.805916	0.009308
1032.974266	0.009089
1033.142598	0.008769
1033.310911	0.007037
1033.479207	0.007615
1033.647484	0.007120
1033.815743	0.007333
1033.983983	0.005991
1034.152206	0.005641
1034.320410	0.007579
1034.488596	0.006552
1034.656764	0.007349
1034.824914	0.007088
1034.993045	0.004676
1035.161158	0.004728
1035.329253	0.005350
1035.497330	0.004383
1035.665388	0.003906
1035.833428	0.002855
1036.001450	0.004025
1036.169454	0.004810
1036.337440	0.004931
1036.505407	0.007657
1036.673356	0.006977
1036.841287	0.007885
1037.009200	0.009273
1037.177094	0.009480
1037.344970	0.009091
1037.512828	0.008922
1037.680668	0.007491
1037.848489	0.006813
1038.016293	0.005831
1038.184078	0.005807
1038.351845	0.004711
1038.519593	0.003916
1038.687324	0.004513
1038.855036	0.006889
1039.022730	0.006349
1039.190406	0.006871
1039.358063	0.007886
1039.525702	0.009652
1039.693323	0.010775
1039.860926	0.011537
1040.028511	0.012505
1040.196077	0.012363
1040.363625	0.012655
1040.531155	0.012024
1040.698667	0.012111
1040.866161	0.012856
1041.033636	0.011294
1041.201093	0.010227
1041.368532	0.009966
1041.535952	0.009180
1041.703355	0.009893
1041.870739	0.008678
1042.038105	0.009873
1042.205452	0.009318
1042.372782	0.007916
1042.540093	0.007775
1042.707386	0.007148
1042.874661	0.007576
1043.041918	0.008206
1043.209156	0.006841
1043.376376	0.007184
1043.543578	0.006799
1043.710762	0.005048
1043.877927	0.004974
1044.045074	0.006229
1044.212203	0.007046
1044.379314	0.006035
1044.546407	0.005387
1044.713481	0.005968
1044.880537	0.005368
1045.047575	0.005522
1045.214595	0.006591
1045.381596	0.005919
1045.548579	0.005157
1045.715544	0.003973
1045.882491	0.004438
1046.049420	0.004042
1046.216330	0.004552
1046.383222	0.003099
1046.550096	0.002981
1046.716951	0.003760
1046.883789	0.004909
1047.050608	0.006309
1047.217409	0.007144
1047.384192	0.005821
1047.550956	0.005621
1047.717703	0.004386
1047.884431	0.006046
1048.051140	0.005627
1048.217832	0.004334
1048.384505	0.005247
1048.551161	0.003173
1048.717798	0.003966
1048.884416	0.004815
1049.051017	0.005927
1049.217599	0.006459
1049.384163	0.006585
1049.550709	0.005212
1049.717237	0.006690
1049.883746	0.004240
1050.050237	0.004512
1050.216710	0.003100
1050.383165	0.003342
1050.549601	0.002266
1050.716019	0.003824
1050.882420	0.004236
1051.048801	0.004975
1051.215165	0.004796
1051.381510	0.004674
1051.547837	0.005652
1051.714146	0.006933
1051.880437	0.006584
1052.046709	0.007777
1052.212964	0.005864
1052.379200	0.004444
1052.545417	0.005403
1052.711617	0.004909
1052.877798	0.006574
1053.043961	0.006105
1053.210106	0.004852
1053.376233	0.004495
1053.542341	0.003857
1053.708432	0.004817
1053.874504	0.006115
1054.040557	0.006001
1054.206593	0.007646
1054.372610	0.007631
1054.538609	0.008491
1054.704590	0.010722
1054.870553	0.012080
1055.036497	0.011544
1055.202424	0.011129
1055.368331	0.009480
1055.534221	0.009865
1055.700093	0.008672
1055.865946	0.007992
1056.031781	0.006433
1056.197598	0.004575
1056.363397	0.003858
1056.529177	0.006139
1056.694939	0.004377
1056.860683	0.006185
1057.026409	0.005701
1057.192116	0.007911
1057.357806	0.006854
1057.523477	0.006419
1057.689130	0.006323
1057.854764	0.004938
1058.020381	0.002662
1058.185979	0.004195
1058.351559	0.002233
1058.517120	0.003690
1058.682664	0.001031
1058.848189	0.002734
1059.013696	0.003432
1059.179185	0.005370
1059.344656	0.006257
1059.510108	0.007665
1059.675542	0.006626
1059.840958	0.008704
1060.006356	0.006845
1060.171735	0.007031
1060.337096	0.006475
1060.502439	0.005333
1060.667764	0.003611
1060.833071	0.005374
1060.998359	0.005248
1061.163629	0.007718
1061.328881	0.007238
1061.494115	0.007444
1061.659330	0.006433
1061.824527	0.007899
1061.989706	0.009560
1062.154867	0.011145
1062.320010	0.010165
1062.485134	0.009054
1062.650240	0.005593
1062.815328	0.004389
1062.980398	0.003605
1063.145449	0.004526
1063.310482	0.003588
1063.475497	0.002657
1063.640494	0.001389
1063.805473	0.001925
1063.970433	0.003992
1064.135375	0.005386
1064.300299	0.006724
1064.465204	0.009346
1064.630092	0.009904
1064.794961	0.009383
1064.959812	0.009868
1065.124645	0.008984
1065.289459	0.008420
1065.454256	0.007424
1065.619034	0.006640
1065.783793	0.005191
1065.948535	0.004714
1066.113258	0.004835
1066.277964	0.005008
1066.442651	0.004580
1066.607319	0.005689
1066.771970	0.004028
1066.936602	0.004176
1067.101216	0.004029
1067.265812	0.005331
1067.430389	0.004002
1067.594949	0.002404
1067.759490	0.003529
1067.924013	0.004484
1068.088518	0.003952
1068.253004	0.005291
1068.417472	0.003659
1068.581922	0.005393
1068.746354	0.004622
1068.910768	0.004812
1069.075163	0.006093
1069.239540	0.005252
1069.403899	0.004702
1069.568240	0.004394
1069.732562	0.005269
1069.896866	0.007104
1070.061152	0.006898
1070.225420	0.007625
1070.389670	0.008182
1070.553901	0.008971
1070.718114	0.009727
1070.882309	0.009048
1071.046486	0.010752
1071.210644	0.009108
1071.374784	0.009278
1071.538906	0.010926
1071.703010	0.010434
1071.867096	0.008587
1072.031163	0.007960
1072.195212	0.006862
1072.359243	0.007770
1072.523256	0.006769
1072.687250	0.007930
1072.851226	0.007578
1073.015184	0.004727
1073.179124	0.003808
1073.343045	0.004992
1073.506949	0.002931
1073.670834	0.001749
1073.834701	0.001564
1073.998549	0.002328
1074.162380	0.002044
1074.326192	0.000195
1074.489986	-0.001318
1074.653761	-0.000360
1074.817519	-0.000395
1074.981258	0.002073
1075.144979	0.003409
1075.308682	0.002861
1075.472367	0.002075
1075.636033	0.000995
1075.799681	0.001880
1075.963311	0.004503
1076.126923	0.006030
1076.290516	0.006890
1076.454092	0.004861
1076.617649	0.005517
1076.781187	0.005936
1076.944708	0.006292
1077.108210	0.007696
1077.271695	0.007596
1077.435160	0.008510
1077.598608	0.007636
1077.762038	0.005899
1077.925449	0.007674
1078.088842	0.007252
1078.252217	0.007371
1078.415573	0.006373
1078.578912	0.006874
1078.742232	0.008063
1078.905534	0.005436
1079.068817	0.005601
1079.232083	0.006245
1079.395330	0.006105
1079.558559	0.006575
1079.721770	0.007206
1079.884962	0.007096
1080.048136	0.003009
1080.211293	0.003422
1080.374430	0.005004
1080.537550	0.004053
1080.700651	0.002885
1080.863735	0.002083
1081.026800	0.001270
1081.189846	-0.000763
1081.352875	-0.000349
1081.515885	0.003008
1081.678877	0.002020
1081.841851	0.003423
1082.004807	0.003756
1082.167744	0.005747
1082.330663	0.008208
1082.493564	0.008202
1082.656447	0.010010
1082.819312	0.012476
1082.982158	0.010524
1083.144986	0.007232
1083.307796	0.004988
1083.470587	0.003437
1083.633361	0.003336
1083.796116	0.002229
1083.958853	0.002218
1084.121571	0.000638
1084.284272	-0.000735
1084.446954	0.002605
1084.609618	0.004909
1084.772264	0.005158
1084.934892	0.007085
1085.097501	0.006092
1085.260092	0.004068
1085.422665	0.004464
1085.585220	0.004162
1085.747756	0.002831
1085.910274	0.000828
1086.072774	0.000866
1086.235256	0.001362
1086.397720	0.000685
1086.560165	0.000196
1086.722592	-0.001593
1086.885001	-0.001995
1087.047392	-0.001603
1087.209764	0.000098
1087.372119	0.001484
1087.534455	0.002231
1087.696772	0.001693
1087.859072	0.000754
1088.021353	0.003318
1088.183616	0.006406
1088.345861	0.006547
1088.508088	0.009363
1088.670296	0.007088
1088.832486	0.006486
1088.994658	0.005039
1089.156812	0.006733
1089.318948	0.005091
1089.481065	0.006127
1089.643164	0.007027
1089.805245	0.004897
1089.967308	0.001911
1090.129352	0.003886
1090.291378	0.004342
1090.453386	0.005409
1090.615376	0.004084
1090.777347	0.008408
1090.939301	0.005716
1091.101236	0.003837
1091.263153	0.008063
1091.425051	0.010082
1091.586932	0.009504
1091.748794	0.009561
1091.910638	0.009924
1092.072463	0.010692
1092.234271	0.008095
1092.396060	0.008926
1092.557831	0.009245
1092.719584	0.005958
1092.881319	0.004764
1093.043035	0.004979
1093.204733	0.002442
1093.366413	0.001508
1093.528075	0.001004
1093.689718	0.002225
1093.851343	0.001832
1094.012950	0.002002
1094.174539	0.003969
1094.336110	0.001704
1094.497662	0.001501
1094.659196	0.002075
1094.820712	0.003099
1094.982210	0.004475
1095.143689	0.005823
1095.305151	0.004592
1095.466594	0.004419
1095.628018	0.005253
1095.789425	0.008293
1095.950813	0.005670
1096.112183	0.007480
1096.273535	0.008297
1096.434869	0.010504
1096.596184	0.009855
1096.757482	0.012085
1096.918761	0.010705
1097.080021	0.009888
1097.241264	0.009360
1097.402488	0.011759
1097.563694	0.012342
1097.724882	0.012038
1097.886052	0.009170
1098.047203	0.007935
1098.208336	0.007808
1098.369451	0.011005
1098.530548	0.011339
1098.691627	0.011808
1098.852687	0.012388
1099.013729	0.010613
1099.174753	0.007604
1099.335758	0.006265
1099.496746	0.009238
1099.657715	0.008050
1099.818666	0.007465
1099.979599	0.005515
1100.140513	0.008046
1100.301409	0.007578
1100.462287	0.007447
1100.623147	0.007453
1100.783989	0.009462
1100.944812	0.008841
1101.105617	0.010241
1101.266404	0.009697
1101.427173	0.008929
1101.587923	0.007675
1101.748656	0.007652
1101.909370	0.008404
1102.070066	0.009662
1102.230743	0.008813
1102.391403	0.006960
1102.552044	0.002182
1102.712667	0.001656
1102.873271	0.002672
1103.033858	0.001232
1103.194426	0.000824
1103.354976	-0.000781
1103.515508	0.000587
1103.676021	0.000373
1103.836517	0.002151
1103.996994	0.006326
1104.157453	0.005670
1104.317893	0.004738
1104.478316	0.001865
1104.638720	0.002273
1104.799106	0.004120
1104.959474	0.001271
1105.119823	0.001447
1105.280155	0.000480
1105.440468	-0.000643
1105.600763	0.001113
1105.761039	0.005447
1105.921298	0.009442
1106.081538	0.007326
1106.241760	0.007749
1106.401964	0.009238
1106.562149	0.008364
1106.722316	0.007541
1106.882465	0.011389
1107.042596	0.008894
1107.202709	0.009133
1107.362803	0.006386
1107.522879	0.008734
1107.682937	0.007820
1107.842977	0.009614
1108.002999	0.008828
1108.163002	0.009574
1108.322987	0.005282
1108.482954	0.008362
1108.642902	0.005708
1108.802833	0.006120
1108.962745	0.006629
1109.122639	0.008278
1109.282515	0.007528
1109.442372	0.007274
1109.602211	0.008657
1109.762032	0.011749
1109.921835	0.009136
1110.081620	0.011191
1110.241386	0.011757
1110.401134	0.010270
1110.560864	0.008352
1110.720576	0.009137
1110.880269	0.007954
1111.039945	0.006545
1111.199602	0.005083
1111.359240	0.004611
1111.518861	0.000937
1111.678463	0.000035
1111.838047	-0.002435
1111.997613	-0.000918
1112.157161	-0.002060
1112.316690	0.000207
1112.476202	-0.002312
1112.635695	-0.004061
1112.795169	-0.005249
1112.954626	-0.003207
1113.114064	-0.003287
1113.273484	-0.000539
1113.432886	-0.000303
1113.592270	-0.001468
1113.751635	0.000805
1113.910983	0.005448
1114.070312	0.006851
1114.229622	0.011672
1114.388915	0.008113
1114.548189	0.009269
1114.707445	0.010136
1114.866683	0.009133
1115.025903	0.009928
1115.185104	0.006510
1115.344287	0.005131
1115.503452	0.006291
1115.662599	0.003029
1115.821727	0.007198
1115.980838	0.005709
1116.139930	0.005258
1116.299004	0.005728
1116.458059	0.003828
1116.617097	0.003091
1116.776116	0.001418
1116.935117	0.000829
1117.094099	0.001021
1117.253064	0.000660
1117.412010	0.005175
1117.570938	0.009260
1117.729848	0.008401
1117.888740	0.010783
1118.047613	0.014760
1118.206468	0.015848
1118.365305	0.016519
1118.524124	0.018204
1118.682924	0.017323
1118.841707	0.014414
1119.000471	0.007744
1119.159216	0.009336
1119.317944	0.011423
1119.476653	0.007443
1119.635344	0.007679
1119.794017	0.006469
1119.952672	0.007458
1120.111308	0.006768
1120.269927	0.007771
1120.428527	0.008227
1120.587108	0.009343
1120.745672	0.008249
1120.904217	0.011649
1121.062744	0.012992
1121.221253	0.013046
1121.379744	0.009779
1121.538216	0.010910
1121.696671	0.010135
1121.855107	0.011518
1122.013524	0.012601
1122.171924	0.009354
1122.330305	0.009859
1122.488668	0.007090
1122.647013	0.006824
1122.805340	0.010499
1122.963648	0.010377
1123.121938	0.009658
1123.280210	0.004631
1123.438464	-0.001400
1123.596700	0.001777
1123.754917	0.004175
1123.913116	0.006395
1124.071297	0.005004
1124.229459	0.004372
1124.387604	0.005607
1124.545730	0.005359
1124.703838	0.007589
1124.861928	0.012586
1125.019999	0.014535
1125.178052	0.009612
1125.336088	0.011170
1125.494104	0.015164
1125.652103	0.008106
1125.810083	0.008389
1125.968045	0.010417
1126.125989	0.014457
1126.283915	0.009506
1126.441823	0.007448
1126.599712	0.010346
1126.757583	0.007836
1126.915436	0.004319
1127.073270	0.009260
1127.231087	0.010839
1127.388885	0.007595
1127.546665	0.004409
1127.704426	0.007021
1127.862170	0.003691
1128.019895	0.003754
1128.177602	0.002098
1128.335291	0.005603
1128.492961	0.009726
1128.650614	0.003780
1128.808248	0.002905
1128.965864	0.006088
1129.123461	0.003312
1129.281041	0.004083
1129.438602	0.005963
1129.596145	0.004156
1129.753670	0.002317
1129.911176	0.001242
1130.068665	-0.000208
1130.226135	-0.002762
1130.383587	-0.001000
1130.541020	0.002301
1130.698436	0.007361
1130.855833	0.004474
1131.013212	0.008873
1131.170573	0.010287
1131.327915	0.006672
1131.485239	0.008065
1131.642545	0.013730
1131.799833	0.009914
1131.957103	0.010952
1132.114354	0.009368
1132.271588	0.008436
1132.428803	0.002002
1132.585999	0.000701
1132.743178	0.005392
1132.900338	0.005938
1133.057480	0.011503
1133.214604	0.014577
1133.371710	0.014338
1133.528797	0.015259
1133.685866	0.018191
1133.842917	0.023509
1133.999950	0.015895
1134.156964	0.015725
1134.313960	0.020594
1134.470938	0.016628
1134.627898	0.013031
1134.784840	0.012770
1134.941763	0.009493
1135.098668	0.005449
1135.255555	0.004877
1135.412424	0.008904
1135.569274	0.012646
1135.726107	0.012827
1135.882921	0.013040
1136.039716	0.014010
1136.196494	0.017511
1136.353253	0.014339
1136.509995	0.013442
1136.666717	0.015926
1136.823422	0.015133
1136.980109	0.004647
1137.136777	-0.001042
1137.293427	-0.001121
1137.450059	0.001170
1137.606672	-0.005450
1137.763267	-0.000504
1137.919844	0.003991
1138.076403	-0.003553
1138.232944	-0.000526
1138.389466	0.005385
1138.545971	0.006878
1138.702457	0.005235
1138.858924	0.005642
1139.015374	0.005796
1139.171805	0.006027
1139.328218	0.003195
1139.484613	0.007972
1139.640990	0.006950
1139.797348	0.001693
1139.953688	0.005340
1140.110010	0.003087
1140.266314	0.000847
1140.422600	0.001455
1140.578867	0.003328
1140.735116	0.003299
1140.891347	0.002134
1141.047559	-0.000252
1141.203754	0.000359
1141.359930	-0.002565
1141.516088	0.002775
1141.672228	0.004071
1141.828349	0.001872
1141.984452	0.000601
1142.140537	-0.001120
1142.296604	0.002092
1142.452653	0.003196
1142.608683	0.004102
1142.764695	0.002842
1142.920689	0.005022
1143.076665	0.005636
1143.232622	0.008741
1143.388562	0.005354
1143.544483	0.006319
1143.700385	0.004422
1143.856270	0.005803
1144.012136	0.012822
1144.167985	0.016741
1144.323814	0.014560
1144.479626	0.011120
1144.635420	0.008280
1144.791195	0.010608
1144.946952	0.006577
1145.102691	0.004379
1145.258411	0.004303
1145.414113	0.005260
1145.569798	0.002044
1145.725463	-0.000575
1145.881111	0.004716
1146.036741	0.006871
1146.192352	0.006552
1146.347945	0.007904
1146.503519	0.013430
1146.659076	0.013805
1146.814614	0.006174
1146.970134	0.007913
1147.125636	0.003273
1147.281120	0.003969
1147.436585	0.000214
1147.592032	0.000791
1147.747461	0.004560
1147.902872	0.004564
1148.058265	0.009770
1148.213639	0.017069
1148.368995	0.012025
1148.524333	0.015367
1148.679653	0.007357
1148.834954	0.010224
1148.990237	0.011589
1149.145502	0.011138
1149.300749	0.008497
1149.455977	0.003350
1149.611188	0.000152
1149.766380	0.000744
1149.921553	-0.004218
1150.076709	-0.005243
1150.231846	-0.006022
1150.386966	-0.004824
1150.542066	-0.008473
1150.697149	-0.011772
1150.852214	-0.012912
1151.007260	-0.015258
1151.162288	-0.010472
1151.317298	-0.005054
1151.472289	0.003868
1151.627263	0.007513
1151.782218	0.004098
1151.937155	0.006643
1152.092073	0.009899
1152.246974	0.014028
1152.401856	0.010939
1152.556720	0.007655
1152.711566	0.003885
1152.866393	-0.002696
1153.021203	0.000202
1153.175994	-0.001054
1153.330767	0.000082
1153.485521	-0.007613
1153.640258	-0.005889
1153.794976	-0.002600
1153.949676	-0.000031
1154.104358	-0.001223
1154.259021	-0.002635
1154.413667	-0.012103
1154.568294	-0.008986
1154.722903	-0.005320
1154.877493	0.006526
1155.032066	0.006375
1155.186620	0.007826
1155.341156	-0.000834
1155.495674	0.009092
1155.650173	0.014432
1155.804654	0.016319
1155.959118	0.010963
1156.113562	0.012969
1156.267989	0.005827
1156.422397	0.001230
1156.576788	-0.001459
1156.731160	0.001774
1156.885513	-0.003722
1157.039849	-0.008995
1157.194166	-0.002014
1157.348465	-0.000967
1157.502746	-0.006427
1157.657009	-0.010673
1157.811253	-0.008082
1157.965479	-0.010255
1158.119687	-0.008632
1158.273877	-0.004870
1158.428048	-0.004347
1158.582201	-0.014438
1158.736337	-0.003139
1158.890453	-0.002548
1159.044552	0.009333
1159.198632	0.010977
1159.352694	0.015336
1159.506738	0.013986
1159.660764	0.009183
1159.814771	0.018095
1159.968761	0.026013
1160.122732	0.016620
1160.276685	0.016511
1160.430619	0.011087
1160.584535	0.003544
1160.738434	0.002640
1160.892313	0.002834
1161.046175	0.007480
1161.200019	-0.003888
1161.353844	-0.005956
1161.507651	-0.004943
1161.661440	-0.007186
1161.815210	-0.001051
1161.968962	0.001275
1162.122697	-0.003750
1162.276412	-0.005273
1162.430110	-0.002597
1162.583789	0.002517
1162.737451	0.007726
1162.891094	0.011102
1163.044718	0.008786
1163.198325	-0.000555
1163.351913	0.000794
1163.505483	0.000310
1163.659035	0.002535
1163.812569	-0.005160
1163.966084	0.001754
1164.119581	-0.002278
1164.273060	-0.010379
1164.426521	-0.007224
1164.579964	-0.001651
1164.733388	0.006853
1164.886794	0.005378
1165.040182	0.011737
1165.193551	0.012019
1165.346903	0.005636
1165.500236	0.001510
1165.653551	0.004983
1165.806848	0.004063
1165.960126	0.005723
1166.113386	-0.001781
1166.266628	-0.000311
1166.419852	-0.002136
1166.573058	-0.015193
1166.726245	-0.016157
1166.879414	-0.005854
1167.032565	-0.008055
1167.185698	-0.002266
1167.338812	-0.007585
1167.491909	-0.005644
1167.644987	0.000912
1167.798046	-0.000714
1167.951088	0.016749
1168.104111	0.019012
1168.257117	0.009638
1168.410103	0.010367
1168.563072	0.000727
1168.716023	0.005116
1168.868955	-0.000335
1169.021869	-0.002079
1169.174765	0.001836
1169.327642	-0.003767
1169.480501	-0.006530
1169.633343	0.000796
1169.786165	-0.001240
1169.938970	0.010108
1170.091757	0.008865
1170.244525	0.009077
1170.397275	0.005228
1170.550007	-0.006447
1170.702720	-0.002339
1170.855415	-0.002022
1171.008092	-0.004195
1171.160751	0.002504
1171.313392	0.000469
1171.466014	-0.006612
1171.618619	0.034069
1171.771205	0.034069
1171.923772	0.034069
