sample name	sample
index	584
start time	 03-16-2021  03:59:22 PM
880	0.002357
Peak Time (s)	180.54
Peak Height 	0.002357
calc peak height	180,183
Baseline Time (s)	11.036
Baseline Value 	-0.005039
subtract baseline	10,4
Abs	-0.007497
Peak Time (s)	182.036
Peak Height 	-0.007497
calc peak height	180,183
Baseline Time (s)	9.037
Baseline Value 	-6.2764E-4
subtract baseline	10,3
PK_550	0.002277
Peak Time (s)	182.036
Peak Height 	0.002277
calc peak height	180,183
Baseline Time (s)	11.036
Baseline Value 	3.4284E-4
subtract baseline	10,2
PK_880	-0.007266
Peak Time (s)	182.036
Peak Height 	-0.007266
calc peak height	180,183
Baseline Time (s)	9.535
Baseline Value 	0.001549
subtract baseline	10,1


Time (s)	A880-A510	A880-A775	A880-A975	A880	I510	I775	I975	I880	
0.035000	-0.001937	-0.000276	0.000342	0.003698	5572.066933	33708.046015	3633.521870	18299.633652
0.535500	-0.002006	0.001334	0.001623	0.006230	5555.928798	33642.722377	3631.245883	18209.881570
1.035000	-0.000513	-0.000177	-0.003963	0.004452	5576.247925	33661.639487	3624.363147	18272.875368
1.535500	-0.003338	-0.000649	-0.001028	0.006031	5548.928411	33516.738244	3626.807210	18216.942996
2.036000	0.000068	-0.000110	0.004598	0.001090	5600.941529	33905.561490	3646.123486	18392.653181
2.536500	0.000419	-0.000473	-0.002697	0.000614	5606.150415	33913.611908	3633.604600	18409.674698
3.037000	-0.000578	0.001229	0.006206	0.000073	5603.274200	34074.178833	3650.994484	18429.046468
3.537000	-0.005025	-0.000754	0.009603	0.005598	5541.198409	33539.817755	3647.044543	18232.257013
4.040000	-0.001685	-0.000380	-0.001369	0.000799	5591.757041	33907.042110	3635.688774	18403.053498
4.537500	-0.000061	0.000468	0.000957	0.001394	5598.217443	33925.116727	3638.856366	18381.765615
5.035000	0.002036	0.000919	0.003700	0.001107	5613.249026	33977.905131	3644.432405	18392.056316
5.535000	0.001808	0.000905	0.002871	0.000756	5614.020242	34002.013337	3643.548995	18404.593535
6.035500	-0.000727	0.000033	-0.002665	0.000467	5599.864325	33960.330359	3633.932178	18414.963590
6.538000	0.000261	0.000183	0.005157	0.000576	5605.400296	33963.234909	3648.112778	18411.058431
7.036500	0.000949	0.000750	0.014666	0.000700	5608.951824	33994.944554	3665.708074	18406.605807
7.538500	-0.001295	-0.000596	0.000371	-0.000278	5600.975274	33968.642253	3640.851511	18441.666975
8.037000	0.000247	0.001126	0.004454	0.001060	5602.259351	33996.120997	3645.913117	18393.725734
8.537500	0.002427	-0.000317	-0.003026	0.000050	5622.415183	33965.110709	3634.033533	18429.894351
9.037500	0.000617	0.000510	0.000000	-0.000077	5611.765586	34033.451545	3639.800404	18434.453399
9.535000	0.000000	0.001092	-0.000662	0.000652	5603.270742	34022.846640	3637.250631	18408.316643
10.060000	0.001687	0.000109	0.010637	0.000439	5615.264841	33967.763066	3658.597152	18415.950083
10.541000	-0.000422	-0.000631	0.004347	-0.000351	5606.929289	33971.287268	3648.327882	18444.258423
11.035500	-0.001398	0.000000	0.003342	0.000000	5598.577235	33991.350333	3645.816496	18431.681412
11.538500	-0.000871	-0.000530	-0.004519	-0.000430	5604.595481	33984.179981	3632.188733	18447.093313
12.036500	0.001430	-0.000002	0.003233	0.000245	5614.861569	33973.677012	3645.160513	18422.890559
12.536000	-0.000524	-0.000117	0.006922	-0.000512	5607.302768	34019.641484	3653.419543	18450.034596
13.037000	0.002573	0.000689	0.004695	-0.000203	5624.944500	34055.262566	3648.698890	18438.954576
13.541000	0.000586	0.000540	-0.000441	0.000155	5610.099335	34018.909698	3638.565230	18426.121606
14.037000	-0.001542	0.000505	-0.001780	0.002942	5579.246771	33817.379533	3631.039353	18326.560956
14.538000	-0.000176	-0.000074	-0.002162	0.001755	5595.224477	33860.659202	3632.500905	18368.867586
15.035000	0.000231	0.001331	0.006805	0.000216	5607.476043	34071.322880	3651.845515	18423.954359
15.535500	0.002245	0.001555	0.002753	0.000249	5619.996837	34085.002824	3644.267032	18422.749629
16.036000	-0.002555	0.000871	-0.007516	0.004412	5563.793487	33738.830623	3618.064628	18274.301581
16.536000	-0.000801	0.000589	0.005734	-0.000560	5605.862017	34073.736813	3651.295243	18451.770248
17.036500	0.001408	0.000772	0.006371	-0.002532	5632.343564	34228.864332	3656.167359	18522.731892
17.537000	-0.001391	0.000364	-0.001899	0.000660	5594.473616	33970.103391	3634.975694	18408.021793
18.037000	-0.000878	0.000498	0.004387	0.001939	5589.671115	33888.373824	3644.165007	18362.321166
18.537000	-0.002130	0.000572	-0.002289	0.001439	5584.964762	33929.319925	3632.845008	18380.157626
19.035000	0.001244	0.000749	0.007210	0.002023	5602.472944	33900.281478	3649.236304	18359.331125
19.535000	0.000971	0.000585	0.002509	0.001881	5601.643227	33898.671365	3640.811472	18364.366891
20.035500	0.001315	0.000882	0.001877	0.001841	5604.066366	33922.754118	3639.724302	18365.806669
20.536000	0.001004	0.000140	0.001223	0.001574	5603.790123	33888.841277	3639.014371	18375.361209
21.035500	-0.002536	0.001181	-0.002908	0.001884	5579.643126	33941.044106	3630.910421	18364.271687
21.536500	-0.002147	0.000854	-0.005296	0.001824	5582.449081	33921.939678	3626.696990	18366.406688
22.039500	-0.000376	0.001046	0.000996	0.003017	5586.068744	33850.532207	3635.958428	18323.881614
22.537000	-0.001120	0.000201	0.006102	0.001593	5590.322960	33891.815316	3647.977150	18374.650916
23.040000	-0.001361	-0.000376	0.000379	0.000990	5592.591550	33893.693625	3638.538101	18396.224500
23.537500	-0.002475	0.000432	0.004095	0.001344	5583.398168	33926.078367	3644.722337	18383.552164
24.037500	-0.001297	0.001690	0.001721	0.001992	5586.714068	33969.705792	3639.159983	18360.403166
24.535500	0.000280	0.000503	0.002475	0.001617	5598.964400	33911.730211	3641.234534	18373.816664
25.036000	-0.000277	-0.000292	0.006261	0.000985	5599.433978	33900.060926	3649.400919	18396.397828
25.536000	0.000219	0.000546	0.005339	0.001933	5596.595956	33892.232195	3645.934754	18362.535700
26.036000	-0.000507	0.000498	0.001576	0.001798	5592.878168	33898.369184	3639.250062	18367.334073
26.539000	-0.001974	-0.000390	0.001897	0.001302	5586.799841	33870.401216	3640.750914	18385.065102
27.037000	0.003270	0.001669	0.013159	-0.000475	5631.102622	34145.277879	3665.080116	18448.724192
27.537500	0.002562	0.001501	0.004095	-0.000029	5623.769419	34101.112596	3647.264449	18432.731885
28.037000	-0.000465	0.000212	0.004029	0.003729	5581.057542	33740.505721	3640.209730	18298.538446
28.537500	-0.001108	0.000352	0.005964	-0.000585	5604.085388	34058.502219	3651.769482	18452.673658
29.034500	-0.000114	0.000706	0.004130	-0.000331	5608.751226	34065.692969	3647.889257	18443.559831
29.535500	-0.000905	0.000072	0.003477	0.002029	5588.941599	33851.522137	3642.320431	18359.100346
30.036000	0.001652	0.001256	0.005280	0.000182	5616.667399	34068.370210	3649.071017	18425.154605
30.535500	0.001500	0.001314	0.003909	0.003902	5592.275335	33806.643744	3639.673056	18292.415234
31.036500	0.000572	0.000333	0.005760	0.000810	5605.876296	33957.209560	3648.795580	18402.655501
31.541000	-0.001440	0.000954	0.001115	0.002200	5584.519641	33902.237663	3637.668823	18352.999811
32.036500	0.000884	0.000886	0.000992	0.000397	5610.454632	34026.388914	3640.751206	18417.447501
32.540500	0.000197	0.000898	0.008292	-0.000058	5608.991549	34059.858564	3655.133690	18433.765187
33.037500	0.002590	0.001509	0.007990	-0.000652	5627.898928	34146.459375	3655.679005	18455.070843
33.535000	-0.000619	0.000225	-0.000227	0.002280	5589.158255	33844.574956	3635.070215	18350.151661
34.035000	0.000748	0.001374	0.000525	0.003038	5592.977874	33872.421250	3635.059834	18323.137120
34.535500	-0.002184	0.000336	0.001460	0.002743	5576.481380	33819.491524	3637.307058	18333.631982
35.038000	-0.002340	0.001616	0.005508	0.003304	5572.015696	33870.713010	3643.713231	18313.656337
35.536500	-0.000826	0.000489	0.002969	0.002496	5586.508480	33848.004015	3640.526790	18342.445092
36.037000	-0.001258	0.000687	0.013857	0.002326	5584.870837	33874.260209	3661.106799	18348.511090
36.533500	-0.001114	0.000672	0.000331	0.001905	5588.406456	33903.183903	3636.774894	18363.530379
37.040500	-0.000087	0.000165	0.005863	0.001907	5594.833260	33866.871906	3646.952501	18363.455209
37.534500	-0.002071	0.000585	-0.000079	0.001984	5581.927526	33891.309245	3635.879916	18360.701629
38.034500	-0.000413	0.000628	0.001574	0.002336	5590.101709	33869.301659	3638.261768	18348.164624
38.535000	0.001188	0.000761	0.000164	0.002369	5599.937648	33876.381281	3635.621004	18346.953968
39.035500	0.000266	0.000268	0.002674	0.001937	5596.858809	33872.096180	3641.012976	18362.381809
39.535500	0.001145	0.000828	0.000284	0.002114	5601.276666	33899.410530	3636.306215	18356.058049
40.036000	-0.002931	0.000422	0.003459	0.001794	5577.745495	33893.236390	3642.720961	18367.490644
40.536000	-0.000964	0.000812	0.003394	0.002178	5587.637068	33893.654660	3641.892324	18353.777398
41.036500	-0.001510	-0.000029	0.008196	0.001696	5587.236464	33868.078799	3651.677819	18370.981049
41.537000	-0.001439	0.000320	-0.000934	0.001867	5586.607988	33880.794943	3634.533317	18364.874503
42.037500	-0.001334	0.000768	0.002029	0.002535	5583.091243	33865.097857	3638.730292	18341.061863
42.534500	-0.001335	0.000776	-0.002281	0.002414	5583.837162	33874.291960	3631.087809	18345.362942
43.034500	-0.000189	0.001236	0.002895	0.002315	5591.630555	33914.192210	3640.723716	18348.889718
43.535500	0.001776	0.001230	0.003082	-0.001442	5627.750258	34183.240475	3648.005416	18483.456156
44.035500	-0.002233	-0.000289	-0.002254	0.003209	5573.272647	33741.913024	3629.693872	18317.041823
44.535500	0.000086	0.001039	0.007226	0.000239	5606.418258	34048.726880	3652.587291	18423.119681
45.036000	0.000626	0.001419	0.006034	0.000325	5609.281576	34069.796886	3650.206799	18420.032717
45.539000	0.002641	0.000504	0.007442	0.000631	5620.087798	33982.234306	3652.258060	18409.066735
46.036500	-0.005468	0.000802	0.001218	0.005100	5541.534733	33685.139667	3632.564923	18249.895513
46.539500	0.001885	0.000844	0.005033	-0.000107	5619.972034	34059.503740	3649.147274	18435.501801
47.034500	-0.001480	0.000210	-0.000150	0.002418	5582.911149	33833.680798	3634.959169	18345.235584
47.535000	-0.001255	0.000796	0.004435	0.001421	5590.561060	33946.639941	3645.211156	18380.826560
48.035500	-0.004325	0.000104	0.000566	0.005464	5546.331849	33609.930808	3630.719279	18236.988549
48.535500	-0.001584	0.000993	0.008296	0.000134	5596.561667	34052.883130	3654.780343	18426.860058
49.035500	0.000660	-0.000127	0.004632	-0.001265	5619.548307	34072.917795	3650.554654	18477.091695
49.536000	0.000296	-0.000240	0.003466	-0.002011	5621.974114	34118.467622	3649.775232	18503.970904
50.036500	-0.000206	0.000066	0.002164	0.009736	5545.395262	33306.568149	3625.880747	18086.477088
50.536000	0.018889	-0.002299	0.009549	0.127715	5000.290240	25946.028455	3449.776894	14464.282159
51.036500	-0.024379	-0.012221	-0.016636	0.066036	5092.608698	28863.633460	3501.488023	16235.134466
51.537500	-0.005126	-0.013347	-0.003890	-0.116428	6407.468202	42321.988689	3875.445016	23219.403083
52.037500	-0.007145	-0.056977	-0.001730	-0.350488	8906.887042	64021.277694	4621.964704	37760.175171
52.534500	0.008335	-0.018726	0.019651	-0.240190	7722.528798	54677.142023	4292.522709	29932.550459
53.035000	-0.013615	-0.018388	-0.003176	-0.208038	7153.975019	51019.359319	4120.107044	28000.637327
53.535000	-0.024510	-0.012278	-0.009518	-0.199608	6967.462263	50762.967688	4077.384550	27517.337474
54.035500	-0.015458	-0.009353	-0.013661	-0.237297	7433.241422	55455.529732	4176.548361	29752.795246
54.536000	-0.005608	-0.005083	-0.006083	-0.230474	7465.171140	55147.457310	4178.869139	29333.597841
55.036000	-0.003789	-0.001980	-0.007739	-0.220264	7377.209075	54299.350814	4142.851788	28718.490606
55.536500	-0.005681	-0.000514	-0.004752	-0.198427	7137.460145	51943.730761	4087.617242	27450.367860
56.040000	-0.004143	-0.000155	-0.005453	-0.175857	6935.646234	49498.327573	4022.658741	26205.070268
56.537000	-0.004660	-0.001075	-0.006546	-0.152267	6716.035744	46940.903060	3957.459144	24970.812354
57.037500	-0.006818	-0.002340	-0.008751	-0.123991	6455.637835	44044.409516	3881.890419	23577.062438
57.535500	-0.003351	0.000265	-0.007611	-0.100867	6296.899646	42145.467853	3830.589822	22502.841617
58.035500	-0.001847	-0.003041	-0.011916	-0.102013	6317.877091	41950.682116	3823.427431	22554.716925
58.535500	-0.002169	-0.000446	-0.009607	-0.059588	5994.530789	38528.109359	3736.882674	20721.791352
59.036000	-0.008910	-0.000292	-0.011656	-0.021659	5688.974939	35559.576333	3658.231790	19227.976992
59.536000	-0.008309	-0.003220	-0.012332	-0.059157	5947.589746	38266.130536	3730.407215	20704.073979
60.036000	-0.010134	-0.001764	-0.008554	-0.023909	5695.645574	35618.156551	3668.344931	19312.992910
60.536500	-0.012541	-0.000742	-0.001949	-0.017195	5636.894527	35192.116064	3668.138159	19060.604229
61.037000	-0.013338	-0.003124	-0.016034	-0.013394	5607.733412	34735.504525	3634.826864	18919.405493
61.537500	-0.015469	0.000167	-0.014505	-0.026596	5678.459882	35967.976056	3662.162416	19415.092424
62.035000	-0.015352	0.000731	-0.009373	-0.026664	5679.661495	36016.188512	3672.036114	19417.711757
62.535000	-0.016252	-0.000365	-0.008064	-0.030473	5698.553064	36223.726850	3681.868636	19563.565713
63.040500	-0.012491	-0.000875	-0.012725	-0.030826	5725.487340	36211.657604	3673.584372	19577.146814
63.536500	-0.011891	-0.001954	-0.010622	-0.027742	5709.197917	35893.861260	3671.708536	19458.856070
64.036000	-0.012413	-0.001125	-0.017492	-0.020212	5657.013995	35388.583967	3644.666220	19173.535149
64.536500	-0.014150	-0.001683	-0.008923	-0.020589	5648.294194	35374.980103	3661.360306	19187.699726
65.039000	-0.010245	-0.000692	-0.013405	-0.017827	5655.620133	35242.835032	3647.817132	19084.197608
65.539500	-0.012169	-0.001331	-0.012209	-0.017110	5638.717304	35141.965660	3648.705345	19057.412737
66.037000	-0.014650	-0.001441	-0.013432	-0.013256	5598.605102	34848.997571	3639.335563	18914.321595
66.537500	-0.014150	-0.001462	-0.013581	-0.015342	5614.910830	35001.258223	3642.897367	18991.617500
67.035000	-0.012845	-0.000773	-0.011451	-0.014571	5618.285723	34995.232765	3645.405672	18962.994489
67.535000	-0.010607	0.000136	-0.009179	-0.014010	5628.922474	35020.902248	3648.574469	18942.203870
68.035500	-0.014638	-0.000652	-0.009239	-0.011463	5587.429354	34775.220076	3643.752151	18848.179228
68.536000	-0.012215	-0.000442	-0.014142	-0.015103	5625.657464	35059.072817	3641.424471	18982.748858
69.035500	-0.011084	-0.001073	-0.007081	-0.014622	5629.782774	34976.818759	3653.620065	18964.892876
69.536500	-0.012602	-0.000900	-0.008844	-0.015309	5624.504518	35040.432400	3651.614024	18990.384612
70.039500	-0.013416	-0.001156	-0.016017	-0.013013	5604.841239	34852.098905	3634.164632	18905.348905
70.536500	-0.013383	-0.000613	-0.007135	-0.015428	5620.306084	35070.479600	3655.026172	18994.802195
71.037000	-0.011832	-0.000952	-0.012346	-0.013602	5618.570612	34910.461703	3641.966860	18927.122105
71.535000	-0.009195	-0.001774	-0.014462	-0.015331	5646.353924	34977.368171	3641.255501	18991.198508
72.035000	-0.008186	-0.000212	-0.014309	-0.015316	5652.719313	35091.876049	3641.509525	18990.646948
72.535500	-0.012540	-0.001331	-0.013313	-0.015250	5624.520428	35004.138749	3643.221417	18988.182560
73.035500	-0.011580	-0.000757	-0.011629	-0.012670	5614.261850	34856.199234	3641.570977	18892.664624
73.536000	-0.008617	-0.000482	-0.009102	-0.015003	5647.949817	35048.705933	3650.564122	18979.028606
74.036500	-0.007745	-0.000454	-0.012872	-0.014843	5652.515257	35038.961997	3643.285211	18973.088552
74.536500	-0.010090	-0.000522	-0.010956	-0.014778	5637.105699	35029.074798	3646.704038	18970.671425
75.037000	-0.009412	-0.000542	-0.020129	-0.011724	5621.997484	34802.440291	3624.379448	18857.771338
75.537000	-0.010350	0.000714	-0.009818	-0.013525	5627.481377	35027.819510	3646.492395	18924.272566
76.035000	-0.009264	0.000352	-0.011654	-0.013721	5635.636983	35015.536615	3643.461996	18931.522932
76.534500	-0.010440	0.000913	-0.009955	-0.013147	5624.503431	35014.569225	3645.539561	18910.286160
77.035500	-0.008651	0.000998	-0.012106	-0.009851	5614.961177	34778.038876	3635.531750	18788.947582
77.535500	-0.009940	0.000998	-0.010694	-0.012041	5620.666025	34939.179731	3642.135452	18869.467829
78.035500	-0.011941	0.001088	-0.017047	-0.007923	5582.160536	34643.370080	3623.086643	18718.382461
78.536000	-0.010082	0.001241	-0.014402	-0.011880	5618.743246	34945.235915	3635.042862	18863.536711
79.039000	-0.012116	0.001794	-0.004163	-0.007694	5579.632651	34678.173974	3646.165866	18709.997066
79.539500	-0.008491	0.001422	-0.007435	-0.010975	5623.090102	34891.837619	3646.183665	18830.223858
80.037000	-0.011630	0.000741	-0.010528	-0.007949	5584.267362	34619.853749	3634.938805	18719.329428
80.534000	-0.007663	0.001634	-0.008259	-0.010545	5625.615517	34875.704702	3643.864626	18814.391703
81.037500	-0.010797	0.000097	-0.013552	-0.007264	5585.184778	34522.888728	3628.199718	18694.315434
81.534500	-0.010009	0.000584	-0.014321	-0.010965	5613.413210	34829.381945	3633.520907	18829.829504
82.035500	-0.010798	0.002513	0.000339	-0.006964	5583.309579	34677.399158	3653.175279	18683.393545
82.536000	-0.007007	0.001170	-0.011333	-0.009949	5625.999470	34797.787236	3637.122905	18792.521764
83.035500	-0.011588	0.000799	-0.016124	-0.005777	5570.979700	34465.818957	3620.893212	18640.217529
83.536000	-0.009497	0.000809	-0.007971	-0.009506	5607.433107	34738.762581	3642.480536	18776.273534
84.036000	-0.012007	0.000997	-0.009403	-0.005023	5563.684443	34425.383486	3631.660391	18612.832907
84.536500	-0.010808	0.000263	-0.010510	-0.009843	5601.305026	34723.465987	3638.436075	18788.650959
85.036500	-0.010577	0.000796	-0.012780	-0.003921	5565.724073	34330.923366	3623.563963	18572.912876
85.537500	-0.011974	0.001727	-0.013035	-0.007835	5581.400782	34683.616915	3630.169988	18715.143379
86.035000	-0.010384	0.001845	-0.007693	-0.007547	5589.544975	34671.159757	3639.391232	18704.653603
86.535000	-0.009781	0.000989	-0.010480	-0.008428	5598.859209	34673.001849	3635.900728	18736.822851
87.035500	-0.008920	0.001106	-0.006861	-0.007897	5600.936785	34642.768630	3641.563696	18717.440427
87.538500	-0.008618	0.000695	-0.010270	-0.007889	5602.785600	34612.124263	3635.299209	18717.126804
88.036000	-0.010971	0.000398	-0.011734	-0.005855	5575.304422	34442.352944	3628.941114	18643.039994
88.536000	-0.009514	0.002140	-0.014491	-0.006192	5586.512334	34593.740470	3624.571193	18655.289999
89.042500	-0.009467	0.000908	-0.015686	-0.006697	5589.963811	34540.676728	3623.328496	18673.652027
89.537000	-0.010915	0.001275	-0.013967	-0.006813	5581.630334	34575.909550	3626.634469	18677.888553
90.037000	-0.008598	0.001529	-0.011458	-0.006447	5593.850724	34567.740551	3630.514246	18664.564307
90.540000	-0.008874	0.002247	-0.008655	-0.005758	5587.800264	34569.865194	3634.359682	18639.511927
91.035000	-0.008621	0.001810	-0.008502	-0.005695	5588.992835	34533.396384	3634.523247	18637.233079
91.535500	-0.006567	0.002145	-0.009664	-0.005233	5598.978827	34524.199424	3631.567609	18620.454615
92.035500	-0.010104	0.001496	-0.014168	-0.005720	5579.867440	34512.301823	3624.301831	18638.117387
92.536000	-0.010325	0.001532	-0.009555	-0.005913	5579.697179	34529.038754	3633.000379	18645.134446
93.036000	-0.012316	0.001580	-0.016138	0.000221	5529.443150	34088.813533	3610.191188	18423.759256
93.536500	-0.006827	0.002616	-0.010373	-0.004419	5592.236995	34499.203755	3628.805883	18590.946333
94.036500	-0.011800	0.001618	-0.010442	-0.001544	5543.453807	34218.551336	3623.493627	18487.136463
94.536500	-0.007593	0.002535	-0.006176	-0.004122	5585.575500	34471.681066	3635.897491	18580.172865
95.036500	-0.008525	0.001942	-0.013786	-0.004919	5584.735853	34486.570138	3623.550209	18609.076139
95.535000	-0.011360	0.001807	-0.011149	-0.005388	5569.970038	34510.806848	3629.153446	18626.065226
96.035500	-0.009067	0.001935	-0.011211	-0.002903	5568.778899	34339.698740	3624.554581	18536.103362
96.535500	-0.010856	0.001979	-0.007568	-0.004694	5568.792239	34472.849764	3634.400031	18600.892614
97.035500	-0.014505	0.001626	-0.010178	0.001353	5509.172246	34010.873453	3618.773354	18383.246155
97.536500	-0.010314	0.002283	-0.014195	-0.004454	5570.672676	34477.520012	3621.979332	18592.208215
98.036000	-0.010252	0.002819	-0.015062	-0.002243	5557.335012	34355.928355	3616.473474	18512.315964
98.539500	-0.006229	0.002011	-0.012711	-0.004446	5596.160619	34457.175585	3624.633093	18591.926661
99.037000	-0.012645	0.002078	-0.014276	0.001388	5520.294830	34040.825365	3611.421181	18382.008759
99.537500	-0.009190	0.001650	-0.009389	-0.003902	5574.230479	34391.435195	3629.649995	18572.210642
100.035000	-0.011206	0.001880	-0.015359	-0.002519	5553.140037	34307.919056	3616.437256	18522.264919
100.535000	-0.007919	0.002651	-0.005791	-0.003562	5580.041160	34439.446087	3635.577952	18559.923669
101.035500	-0.012855	0.002117	-0.012891	0.002687	5511.096458	33950.538925	3611.573849	18335.635860
101.535500	-0.008413	0.002229	-0.011343	-0.003685	5577.726177	34417.708932	3625.725221	18564.369405
102.038500	-0.010664	0.002086	-0.003772	-0.003530	5562.757689	34396.109967	3639.215205	18558.776245
102.536500	-0.008381	0.002620	-0.012635	-0.003569	5577.200076	34437.664806	3623.191750	18560.178575
103.039000	-0.012986	0.001804	-0.014983	0.002272	5512.828126	33957.877900	3608.609948	18350.443441
103.536500	-0.010067	0.002395	-0.007841	-0.003343	5565.304447	34404.972005	3631.445821	18552.026243
104.037500	-0.007938	0.001767	-0.008795	-0.003981	5582.537226	34405.676857	3630.871656	18575.076937
104.537500	-0.009884	0.002016	-0.013351	-0.003647	5568.324391	34399.493908	3622.045071	18562.990240
105.037500	-0.012192	0.001304	-0.017861	0.002315	5517.405819	33919.093228	3603.475012	18348.912486
105.535000	-0.006409	0.003250	-0.009370	-0.002422	5582.351648	34400.161680	3627.007733	18518.775629
106.034500	-0.010687	0.002438	-0.010999	-0.003585	5562.955224	34425.614805	3626.165118	18560.753323
106.536000	-0.007944	0.002562	-0.005937	-0.002690	5574.443677	34369.708715	3633.719932	18528.419086
107.036000	-0.008964	0.002257	-0.012503	-0.003204	5571.294135	34384.806602	3622.772061	18546.973209
107.536500	-0.008036	0.002328	-0.007437	-0.002735	5574.154292	34356.021245	3631.075260	18530.060223
108.037000	-0.009328	0.001941	-0.010339	0.000315	5547.238099	34108.023870	3620.342871	18420.405869
108.536500	-0.007727	0.002486	-0.016784	-0.002495	5574.579204	34350.002616	3613.857876	18521.384071
109.037500	-0.006438	0.002686	-0.007888	-0.002929	5585.341946	34396.040624	3630.608388	18537.061098
109.537500	-0.009330	0.001715	-0.009945	-0.002719	5566.005948	34310.496339	3626.506674	18529.487790
110.035000	-0.009113	0.002368	-0.016430	-0.000152	5551.444685	34172.360196	3610.335439	18437.144382
110.535000	-0.008221	0.001908	-0.014529	-0.002533	5571.741825	34310.976738	3617.941860	18522.775900
111.035500	-0.006978	0.001423	-0.007026	-0.002528	5579.456905	34275.564692	3631.444995	18522.591206
111.536000	-0.008566	0.002506	-0.008908	-0.002316	5568.246128	34338.510249	3627.649290	18514.933969
112.038500	-0.010217	0.002144	-0.011439	-0.000139	5544.555862	34155.257803	3619.185227	18436.669710
112.539500	-0.009234	0.001551	-0.015065	-0.003086	5568.883694	34325.190073	3617.972518	18542.729343
113.037000	-0.015481	0.000869	-0.012129	0.002991	5493.326313	33839.755274	3612.384756	18324.799947
113.537000	-0.008687	0.001341	-0.013049	-0.002544	5568.909090	34270.760043	3620.607791	18523.164480
114.037500	-0.009349	0.001939	-0.016670	0.000478	5546.102346	34096.127202	3608.797251	18414.545048
114.535000	-0.011776	0.001757	-0.013539	-0.002271	5548.089307	34281.138352	3619.242859	18513.327637
115.035000	-0.011539	0.001660	-0.012470	0.003411	5514.702435	33866.190584	3611.036952	18309.856401
115.535500	-0.010509	0.001600	-0.012436	-0.002458	5557.074481	34283.232050	3621.553636	18520.056040
116.038500	-0.011204	0.001582	-0.015448	0.000070	5537.192916	34099.807667	3611.678130	18429.163422
116.536000	-0.008353	0.002481	-0.011795	-0.001785	5566.264552	34298.279894	3621.495333	18495.801968
117.041500	-0.011977	0.001798	-0.010802	0.004222	5507.100698	33818.239751	3612.553502	18281.018825
117.536000	-0.006818	0.001181	-0.014682	-0.002971	5583.227363	34290.119154	3618.450888	18538.585737
118.036500	-0.013382	0.000555	-0.011270	-0.000318	5526.218261	34053.941065	3619.808073	18443.097434
118.536500	-0.012749	0.001292	-0.018262	-0.002720	5544.856265	34279.948781	3611.637936	18529.526627
119.034500	-0.012049	0.002387	-0.012287	0.003430	5511.474779	33916.761729	3611.326504	18309.169090
119.535000	-0.007085	0.002205	-0.012483	-0.001902	5574.892800	34286.839986	3620.473610	18500.042618
120.035000	-0.011202	0.001630	-0.014474	-0.002241	5551.445129	34269.770186	3617.519692	18512.244400
120.535500	-0.007428	0.001535	-0.008489	-0.001982	5573.251896	34244.243580	3627.805264	18502.912817
121.035500	-0.012278	0.000137	-0.016850	0.002671	5514.705894	33810.442771	3604.623119	18336.211845
121.536000	-0.011754	0.001598	-0.010232	-0.001859	5545.677780	34239.819592	3624.437596	18498.465126
122.039000	-0.009981	0.001818	-0.013475	-0.001725	5555.807896	34246.113577	3618.382136	18493.658214
122.537000	-0.006726	0.002362	-0.004393	-0.001186	5572.662403	34246.437566	3633.793332	18474.266886
123.037000	-0.010909	0.001773	-0.008998	0.003166	5520.034200	33891.722957	3617.642237	18318.564294
123.537000	-0.006005	0.002863	-0.006557	-0.000972	5575.823210	34267.200337	3629.473657	18466.576745
124.034500	-0.010416	0.002680	-0.006702	0.001613	5532.559144	34067.856247	3624.541274	18373.944894
124.535000	-0.006413	0.001789	-0.010576	-0.002067	5580.112062	34268.667535	3624.193866	18505.977493
125.035500	-0.012625	0.000771	-0.012746	0.003456	5507.823544	33799.735034	3610.469173	18308.271454
125.535500	-0.009076	0.001378	-0.012024	-0.002120	5563.860337	34242.824777	3621.686251	18507.867311
126.036000	-0.011578	0.000733	-0.015335	0.000179	5534.229792	34031.069124	3611.686927	18425.260340
126.536500	-0.007420	0.002752	-0.007921	-0.001034	5567.399020	34263.600988	3627.116076	18468.787068
127.036500	-0.015585	0.000804	-0.017077	0.002585	5495.152054	33864.085643	3604.375395	18339.277605
127.537000	-0.008483	0.002052	-0.009882	-0.001283	5562.347846	34231.067655	3624.029475	18477.740535
128.037000	-0.006623	0.001355	-0.009760	0.000527	5562.652844	34050.702932	3620.998406	18412.783710
128.534500	-0.007277	0.001527	-0.012988	-0.001195	5569.291660	34186.869981	3618.305811	18474.595304
129.034500	-0.010624	0.001739	-0.014250	0.003361	5520.586439	33875.387836	3607.981456	18311.623970
129.535500	-0.008740	0.001430	-0.006950	-0.001084	5559.519063	34171.839825	3628.963131	18470.590824
130.038500	-0.008585	0.001988	-0.011122	0.000185	5552.621792	34120.700005	3619.172231	18425.034702
130.535500	-0.008904	0.001922	-0.014848	-0.001286	5559.756965	34221.924603	3615.150613	18477.854212
131.036500	-0.010534	0.001279	-0.011030	0.002872	5524.124874	33877.469485	3614.546392	18329.048594
131.539000	-0.008509	0.001440	-0.006376	-0.000846	5559.477017	34155.474657	3629.573290	18462.036165
132.037000	-0.011591	0.002026	-0.008944	-0.000963	5541.166244	34206.117708	3625.144222	18466.245676
132.537000	-0.005629	0.001625	-0.012095	-0.001012	5578.417796	34180.717977	3619.574414	18468.004432
133.037500	-0.012532	0.001942	-0.008910	0.003780	5506.412142	33859.981341	3616.703449	18296.724913
133.537500	-0.009937	0.001040	-0.006796	-0.001119	5552.329541	34146.312377	3629.306786	18471.848193
134.038000	-0.008402	0.002470	-0.005277	-0.000567	5558.409597	34209.516701	3631.059406	18452.007221
134.535500	-0.008956	0.001758	-0.012763	-0.000381	5553.834473	34144.914742	3617.252827	18445.358861
135.036000	-0.008714	0.002039	-0.007453	-0.000574	5556.521502	34179.019772	3627.132980	18452.285827
135.536000	-0.009047	0.002166	-0.010004	-0.000157	5551.883234	34158.129412	3621.788500	18437.304894
136.039000	-0.007384	0.001623	-0.009921	-0.001339	5569.518099	34204.146619	3624.060580	18479.764721
136.536500	-0.007570	0.001891	-0.009504	-0.000773	5564.848901	34182.701646	3623.792579	18459.422094
137.037000	-0.012980	0.002336	-0.006770	0.001650	5516.652883	34040.500460	3624.352922	18372.633077
137.537000	-0.013053	0.002288	-0.008162	-0.000052	5526.600485	34159.303328	3624.910562	18433.530857
138.037500	-0.011760	0.002784	-0.007886	-0.000262	5535.822177	34210.202857	3625.787052	18441.084887
138.535000	-0.008670	0.001766	-0.009486	-0.000473	5556.167984	34152.069474	3623.287389	18448.654407
139.041000	-0.009241	0.002024	-0.016700	0.001407	5541.045342	34035.600669	3607.107376	18381.323251
139.535500	-0.006033	0.002758	-0.011713	0.000442	5566.845596	34157.580458	3617.658160	18415.832562
140.035500	-0.007764	0.001589	-0.007723	0.001178	5551.565735	34020.823750	3623.488825	18389.505843
140.536000	-0.011735	0.001916	-0.003928	-0.000575	5537.898271	34170.261555	3633.527809	18452.323610
141.036000	-0.008631	0.002083	-0.008872	-0.000107	5554.145499	34148.505411	3623.730902	18435.508569
141.536500	-0.010129	0.001385	-0.010122	-0.000769	5548.979005	34145.943894	3622.675216	18459.279904
142.036000	-0.010229	0.001753	-0.008739	-0.000543	5546.972775	34156.185056	3624.757135	18451.173054
142.537000	-0.009048	0.001880	-0.010547	-0.000455	5553.722563	34158.978130	3621.349429	18448.006469
143.035000	-0.010351	0.002511	-0.016375	0.002462	5527.748885	33994.836558	3605.823504	18343.640228
143.535000	-0.009377	0.002125	-0.006855	-0.000063	5549.270762	34148.481497	3627.290228	18433.956167
144.035500	-0.010744	0.001754	-0.011573	0.001831	5529.211375	33985.817175	3615.432058	18366.169532
144.535000	-0.008749	0.002131	-0.003179	-0.000422	5555.359662	34174.661244	3634.613929	18446.803694
145.036000	-0.011987	0.001609	-0.005372	0.001631	5522.827705	33989.770689	3626.908185	18373.294549
145.539000	-0.008843	0.002195	-0.010225	0.000166	5551.148827	34136.942437	3620.813358	18425.728245
146.036500	-0.009616	0.002015	-0.009706	0.001708	5536.890585	34013.342391	3618.982897	18370.573818
146.537000	-0.008419	0.001131	-0.013006	-0.000403	5557.290890	34101.347046	3616.859045	18446.132507
147.036500	-0.008446	0.002574	-0.009056	0.002542	5538.953191	33993.664766	3618.653064	18340.797395
147.537000	-0.006534	0.003135	0.000655	0.000990	5560.340380	34145.281944	3639.044495	18396.221644
148.043000	-0.010703	0.001144	-0.008741	0.001235	5533.121857	33984.850866	3621.557836	18387.475822
148.534500	-0.007159	0.001661	-0.012866	0.000268	5560.936246	34091.235065	3615.911634	18422.063074
149.035500	-0.011787	0.001869	-0.011841	0.000938	5528.292724	34058.056482	3616.543792	18398.068835
149.536000	-0.009687	0.002453	-0.012572	0.000753	5542.326355	34113.309632	3615.572557	18404.706335
150.035500	-0.009509	0.001554	-0.016528	0.002100	5535.137771	33952.289151	3606.190673	18356.571679
150.536500	-0.012279	0.000801	-0.013069	-0.000655	5535.049034	34095.805356	3617.195866	18455.197215
151.036500	-0.008034	0.002175	-0.012314	0.001479	5548.040640	34041.282198	3614.740236	18378.754845
151.537000	-0.007237	0.002493	-0.008854	0.000874	5556.698878	34107.457942	3622.001193	18400.371177
152.037500	-0.010860	0.001823	-0.012891	0.002070	5527.037947	33973.710887	3612.665977	18357.646699
152.537500	-0.008633	0.001616	-0.012672	0.000209	5552.179784	34092.221883	3616.362875	18424.175751
153.043500	-0.009212	0.001676	-0.011751	0.001482	5540.760453	34005.209264	3615.737172	18378.632055
153.535000	-0.008455	0.001687	-0.007652	0.000270	5552.902432	34092.982746	3625.250534	18422.008474
154.035500	-0.008552	0.002434	-0.012342	0.003375	5533.183074	33924.028047	3611.326815	18311.142166
154.535500	-0.008752	0.003120	-0.005892	0.001397	5544.115188	34114.986047	3626.391944	18381.664668
155.039000	-0.007830	0.002198	-0.009547	0.001730	5547.747154	34024.865301	3619.226850	18369.775388
155.536500	-0.009640	0.002701	-0.009627	0.000923	5541.565613	34118.896623	3620.526800	18398.608663
156.037000	-0.011154	0.002006	-0.009453	0.001710	5527.442454	34012.514932	3619.430989	18370.481411
156.537000	-0.009400	0.000944	-0.006286	0.000088	5548.191533	34052.685356	3628.044036	18428.514613
157.037000	-0.008347	0.001961	-0.008117	0.000967	5549.266612	34062.610677	3623.159216	18397.046844
157.534500	-0.009460	0.002499	-0.005859	0.001230	5540.782785	34082.308372	3626.752659	18387.637656
158.034500	-0.010045	0.001991	-0.013148	0.000526	5541.519070	34096.491457	3614.952482	18412.848982
158.535500	-0.008599	0.001564	-0.004811	0.000510	5550.531073	34066.949503	3629.952854	18413.410226
159.036000	-0.008408	0.002154	-0.013845	0.000462	5552.006755	34112.681466	3613.825341	18415.110867
159.536500	-0.008386	0.001588	-0.000866	0.000012	5554.926103	34104.357926	3638.048765	18431.236368
160.036500	-0.008306	0.002045	-0.005357	0.000697	5551.181091	34087.959541	3628.623538	18406.693372
160.536500	-0.008676	0.001976	-0.005430	0.000507	5550.073551	34096.705948	3628.836609	18413.524562
161.037000	-0.011821	0.001554	-0.008520	0.000152	5532.903768	34091.892529	3623.899270	18426.236094
161.537000	-0.007881	0.001876	-0.014779	0.000708	5553.743067	34075.035993	3611.734333	18406.302684
162.035000	-0.008418	0.002580	-0.012295	0.000940	5548.991308	34109.024127	3615.732507	18398.007291
162.535000	-0.007578	0.002620	-0.017629	0.001175	5552.731182	34095.027463	3605.882409	18389.614015
163.035500	-0.006864	0.001524	-0.016213	0.000794	5559.505229	34043.645374	3609.046696	18403.237137
163.535500	-0.009007	0.001077	-0.011900	0.000299	5549.317157	34047.103803	3617.579045	18420.965486
164.035500	-0.007877	0.003100	-0.010673	0.001232	5550.528751	34125.395339	3618.103170	18387.553160
164.539000	-0.009313	0.001541	-0.008494	0.000410	5546.744607	34072.461163	3623.483265	18416.989671
165.036500	-0.008537	0.001126	-0.009345	0.000797	5549.144277	34014.922218	3621.259710	18403.144309
165.535500	-0.010970	0.001290	-0.011409	-0.000031	5539.252704	34086.066309	3619.045779	18432.796170
166.037000	-0.007854	0.001558	-0.006758	0.000566	5554.790082	34062.453956	3626.329510	18411.402224
166.537000	-0.007356	0.001712	-0.007918	0.000886	5555.891544	34050.549653	3623.661479	18399.933533
167.037500	-0.012305	0.000916	-0.007815	0.000679	5526.711011	34008.352310	3624.221064	18407.368111
167.535000	-0.007219	0.001950	-0.010005	0.001348	5553.877162	34034.447078	3619.089967	18383.411929
168.035500	-0.006927	0.002018	-0.009547	0.003389	5543.085664	33893.288117	3616.266031	18310.631429
168.535500	-0.012459	0.001624	-0.009056	0.000084	5529.408565	34101.812705	3623.058016	18428.661225
169.038000	-0.009667	0.002043	-0.011328	0.001707	5536.579065	34015.438049	3616.088264	18370.592286
169.536000	-0.008675	0.002644	-0.012723	0.001533	5543.751295	34070.960310	3613.916644	18376.796510
170.036500	-0.009600	0.000949	-0.016220	0.001126	5540.559163	33978.676359	3608.447657	18391.343923
170.536500	-0.007870	0.002485	-0.008413	0.001457	5549.183112	34065.046107	3621.747480	18379.521151
171.037000	-0.008025	0.000960	-0.003578	0.001181	5549.931749	33975.539264	3630.971874	18389.397221
171.534500	-0.011696	0.002230	-0.012815	0.001301	5526.627363	34057.892547	3614.166002	18385.092835
172.034500	-0.010973	0.001232	-0.008802	0.002426	5524.168601	33905.945429	3619.314761	18344.929002
172.535000	-0.009697	0.001113	-0.006180	0.000613	5543.122671	34027.160307	3627.286699	18409.703057
173.036000	-0.009620	0.001226	-0.008213	0.001042	5540.954777	34004.545813	3622.850952	18394.358993
173.535000	-0.008176	0.002055	-0.010919	0.001181	5548.999905	34054.035109	3617.755762	18389.395960
174.036500	-0.011776	0.002025	-0.005624	0.003690	5511.557291	33872.355349	3622.744192	18299.927387
174.536000	-0.008821	0.002045	-0.012976	0.001523	5542.914316	34028.755204	3613.486506	18377.180790
175.037000	-0.012352	0.000756	-0.011201	0.000676	5526.437091	33997.079561	3618.153658	18407.451887
175.537000	-0.007488	0.002830	-0.011900	0.001861	5549.049215	34060.758882	3614.797266	18365.080917
176.043000	-0.011203	0.001567	-0.008974	0.002364	5523.136754	33934.316451	3619.117233	18347.141579
176.534500	-0.010855	0.001569	-0.010310	0.001531	5530.367632	33994.071153	3618.217900	18376.877125
177.035000	-0.009990	0.001439	-0.010763	0.001346	5536.812273	33998.000313	3617.740132	18383.500816
177.535000	-0.009718	0.002027	-0.009275	0.001314	5538.677936	34042.440769	3620.456929	18384.621142
178.035500	-0.009891	0.001909	-0.010286	0.001721	5535.121565	34004.805733	3617.922030	18370.100950
178.538000	-0.011028	0.001272	-0.009143	0.001974	5526.592332	33941.081368	3619.511756	18361.051494
179.035500	-0.007414	0.002286	-0.007406	0.001803	5549.865591	34025.993880	3622.935247	18367.183459
179.535500	-0.009201	0.002399	-0.006922	0.002036	5537.420441	34017.373432	3623.385370	18358.843485
180.039500	-0.007547	0.001944	-0.007973	0.001809	5549.008354	34001.024468	3621.904951	18366.952351
180.539500	-0.009905	0.001360	-0.010924	0.002357	5531.135489	33920.084367	3615.651292	18347.416037
181.037500	-0.011255	0.001503	-0.008378	0.001531	5527.923692	33989.379646	3621.677747	18376.899955
181.535000	-0.009327	0.001808	-0.010538	0.001209	5541.730687	34034.252270	3618.385975	18388.377941
182.035500	-0.007266	0.002277	-0.007497	0.001527	5552.486857	34045.146685	3623.267335	18377.036943
182.535500	-0.009658	0.001408	-0.012473	0.001689	5536.744386	33971.226384	3614.084701	18371.235535
183.056000	-0.009464	0.001602	-0.013683	0.001320	5540.206139	34011.529048	3612.591596	18384.412833
183.538500	-0.008411	0.001798	-0.013327	0.001471	5545.763059	34014.804536	3612.955840	18379.026233
184.036500	-0.009773	0.002004	-0.009084	0.001908	5534.692304	33998.180600	3619.736326	18363.403472
184.536500	-0.008001	0.001966	-0.003573	0.001906	5545.607570	33995.680808	3629.664798	18363.494222
185.036500	-0.008258	0.002253	-0.013342	0.002162	5542.451013	33997.912074	3611.704881	18354.364541
185.537500	-0.008455	0.002462	-0.007724	0.002346	5540.101196	33999.665651	3621.388039	18347.784614
186.037500	-0.008533	0.003196	-0.012344	0.002609	5538.004696	34033.405054	3612.679868	18338.417959
