sample name	sample
index	730
start time	 03-25-2021  02:41:11 PM
880	0.172970
Peak Time (s)	132.535
Peak Height 	0.173
calc peak height	130,133
Baseline Time (s)	11.036
Baseline Value 	-0.002839
subtract baseline	10,4
Abs	0.099688
Peak Time (s)	131.036
Peak Height 	0.09969
calc peak height	130,133
Baseline Time (s)	9.539
Baseline Value 	0.002906
subtract baseline	10,3
PK_550	0.061574
Peak Time (s)	132.535
Peak Height 	0.06157
calc peak height	130,133
Baseline Time (s)	10.54
Baseline Value 	-1.14E-4
subtract baseline	10,2
PK_880	0.093643
Peak Time (s)	132.535
Peak Height 	0.09364
calc peak height	130,133
Baseline Time (s)	8.535
Baseline Value 	-3.5515E-5
subtract baseline	10,1


Time (s)	A880-A510	A880-A775	A880-A975	A880	I510	I775	I975	I880	
0.035000	-0.004102	-0.000358	-0.002263	0.006941	7061.800587	43500.032480	3934.675032	23226.893882
0.541500	-0.001371	0.001050	-0.005902	0.004308	7113.963561	43879.648603	3932.135106	23350.746082
1.041500	0.001179	0.000353	0.003009	0.001970	7162.057847	44034.873004	3960.857538	23461.374058
1.538500	0.001403	0.000480	0.001729	0.001796	7165.992192	44063.346127	3957.999794	23469.618682
2.036500	-0.001116	0.000016	-0.004030	0.004922	7110.453041	43724.437717	3935.311787	23321.822025
2.545000	0.000015	-0.000054	-0.005605	0.001445	7155.748733	44046.086372	3940.129594	23486.314989
3.037500	0.000161	0.000751	-0.002643	0.003559	7136.342773	43922.162538	3942.283571	23386.128840
3.540000	-0.000818	-0.000667	-0.005379	0.001857	7143.459616	43948.988488	3939.657386	23466.734399
4.035000	0.000940	-0.000287	-0.004391	0.002724	7152.243994	43902.989006	3939.964221	23425.637883
4.537500	0.000378	0.000028	0.001017	0.002275	7151.127116	43975.176933	3954.931680	23446.906481
5.035500	-0.000311	-0.000639	-0.008476	0.001839	7148.632533	43953.369409	3931.871236	23467.602554
5.541000	0.001610	0.000552	0.001418	-0.001530	7201.127778	44386.802961	3965.807426	23628.087334
6.036500	-0.000011	-0.000047	-0.001100	0.000173	7168.067792	44167.411297	3954.892605	23546.791462
6.539000	-0.000093	0.000405	0.001689	0.002237	7146.866427	44014.532422	3956.761831	23448.736916
7.040000	0.000493	0.000775	-0.002307	0.002750	7147.578700	44000.927167	3945.200134	23424.394889
7.540000	0.000315	-0.000316	0.002757	0.000068	7172.347700	44151.888731	3965.136416	23551.823677
8.070500	0.000752	0.000359	-0.000310	0.000367	7173.709941	44187.505344	3956.428090	23537.543985
8.535000	0.000000	-0.000658	-0.004609	-0.000718	7177.018479	44194.081990	3948.180784	23589.304263
9.035000	-0.001070	-0.000289	-0.001514	-0.000124	7160.523566	44172.628925	3954.593137	23560.953121
9.539000	0.001382	0.000013	0.000000	-0.000097	7184.573822	44198.785839	3958.424664	23559.667350
10.041500	0.000592	0.001045	0.000497	0.000314	7172.644250	44257.827230	3958.646308	23540.079085
10.539500	-0.002077	0.000000	-0.002598	0.001352	7136.034958	44059.980734	3948.028804	23490.727639
11.036000	-0.001126	-0.000366	0.000750	0.000000	7158.747134	44153.562492	3960.112818	23555.048835
11.539000	0.000400	0.000335	0.001643	0.000568	7168.219476	44166.141140	3960.951232	23527.977141
12.036500	-0.000046	0.000659	0.000009	0.001061	7158.928068	44150.079508	3955.462415	23504.534346
12.537500	-0.000118	0.000190	-0.003224	0.002111	7147.853905	44006.036542	3944.493440	23454.702204
13.034500	-0.000714	0.000255	0.001826	0.000780	7155.103212	44138.396306	3960.876249	23517.898897
13.538000	0.000616	-0.000183	-0.005119	0.000337	7172.664705	44138.967636	3944.186226	23539.012038
14.035000	-0.000234	0.000521	-0.000553	0.000930	7158.368221	44149.462621	3954.354589	23510.775323
14.539000	0.000219	0.000108	0.003037	0.001799	7154.253485	44027.777542	3961.373176	23469.468878
15.036000	0.002026	-0.000276	0.003539	0.000444	7185.611597	44119.893457	3966.189847	23533.912078
15.536000	0.000101	0.000263	-0.000330	0.000584	7165.111240	44157.784550	3955.818396	23527.234000
16.036500	0.000045	0.000203	0.000539	0.000700	7163.405166	44141.112604	3957.760195	23521.735982
16.537000	-0.000235	-0.000470	-0.000579	0.000807	7159.573145	44067.041826	3954.602157	23516.610482
17.037000	0.000871	-0.000001	-0.001651	0.000282	7175.736774	44161.449688	3953.197100	23541.613591
17.537500	0.000181	0.000294	0.007510	0.000706	7164.696999	44149.133908	3975.869253	23521.434547
18.035000	0.000989	0.000087	0.002053	0.000416	7175.577086	44157.002922	3962.406846	23535.230784
18.534500	-0.000831	-0.000037	0.001439	0.001749	7144.394671	44018.844770	3957.373867	23471.862421
19.035500	0.001057	-0.000365	-0.004065	-0.000081	7181.194185	44161.352935	3947.942098	23558.932303
19.539500	-0.000579	-0.000192	0.002084	-0.000003	7164.181026	44170.309951	3963.572304	23555.170900
20.036000	0.002099	0.000780	0.004333	0.000825	7182.543974	44184.010476	3967.264158	23515.772435
20.539500	-0.001434	0.000418	0.000599	0.004836	7108.183809	43770.404295	3947.295204	23325.863868
21.037000	0.000542	-0.000327	-0.001382	-0.000695	7182.168174	44223.372210	3956.402855	23588.197387
21.537000	0.001332	-0.000002	0.002329	-0.000584	7188.921568	44243.663810	3965.715539	23582.879854
22.038000	0.000854	0.000466	0.004695	0.000757	7170.845782	44160.652753	3968.381986	23518.980324
22.534500	0.002377	0.000905	0.002785	-0.000063	7194.154219	44280.529230	3965.549116	23558.066670
23.038000	0.001269	0.000261	0.003866	0.000168	7180.821151	44197.149487	3967.757109	23547.049431
23.535500	0.001125	0.000120	0.003212	0.000220	7178.868825	44178.746797	3965.919814	23544.546243
24.035500	0.002533	0.001319	0.000214	0.000902	7186.087153	44227.977730	3956.400600	23512.101819
24.536000	0.002466	0.000538	0.003274	-0.000145	7195.861924	44253.385737	3967.033356	23561.978444
25.036000	0.000709	-0.000711	-0.000038	-0.000984	7186.711676	44214.281141	3960.619144	23602.011038
25.539000	0.001337	0.000182	-0.001215	-0.000200	7185.153827	44224.658205	3955.558881	23564.570136
26.036500	0.000136	-0.000220	-0.001974	0.000272	7168.553526	44141.644785	3952.396401	23542.110556
26.537000	-0.002252	-0.000172	0.002492	0.004885	7099.723995	43710.234032	3952.016236	23323.561107
27.034500	0.000604	0.001115	0.000797	0.000476	7171.160613	44249.150861	3959.002892	23532.373905
27.534500	0.001406	-0.000032	0.002563	-0.000007	7183.919308	44185.896092	3964.824537	23555.361130
28.035000	-0.000153	-0.000789	-0.000802	-0.000124	7169.605827	44125.150361	3956.426816	23560.971803
28.537500	-0.001695	0.000133	-0.001955	0.004875	7105.254629	43739.905168	3940.689024	23324.031600
29.035000	0.001894	-0.000007	0.001622	-0.000493	7193.619966	44234.601618	3963.646685	23578.568182
29.536000	0.001646	0.000522	0.001942	0.000168	7184.562458	44221.972523	3962.759522	23547.029215
30.039000	0.002190	0.001295	0.002445	0.001376	7177.967862	44180.683151	3960.937633	23489.588845
30.536500	-0.003375	-0.000413	-0.003367	0.005227	7085.463234	43655.484170	3936.218780	23307.451515
31.036500	0.002442	0.000126	0.001295	0.000024	7193.932326	44198.087104	3961.460777	23553.922345
31.540000	0.001186	0.000232	-0.002327	0.000058	7181.093391	44204.846253	3952.038252	23552.287495
32.034000	0.001952	0.000869	0.001684	0.000229	7187.013018	44249.273744	3961.936961	23544.159764
32.537500	-0.000298	0.000383	0.002303	-0.000207	7168.990840	44244.510075	3964.669837	23564.922200
33.034500	-0.000029	0.000530	-0.000219	0.000099	7168.620178	44229.275755	3957.354037	23550.326716
33.534500	-0.000245	0.000401	-0.001653	-0.000011	7167.566988	44227.504234	3953.946020	23555.557196
34.035500	0.002907	0.000780	0.005784	0.001253	7186.322683	44143.356321	3969.927989	23495.408094
34.535500	-0.003020	-0.000129	-0.004897	0.005027	7090.855524	43700.942462	3932.859307	23316.870663
35.036500	0.001379	0.000377	0.003460	0.000143	7182.162491	44210.583409	3966.766715	23548.221373
35.536500	0.001541	0.000045	0.000379	-0.000307	7188.248180	44221.856470	3959.946929	23569.690069
36.037000	0.001563	0.000088	-0.002157	-0.000151	7186.919438	44211.014039	3953.010916	23562.248541
36.534000	-0.001824	0.000383	0.000630	0.003889	7113.629016	43856.254661	3949.795918	23370.533811
37.034500	0.000092	0.000400	0.003564	-0.000116	7171.954014	44237.447866	3967.710752	23560.588272
37.535000	-0.001366	0.000186	-0.003611	0.000344	7152.976771	44173.269615	3948.015429	23538.670292
38.035000	-0.000478	-0.000656	-0.001438	-0.000866	7173.740277	44208.278772	3956.699328	23596.344274
38.535500	0.002863	0.000095	0.000285	0.000158	7196.790358	44182.282663	3958.501231	23547.507834
39.036000	-0.000290	0.000375	0.001173	-0.000243	7169.425882	44247.190776	3961.835159	23566.650360
39.536000	0.000288	0.000555	0.001016	0.001190	7160.963696	44128.044016	3957.725114	23498.426021
40.036000	0.001053	0.000516	0.004033	0.000496	7175.418633	44190.247387	3967.340501	23531.436775
40.534000	0.000893	0.000458	0.003157	0.000102	7177.742609	44222.225760	3966.086616	23550.210486
41.034000	0.001748	0.000777	0.001698	0.000672	7180.574059	44198.258345	3960.823575	23523.041573
41.534500	0.000806	-0.000818	-0.002011	0.000883	7169.126220	44026.894895	3950.730195	23513.001081
42.035000	0.003425	0.000423	0.002787	0.000804	7195.952687	44152.085223	3963.304303	23516.773132
42.535000	0.000503	-0.000021	0.002882	0.000269	7172.220226	44160.777137	3964.938062	23542.243482
43.035000	0.000952	0.000729	0.000235	0.000357	7175.791469	44223.664430	3957.859897	23538.036942
43.535500	-0.000013	0.000103	-0.002374	0.001976	7150.215431	44010.588650	3947.006168	23461.071325
44.036000	-0.000008	0.000092	-0.000625	0.000492	7164.938112	44150.303869	3955.294718	23531.594125
44.535500	-0.001057	0.000160	-0.000727	0.005773	7102.715331	43658.022341	3941.525631	23281.739771
45.036500	0.002456	0.000407	0.001569	0.000287	7191.441152	44199.682934	3961.485427	23541.355110
45.537000	-0.000511	-0.000282	0.001192	0.002337	7141.755123	43940.045443	3955.224556	23443.987247
46.034500	-0.000192	-0.000030	0.003028	0.000297	7165.050220	44157.220269	3965.244381	23540.888741
46.534500	-0.000022	0.000992	0.003571	0.005465	7115.842465	43765.160299	3953.300108	23296.251867
47.034500	0.001649	0.000224	0.006697	0.000007	7186.193431	44208.931621	3975.569096	23554.697160
47.535000	0.001041	-0.000386	0.000513	0.002295	7157.477584	43934.218710	3953.586510	23445.972505
48.039500	0.001320	-0.000471	0.001635	-0.000013	7183.121905	44144.776515	3962.433820	23555.653033
48.535500	-0.002606	-0.000881	-0.004305	0.004867	7096.447177	43645.412546	3934.756712	23324.408540
49.035500	0.001678	0.000513	0.001529	0.000139	7185.179421	44223.883773	3961.768593	23548.436509
49.536000	0.000196	-0.000317	-0.004895	0.002808	7144.083299	43892.284656	3938.472769	23421.663657
50.036500	0.000837	0.000242	0.002168	0.000271	7175.498428	44185.506642	3963.079284	23542.117232
50.560500	-0.001889	-0.000039	-0.003560	0.005496	7097.301499	43665.285876	3935.048072	23294.765554
51.060000	0.003151	0.000393	0.003273	0.000436	7196.893967	44184.236705	3965.519129	23534.288866
51.540500	-0.002025	-0.000958	0.002053	0.003151	7118.890868	43799.473193	3955.346567	23405.439371
52.044000	0.001443	0.000050	0.003510	0.000061	7183.618756	44187.351919	3967.111576	23552.163651
52.535500	0.000780	0.000284	0.001413	0.000475	7172.921283	44170.190767	3960.597575	23532.446821
53.035500	0.002242	0.000920	0.002921	0.000707	7185.136337	44208.588388	3963.901535	23521.393152
53.560500	-0.000087	0.000680	0.000758	0.005524	7114.628598	43730.277615	3945.944319	23293.456983
54.036500	0.001046	0.000486	0.005075	0.000442	7175.881146	44192.534079	3970.193735	23533.993297
54.550500	-0.000770	0.000425	0.001879	0.004092	7121.969212	43841.106750	3952.479802	23360.969824
55.170000	0.000164	-0.000490	0.007433	-0.000203	7173.535183	44160.990475	3978.052303	23564.718971
55.600000	-0.002348	-0.000546	-0.002334	0.005466	7093.118727	43620.579824	3938.228058	23296.183465
56.034500	0.002028	0.000644	-0.001486	0.000911	7180.984495	44162.999064	3952.007371	23511.689021
56.537000	-0.002013	0.000519	0.000406	0.006038	7090.825236	43666.898223	3943.736395	23269.307928
57.052000	0.001896	0.000353	0.001047	0.000660	7182.170348	44159.195827	3959.173291	23523.636416
57.536000	-0.002265	0.000655	0.001509	0.005124	7097.266172	43765.528692	3948.884483	23312.288993
58.083500	0.002420	-0.000259	0.001530	-0.000751	7201.441027	44235.161063	3964.077717	23590.883886
58.540500	-0.000085	-0.000226	0.000040	-0.000379	7172.811695	44202.898180	3959.255039	23573.114477
59.036500	0.002014	0.000727	0.001004	0.000237	7187.550483	44234.945547	3960.155354	23543.766914
59.536500	-0.001547	-0.000527	-0.004339	0.004726	7108.152484	43691.799464	3935.025006	23331.031719
60.034000	0.001959	-0.000365	0.002349	-0.000141	7190.761785	44167.051108	3964.619728	23561.781629
60.565000	0.000221	0.000150	0.000686	0.000259	7169.522920	44178.002450	3959.278398	23542.729434
61.038500	0.000496	0.000311	0.002880	0.000388	7170.960558	44180.981103	3964.621759	23536.559174
61.535000	-0.003535	-0.000762	0.000490	0.004998	7086.131236	43644.167621	3946.602712	23318.207898
62.035000	0.001509	0.000580	0.003261	0.000150	7183.392317	44229.249608	3966.231849	23547.916143
62.535500	0.000843	0.000234	-0.001722	0.000210	7176.165096	44190.599849	3953.199200	23545.024466
63.036000	0.002874	0.000308	0.002981	0.000302	7195.471844	44188.887855	3965.109889	23540.670717
63.536500	-0.002928	0.000144	0.002983	0.005715	7085.065150	43662.014252	3951.148971	23284.483903
64.036000	0.000962	0.000427	-0.001285	0.000375	7175.718938	44193.241860	3953.900334	23537.187140
64.537000	0.001469	-0.000176	-0.002113	-0.000116	7185.626469	44182.620238	3953.032709	23560.562281
65.036500	0.001374	0.000550	0.001625	0.000621	7177.372293	44181.643382	3960.769782	23525.492330
65.534000	-0.002097	-0.000362	0.001103	0.005668	7093.600954	43618.914724	3946.456653	23286.686107
66.034500	0.002148	0.000452	0.004178	0.000554	7185.720740	44178.646144	3967.564401	23528.663940
66.538000	0.001189	-0.000714	0.004339	-0.000261	7184.292638	44145.218810	3970.105980	23567.489278
67.035000	0.001183	0.000953	0.001959	0.000781	7173.874372	44204.676622	3961.218097	23517.854950
67.535500	-0.000713	-0.000638	0.002839	0.005362	7110.086282	43621.685257	3951.684526	23301.084679
68.036000	0.001015	0.000316	-0.001166	0.000311	7176.882260	44188.816425	3954.368859	23540.232830
68.536000	-0.000413	-0.000171	-0.001635	0.005453	7112.136881	43657.046620	3940.033421	23296.805260
69.036500	0.002027	0.000248	0.006247	0.000642	7183.641336	44150.848226	3972.731561	23524.483307
69.536500	-0.003478	-0.000313	-0.001473	0.005982	7077.136427	43594.121022	3939.103119	23271.932822
70.034000	0.001651	0.000529	0.004571	0.000709	7179.239043	44171.247403	3968.184458	23521.290097
70.535000	-0.000839	0.000137	0.000557	0.005437	7108.127039	43687.445514	3945.652425	23297.547019
71.035000	0.001129	-0.000157	0.001674	-0.000171	7182.798131	44189.666444	3962.944948	23563.193796
71.535500	-0.002817	-0.000226	-0.000629	0.005998	7083.388869	43600.779920	3941.206316	23271.181982
72.036000	0.002406	0.000487	0.002817	0.000809	7185.746284	44157.720957	3963.366737	23516.514377
72.535500	-0.001936	0.000116	0.002299	0.005731	7094.559083	43657.828907	3949.354367	23283.721179
73.036000	-0.000089	0.000564	0.004896	0.001134	7157.784164	44134.187285	3967.925408	23501.087468
73.536000	-0.003328	0.000074	-0.002628	0.006271	7075.782833	43603.225109	3935.446726	23258.338784
74.036500	0.002371	0.001009	0.000611	0.001433	7179.204358	44148.035780	3956.054242	23486.862821
74.610500	-0.001424	0.000323	0.001614	0.004152	7114.971542	43825.898779	3951.645830	23358.142128
75.037500	0.000853	-0.000020	0.001540	0.000459	7173.803767	44142.739965	3960.968068	23533.181088
75.542000	-0.001638	0.000208	-0.000662	0.006158	7093.298130	43626.403004	3940.713296	23263.650872
76.059500	0.000044	-0.000180	0.002901	0.000604	7164.345902	44113.855364	3964.118514	23526.303064
76.535500	0.000704	0.000788	0.003782	0.004413	7133.277522	43845.046841	3956.546883	23345.794330
77.035500	0.002013	0.000874	0.003048	0.001097	7178.980884	44167.138669	3963.221815	23502.848836
77.536500	-0.002175	0.000041	0.002357	0.005871	7090.870791	43637.627486	3949.144514	23277.137975
78.036500	0.001696	0.000620	0.002130	0.000774	7179.033751	44173.640572	3961.676706	23518.175821
78.536500	-0.002134	-0.000425	0.005374	0.005683	7093.100891	43611.628758	3957.379340	23285.991396
79.037000	0.001571	-0.000247	0.003173	-0.000091	7186.395313	44173.507874	3966.628471	23559.374400
79.534000	0.000002	0.000911	-0.000223	0.006609	7104.887722	43650.028943	3940.682483	23242.452121
80.037500	0.001007	-0.000281	-0.001975	0.000292	7176.987895	44133.864615	3952.338409	23541.120903
80.534500	0.001609	0.000836	0.001880	0.000753	7178.384276	44196.246770	3961.087445	23519.193750
81.034500	0.004000	0.000532	0.000632	0.000654	7203.182082	44176.684594	3958.115797	23523.885364
81.535000	-0.002075	0.000070	0.000420	0.005663	7093.861682	43659.838486	3944.725447	23286.897090
82.041000	0.002648	0.000236	0.000288	0.000809	7188.164482	44133.879941	3956.833285	23516.551015
82.536000	-0.000321	0.000121	0.004241	0.002858	7138.494412	43928.960890	3961.751156	23419.311716
83.036500	0.002890	0.000320	0.007039	0.001149	7187.185009	44109.485722	3973.474318	23500.345075
83.536500	-0.001643	0.000510	0.001899	0.006329	7091.588894	43638.700895	3946.803166	23255.633726
84.042000	0.003411	-0.000009	0.001965	0.000255	7201.301350	44163.255982	3962.597230	23542.923239
84.534000	-0.001131	-0.000281	0.000150	0.003391	7125.300972	43840.605806	3949.844374	23394.081738
85.035000	0.001513	-0.000169	0.001982	-0.001991	7204.771601	44361.976996	3968.472978	23650.153400
85.534500	0.000780	-0.000191	0.001023	0.001457	7163.186731	44031.880306	3957.055601	23485.736660
86.035000	-0.001179	0.000312	0.005980	0.002043	7138.070290	44024.013673	3968.378302	23457.896590
86.535500	-0.000518	-0.000032	0.001266	0.001979	7145.208626	43997.540442	3956.336513	23460.955546
87.036000	0.001653	0.001241	-0.001185	0.003084	7155.732725	44013.437278	3947.213009	23408.595699
87.621500	-0.001149	-0.000318	0.000829	0.001940	7139.376551	43974.081790	3955.311175	23462.778916
88.036500	-0.000334	0.001054	0.003201	0.002677	7140.147174	44034.252656	3959.528514	23427.874197
88.605000	0.002428	-0.000071	0.000717	0.001718	7176.932113	44018.549034	3955.592844	23473.323469
89.037500	0.000982	0.000438	0.000782	0.002218	7157.663063	44019.473284	3954.476823	23449.625171
89.537000	-0.002005	-0.000747	0.005010	0.001529	7134.999456	43972.480649	3967.192411	23482.298114
90.087500	0.001578	0.000389	0.004026	0.002083	7164.896115	44027.566182	3963.201072	23456.031137
90.601000	0.000078	0.000266	0.006113	0.001767	7153.180383	44045.826378	3969.444661	23471.002927
91.076500	0.000314	0.000205	-0.000938	0.001776	7155.421155	44039.154461	3951.193538	23470.576655
91.552000	0.003771	0.000652	0.003159	0.002016	7187.331801	44058.810682	3961.128844	23459.201938
92.036000	-0.001203	-0.000070	0.004861	0.001752	7140.697337	44015.458741	3966.225755	23471.726516
92.564500	0.000192	0.000420	0.005148	0.002590	7146.191212	43982.543300	3964.795531	23432.005140
93.083000	0.000733	-0.000711	0.001604	0.001196	7165.313122	44007.446152	3959.229718	23498.151234
93.537000	0.001050	0.000986	0.003008	0.002639	7154.171171	44031.447479	3959.127760	23429.658157
94.040000	0.001990	0.001123	0.002334	0.002634	7163.514062	44044.855857	3957.400685	23429.904730
94.540000	0.001198	-0.000098	0.005263	0.002597	7156.046370	43932.898107	3965.074429	23431.656505
95.035000	0.003165	0.000265	0.005167	-0.001570	7217.085275	44363.138167	3975.694499	23630.011085
95.535000	0.002675	0.000638	0.005366	-0.001075	7207.225423	44351.525443	3974.918898	23606.340483
96.044000	0.001400	0.000355	0.000539	0.000522	7178.601822	44172.489910	3958.217531	23530.190863
96.539000	-0.003091	-0.000332	-0.001552	0.004153	7098.681378	43764.032435	3943.551347	23358.086869
97.036000	0.002638	-0.000050	0.003179	0.000722	7188.925273	44114.907459	3964.530388	23520.654073
97.537000	0.000137	-0.000195	-0.000945	0.002914	7142.451239	43893.773553	3948.261637	23416.660198
98.037000	0.002551	-0.000189	0.005340	0.000011	7195.144562	44169.308723	3972.009616	23554.507204
98.537000	-0.000439	0.000160	0.005090	0.004363	7122.556777	43790.655996	3960.052862	23348.183244
99.038000	-0.000459	0.000248	0.003100	0.002664	7139.040474	43959.230712	3959.299364	23428.465945
99.535000	0.001828	-0.000270	-0.006871	0.003272	7155.600656	43852.901226	3932.303784	23399.692801
100.036000	0.000735	0.000094	0.009028	0.000770	7169.543869	44124.076312	3979.686665	23518.391317
100.535500	-0.001774	0.000011	-0.002251	0.005884	7094.638186	43633.605784	3937.376734	23276.510613
101.036000	0.001517	0.000211	0.003314	0.000517	7179.817814	44159.211867	3965.415227	23530.427569
101.536000	-0.001322	-0.000338	-0.001721	0.005457	7103.219841	43640.915846	3939.805458	23296.620024
102.036500	0.003242	0.000447	0.006625	-0.001194	7214.099670	44344.677286	3978.534203	23612.049094
102.537000	0.001021	0.000835	0.006156	0.005102	7129.627967	43784.652566	3960.897887	23313.347920
103.036500	-0.001537	-0.003574	0.006371	0.005430	7101.376708	43340.947273	3960.603583	23297.869663
103.537000	-0.064891	-0.019652	0.006601	0.092645	5860.108821	34779.014103	3756.760946	19579.023602
104.035000	-0.044108	-0.011886	0.015000	0.081604	6087.849866	36190.280601	3798.842845	20009.602254
104.535500	-0.043631	-0.014270	0.025051	-0.037291	7107.504591	46436.462364	4131.159265	25410.766323
105.035500	-0.027990	-0.010377	0.028878	-0.074307	7654.416184	50737.453973	4258.717860	27417.264309
105.536000	-0.011720	0.001621	0.035468	-0.058456	7659.040222	50314.916484	4228.735002	26537.057641
106.035500	0.010141	0.009512	0.037607	-0.057246	7892.513735	51050.060431	4231.714310	26471.173907
106.536500	0.026240	0.018159	0.044556	-0.028216	7745.028913	48842.068042	4162.600680	24944.372415
107.036500	0.043639	0.025159	0.046177	-0.030280	7968.720541	49811.157768	4173.893705	25049.613188
107.537000	0.044940	0.029411	0.052806	0.000211	7636.936363	47060.400177	4102.447506	23545.004913
108.038000	0.044390	0.030007	0.062473	0.016418	7456.310327	45500.910000	4083.544377	22787.232144
108.537000	0.047160	0.034481	0.058138	0.032246	7320.298049	44401.374068	4027.014994	22073.957953
109.035000	0.053847	0.037880	0.059539	0.048851	7219.706196	43158.179675	3986.096229	21353.141432
109.535000	0.057525	0.039936	0.062008	0.064164	7104.580896	41947.632893	3952.624432	20712.365163
110.036000	0.066436	0.042594	0.068545	0.070660	7128.223334	41604.034441	3952.730074	20447.300265
110.535500	0.063657	0.043582	0.067929	0.080841	7002.873893	40793.124990	3925.346202	20039.732064
111.035500	0.068177	0.045862	0.070187	0.087801	6979.690558	40386.930092	3913.633334	19766.587751
111.536000	0.072264	0.046716	0.073927	0.094612	6953.952856	39876.111237	3906.051030	19503.465699
112.037000	0.072975	0.049109	0.077164	0.102646	6885.579167	39398.819691	3894.314423	19198.378435
112.536500	0.072069	0.048057	0.073704	0.110994	6800.816497	38617.241585	3865.968250	18887.293459
113.040000	0.071403	0.048546	0.083733	0.113944	6768.183252	38415.361302	3882.869848	18778.786285
113.535000	0.070039	0.048874	0.079509	0.118949	6711.348710	38034.840135	3860.889138	18596.346826
114.035000	0.073930	0.050593	0.080756	0.124340	6698.085357	37738.945120	3851.172086	18402.208111
114.535500	0.073292	0.049817	0.081223	0.128093	6659.518700	37377.409875	3843.529602	18268.436667
115.035000	0.074748	0.051148	0.082286	0.132434	6634.398949	37139.263682	3835.967955	18115.183151
115.536000	0.075525	0.052634	0.089129	0.136554	6605.487791	36932.158154	3842.243854	17971.102989
116.036000	0.075357	0.052631	0.084497	0.138529	6587.081166	36777.476262	3827.077593	17902.559045
116.537000	0.075413	0.052922	0.081577	0.145929	6524.661048	36227.303310	3803.840519	17648.368264
117.036500	0.078211	0.053873	0.082639	0.143031	6572.978907	36524.076249	3812.690910	17747.386382
117.539500	0.079948	0.053711	0.086790	0.144986	6571.116703	36360.507251	3817.633655	17680.516303
118.034500	0.080174	0.055116	0.082537	0.146178	6562.890442	36376.983475	3805.423343	17639.904989
118.535000	0.080283	0.054653	0.086963	0.150904	6523.778020	35979.201069	3804.754054	17479.905229
119.035000	0.082698	0.055364	0.087505	0.149171	6558.887123	36165.940674	3809.835645	17538.366536
119.535500	0.080057	0.055142	0.088865	0.150112	6528.547714	36076.921187	3810.773072	17506.582233
120.035500	0.081567	0.056179	0.091758	0.151186	6532.226964	36074.186927	3814.857883	17470.424384
120.535500	0.081542	0.056559	0.082309	0.157344	6480.385739	35635.647387	3780.360989	17264.687390
121.036000	0.086005	0.058222	0.088458	0.154746	6539.645297	35958.419951	3799.542327	17351.113154
121.536500	0.085707	0.056666	0.090509	0.155492	6530.827025	35783.715187	3802.438097	17326.265714
122.037000	0.084709	0.057016	0.094956	0.156156	6516.829660	35759.892591	3810.879316	17304.163431
122.537000	0.081967	0.057942	0.084707	0.162340	6442.527056	35364.364359	3774.736407	17099.901080
123.034500	0.084872	0.057491	0.090119	0.158230	6500.785896	35639.079925	3795.510346	17235.306917
123.535000	0.086038	0.058154	0.095501	0.160665	6490.181903	35505.717871	3802.034485	17154.937376
124.035500	0.087379	0.057339	0.097655	0.159638	6509.999238	35521.648619	3809.125043	17188.791561
124.536000	0.083068	0.058491	0.086176	0.165834	6422.867878	35144.859920	3770.376624	16985.768439
125.036000	0.085610	0.058841	0.093871	0.161842	6476.803774	35468.901267	3795.820194	17116.228421
125.536500	0.085462	0.058897	0.093461	0.162835	6467.327480	35398.777942	3792.730890	17083.677032
126.036500	0.087165	0.058833	0.093419	0.162757	6482.138751	35399.866164	3792.810831	17086.247813
126.536500	0.087457	0.059126	0.093234	0.163165	6481.168714	35391.214039	3791.506905	17072.886539
127.037000	0.088419	0.058324	0.089081	0.163209	6488.812498	35327.910691	3782.331036	17071.419869
127.537000	0.088549	0.059334	0.091632	0.165112	6474.052563	35261.335024	3783.741051	17009.279156
128.035000	0.088670	0.059623	0.096995	0.165187	6474.430538	35277.284449	3795.332958	17006.840819
128.535000	0.091193	0.060185	0.092733	0.166266	6486.452602	35238.692460	3783.625650	16971.721086
129.035500	0.087165	0.059782	0.093676	0.166415	6451.791239	35197.724441	3785.359111	16966.909148
129.535500	0.089743	0.059961	0.093983	0.167528	6463.906439	35128.193815	3783.600552	16930.768538
130.036000	0.093362	0.059935	0.094521	0.168093	6489.309449	35084.394086	3783.540149	16912.471544
130.536500	0.089935	0.061165	0.097547	0.169698	6447.558615	35056.634091	3786.642896	16860.636547
131.036000	0.093206	0.061282	0.099688	0.170203	6470.443770	35027.892478	3790.224083	16844.356430
131.536500	0.093320	0.061255	0.095610	0.171982	6456.650363	34894.579185	3777.463412	16787.193850
132.037000	0.091388	0.060141	0.098116	0.171412	6445.407321	34854.527121	3784.143836	16805.492287
132.534500	0.093643	0.061574	0.096210	0.172970	6451.155007	34845.251829	3776.622313	16755.530649
133.037000	0.091562	0.061528	0.101941	0.173380	6430.639135	34811.709760	3788.198969	16742.417635
133.535000	0.091660	0.061851	0.097213	0.174928	6418.749732	34721.790980	3774.558348	16693.013209
134.035500	0.092344	0.061337	0.100988	0.175176	6422.324088	34666.007719	3782.200539	16685.115721
134.535500	0.092204	0.061090	0.099310	0.179588	6385.224961	34326.998435	3769.046774	16545.353876
135.036000	0.094101	0.061900	0.099910	0.176733	6423.964943	34593.432759	3776.486480	16635.644457
135.536000	0.095212	0.061736	0.097725	0.178289	6420.322403	34468.085929	3768.432794	16586.366829
136.036500	0.094094	0.061220	0.101012	0.177610	6416.732385	34479.967344	3776.972958	16607.856789
136.536500	0.092232	0.062014	0.097330	0.180878	6375.017471	34300.583066	3762.059516	16504.784524
137.037000	0.098812	0.063222	0.101249	0.180390	6432.616017	34423.475330	3771.489253	16520.126487
137.535000	0.094829	0.062618	0.099303	0.180671	6397.756575	34359.261887	3766.713310	16511.293161
138.035000	0.096551	0.062339	0.100845	0.180214	6415.530080	34372.159489	3770.999849	16525.660448
138.535500	0.098132	0.062812	0.100163	0.186105	6380.461888	33981.896822	3756.977925	16341.513978
139.035500	0.097973	0.062823	0.100458	0.182019	6412.394867	34276.486909	3766.297821	16468.957141
139.536000	0.097835	0.063145	0.098195	0.182306	6408.923330	34279.076149	3760.861989	16459.967999
140.036000	0.099147	0.062947	0.101241	0.182816	6415.469110	34227.916900	3766.266940	16443.996182
140.536500	0.096530	0.062389	0.104522	0.187403	6357.061452	33858.898869	3763.481700	16301.277436
141.037000	0.100700	0.063125	0.102393	0.184118	6417.531962	34146.939005	3765.948606	16403.351562
141.534000	0.099560	0.063711	0.105301	0.184482	6405.248922	34162.892587	3771.401584	16391.989568
142.141500	0.099362	0.064261	0.102496	0.185745	6393.359915	34111.636695	3762.697234	16352.701200
142.535000	0.096934	0.063582	0.100877	0.188180	6354.061964	33888.563248	3754.100351	16277.241029
143.034500	0.100386	0.064107	0.100972	0.185673	6402.270927	34105.731080	3759.608017	16354.919740
143.535500	0.097483	0.063512	0.107667	0.186216	6374.311721	34024.026672	3772.762831	16338.063456
144.036000	0.099005	0.063621	0.103834	0.186384	6385.268342	34019.819098	3764.184865	16332.844318
144.538500	0.099860	0.063693	0.100064	0.186542	6390.930600	34013.621336	3755.843348	16327.946741
