sample name	sample
index	1101
start time	 04-22-2021  12:38:35 PM
880	0.012837
Peak Time (s)	102.035
Peak Height 	0.01284
calc peak height	100,103
Baseline Time (s)	11.536
Baseline Value 	-0.003865
subtract baseline	10,4
Abs	0.029176
Peak Time (s)	101.057
Peak Height 	0.02918
calc peak height	100,103
Baseline Time (s)	10.535
Baseline Value 	0.004757
subtract baseline	10,3
PK_550	0.024678
Peak Time (s)	102.536
Peak Height 	0.02468
calc peak height	100,103
Baseline Time (s)	8.537
Baseline Value 	4.9415E-4
subtract baseline	10,2
PK_880	0.029117
Peak Time (s)	102.536
Peak Height 	0.02912
calc peak height	100,103
Baseline Time (s)	8.537
Baseline Value 	0.001266
subtract baseline	10,1


Time (s)	A880-A510	A880-A775	A880-A975	A880	I510	I775	I975	I880	
0.040000	-0.000746	-0.000588	-0.003741	0.002919	6263.476705	43170.158503	3901.956752	22657.656563
0.538500	-0.004676	-0.000565	-0.007011	0.007385	6199.548147	42760.974845	3884.313068	22455.753042
1.038000	-0.001672	-0.000008	-0.001883	0.004184	6246.671013	43106.779478	3903.321235	22600.244918
1.535000	0.000045	0.000363	-0.000093	0.001895	6277.454801	43353.309215	3912.762695	22704.212169
2.035500	-0.000793	-0.000975	-0.001473	0.000850	6279.054005	43326.032401	3911.985218	22751.855824
2.535500	-0.003890	-0.000791	-0.005286	0.006841	6209.593824	42790.168969	3889.456646	22480.275614
3.036000	0.002479	0.000281	-0.005442	-0.000515	6315.064910	43570.360792	3905.950346	22814.271683
3.536500	0.001302	-0.000064	-0.002012	0.000498	6298.005308	43443.544238	3911.550502	22767.932596
4.036000	0.000373	0.000908	-0.001719	0.000956	6287.251361	43491.519094	3911.167633	22747.018889
4.545500	-0.001296	-0.000472	-0.000696	0.002166	6265.037864	43250.664789	3910.732762	22691.896953
5.158500	-0.000412	-0.000477	-0.000439	0.000115	6287.690157	43440.802928	3916.105644	22785.465178
5.538500	-0.001213	-0.000372	-0.005795	-0.000042	6282.702769	43465.220163	3904.043938	22792.614803
6.035000	0.000720	0.000628	0.003448	0.000611	6292.615735	43497.664103	3924.048663	22762.796778
6.535500	-0.000279	-0.000316	0.001070	-0.000081	6290.233655	43474.086450	3920.089479	22794.396480
7.036000	-0.000293	0.000084	-0.004014	0.000240	6287.641440	43481.460288	3907.506196	22779.736900
7.536000	-0.000452	-0.000119	0.001525	-0.000129	6289.268263	43496.917522	3921.269431	22796.596637
8.036500	0.000928	-0.000306	0.001181	-0.000276	6301.115768	43493.181594	3920.807137	22803.335541
8.536500	0.000000	0.000000	0.000049	-0.000461	6295.350839	43539.087362	3918.590882	22811.826732
9.037000	0.002289	0.000250	0.004152	0.000357	6306.778668	43485.955834	3926.301583	22774.367294
9.537000	-0.001359	-0.000564	-0.001899	-0.000599	6285.880079	43499.207840	3914.365418	22818.114183
10.037000	0.001460	0.000607	0.004594	0.000084	6302.452612	43544.857295	3927.988688	22786.863147
10.535000	-0.002180	-0.000369	0.000000	-0.000480	6278.617678	43506.329723	3918.519651	22812.671935
11.035000	-0.000949	0.000277	-0.005232	0.000126	6283.442809	43510.130818	3904.956423	22784.942107
11.535500	0.000285	-0.000175	-0.001004	0.000000	6293.981582	43479.692264	3915.054089	22790.712750
12.036000	0.000448	-0.000263	-0.003443	-0.000255	6297.226779	43495.266594	3909.977680	22802.376629
12.536000	0.002802	-0.000016	0.000384	-0.000256	6315.566406	43518.417060	3918.894567	22802.432368
13.036000	0.000245	-0.000191	-0.005403	-0.000217	6295.356570	43498.422202	3905.353803	22800.640557
13.536000	-0.000718	-0.000211	-0.000351	0.000361	6283.417116	43442.652398	3915.735840	22774.200289
14.037000	-0.000993	-0.001008	-0.003401	0.001584	6271.849412	43254.893273	3905.817370	22718.371964
14.540000	0.000294	-0.000663	0.002335	0.000586	6289.509920	43379.613053	3921.491523	22763.910879
15.034500	0.000577	0.000442	-0.004700	0.000681	6290.964851	43473.694070	3904.902475	22759.582633
15.535000	-0.002300	-0.000642	-0.004633	-0.000249	6275.906192	43459.382755	3907.207399	22802.115200
16.035500	0.002930	0.000024	-0.001352	-0.000309	6316.979735	43527.113387	3914.963407	22804.848594
16.535500	-0.000777	-0.000283	-0.002632	0.002766	6264.413984	43212.494092	3904.863400	22664.590509
17.036000	0.001162	0.000117	0.004538	-0.002306	6318.770198	43722.822514	3933.515736	22896.493801
17.536000	-0.000949	-0.000374	-0.003928	0.000742	6278.682749	43391.983473	3906.545478	22756.787664
18.036500	-0.001734	-0.001180	0.001433	0.000502	6274.479473	43339.411447	3919.576163	22767.764148
18.536500	-0.001023	-0.000238	0.001014	0.000901	6276.887592	43389.834074	3917.660667	22749.539406
19.037000	-0.001282	-0.000713	-0.003730	0.000214	6280.193166	43409.551141	3908.223115	22780.905710
19.534500	-0.000982	-0.000873	-0.000172	0.000565	6279.799183	43362.046631	3915.677090	22764.893430
20.035000	0.001594	-0.000702	-0.000365	0.000779	6298.097010	43358.007332	3914.728611	22755.102215
20.535000	-0.000305	-0.000684	-0.001536	0.000373	6286.512210	43397.428391	3912.945799	22773.637900
21.035500	-0.001975	-0.000961	-0.004841	0.000765	6270.598143	43335.276456	3904.383687	22755.754124
21.536000	-0.000583	-0.000641	-0.002662	0.001179	6278.135007	43326.482331	3908.461732	22736.835573
22.036000	0.000416	-0.000414	0.000178	0.001174	6285.900138	43348.139469	3915.074901	22737.091349
22.536000	-0.000206	0.000536	-0.003193	0.001563	6278.088168	43400.285370	3906.346452	22719.354820
23.036500	-0.001141	-0.000865	-0.002747	0.000980	6275.368282	43324.285196	3908.727926	22745.953401
23.537000	-0.000747	-0.000228	-0.002086	0.001047	6277.887669	43377.230450	3910.105114	22742.873266
24.037500	-0.001745	-0.000196	0.000593	0.000831	6271.853068	43400.228387	3916.840138	22752.716913
24.537500	0.000117	0.000287	0.001278	0.001439	6281.543993	43388.717251	3917.022105	22725.021469
25.035000	0.000345	0.000042	-0.002769	0.001333	6284.124102	43375.721522	3907.859766	22729.833553
25.535500	-0.001956	-0.001268	0.004368	0.000581	6272.160340	43323.893329	3926.284456	22764.165449
26.035500	-0.000626	-0.000291	-0.000512	0.000794	6280.783004	43394.932939	3914.350545	22754.433104
26.536000	-0.000913	-0.000532	-0.002979	0.000767	6278.769264	43374.959285	3908.682843	22755.642164
27.035500	0.001709	-0.000421	-0.003060	-0.002020	6320.805036	43645.485331	3914.970017	22883.311026
27.536500	0.000817	-0.000160	0.004656	-0.000500	6301.995831	43527.735620	3929.516582	22813.597334
28.036500	0.000425	0.000348	-0.001066	0.000227	6293.306317	43507.305572	3914.380979	22780.329275
28.539500	0.000842	-0.000314	0.002912	0.001408	6287.384566	43335.650689	3920.917357	22726.422654
29.037000	-0.001943	-0.000639	-0.001986	-0.000240	6278.594753	43458.776323	3913.326120	22801.687576
29.537500	-0.000959	-0.001035	-0.000206	-0.000437	6287.726868	43440.301600	3917.937379	22810.722529
30.035500	-0.000131	0.000587	-0.003427	0.000270	6288.665134	43525.570145	3908.797125	22778.363715
30.535500	-0.002880	-0.000532	-0.003129	0.003146	6245.374980	43154.305612	3902.841746	22647.336320
31.036000	-0.000776	-0.000795	-0.000725	0.000066	6285.250813	43415.791201	3915.552290	22787.687568
31.536000	0.000824	-0.000530	-0.002287	-0.000665	6303.335739	43508.627860	3913.616653	22821.168145
32.035500	0.001472	0.000636	0.001610	0.000393	6300.150129	43518.717923	3920.245745	22772.766882
32.536500	-0.002453	-0.000401	-0.001985	0.000780	6266.800115	43385.959370	3910.958830	22755.066509
33.036500	-0.001539	-0.000596	-0.001506	-0.001325	6290.114877	43564.140106	3916.974922	22851.412357
33.537000	-0.001737	-0.000243	-0.000629	0.001210	6268.997754	43360.610616	3913.108830	22735.430118
34.037500	-0.001599	-0.000442	-0.001176	0.001455	6268.179402	43319.392382	3911.268385	22724.272218
34.535000	0.000361	0.000063	0.007386	0.001699	6281.416568	43343.659927	3930.772654	22713.157309
35.035000	0.001145	-0.000079	-0.004812	0.001409	6289.723315	43357.351022	3902.966236	22726.349586
35.535500	-0.000247	-0.000175	-0.001644	0.001612	6277.385382	43329.626458	3909.817953	22717.095884
36.035500	-0.002370	-0.000411	-0.008171	0.001273	6263.639309	43339.181300	3895.570787	22732.549777
36.536000	-0.001645	0.000175	-0.006030	0.001908	6264.338487	43334.594456	3899.020048	22703.623552
37.036000	-0.002042	0.000569	0.001078	0.002092	6259.872754	43354.174248	3915.030730	22695.252867
37.537000	-0.001238	0.000174	0.002602	0.001664	6269.346429	43357.196023	3919.591036	22714.728057
38.039500	-0.000648	-0.000341	-0.000517	0.001317	6276.575775	43341.620904	3913.121447	22730.571706
38.537000	-0.000461	-0.000429	-0.001415	0.001222	6278.748808	43342.263426	3911.254476	22734.874771
39.037500	-0.001436	0.000179	0.000267	0.001753	6267.141330	43349.482155	3913.931459	22710.700772
39.535000	-0.001291	-0.001077	-0.001111	0.000718	6276.229867	43328.876507	3913.133480	22757.885696
40.038000	0.001230	0.000292	-0.002127	0.001819	6287.212427	43353.822921	3908.219655	22707.685160
40.535500	-0.001979	-0.000236	0.001759	0.001586	6264.244364	43326.429084	3917.801837	22718.308014
41.036000	-0.001036	-0.000256	-0.000270	0.001458	6272.491426	43336.405272	3913.368792	22724.130089
41.536000	-0.000442	-0.000318	-0.002516	0.001285	6278.410064	43346.767871	3908.556855	22732.039911
42.036500	-0.000953	0.000469	-0.000840	0.002037	6268.672992	43349.976195	3910.698351	22697.759996
42.536500	0.000356	-0.000689	-0.001677	0.001266	6284.726045	43314.085599	3910.546061	22732.903047
43.037000	-0.001085	-0.000807	-0.003599	0.000880	6276.573206	43338.985906	3906.988612	22750.520338
43.537500	0.003395	-0.000075	0.005047	-0.002779	6339.973786	43749.095444	3935.846653	22918.210178
44.035000	0.000895	-0.000443	0.002853	-0.000299	6301.040914	43482.608953	3924.788338	22804.392062
44.535500	-0.000107	0.000051	0.002774	-0.000138	6292.015225	43513.676462	3924.225448	22797.044416
45.035500	-0.000360	0.000071	0.004441	0.000639	6284.042232	43443.085299	3926.320140	22761.524432
45.536000	-0.001904	0.000202	-0.000723	0.000305	6274.690250	43486.352022	3914.999383	22776.760989
46.036500	-0.001579	-0.000313	0.000243	-0.000261	6281.572057	43491.225556	3918.577799	22802.664170
46.536500	-0.001028	0.000560	-0.000368	0.000654	6278.761951	43487.277902	3915.015169	22760.842926
47.036500	-0.003280	0.000435	-0.000505	0.002434	6247.763582	43309.916020	3910.554995	22679.708400
47.539000	0.000569	-0.000624	-0.001003	-0.000122	6297.138190	43449.256144	3915.343281	22796.302779
48.037000	0.001361	-0.000148	0.003118	-0.000246	6304.254192	43505.165640	3925.288570	22801.965609
48.535500	-0.001095	0.000495	-0.004110	0.000301	6280.966754	43514.111285	3907.144344	22776.955282
49.035000	0.000197	0.000048	0.001726	-0.000472	6296.961752	43544.525743	3922.545332	22812.308170
49.535500	0.002574	-0.000146	0.003965	0.000064	6311.283780	43476.407383	3926.553283	22787.770650
50.035500	0.001615	-0.000066	-0.000153	0.015375	6186.764846	42080.637908	3881.760214	22099.757476
50.536000	0.026223	-0.015738	0.020193	0.568680	3890.255796	13524.330984	3189.684891	8288.841620
51.036000	0.000920	-0.017943	-0.023547	0.061184	5855.507757	36746.476796	3737.546092	20180.304972
51.536000	-0.004383	-0.030175	-0.015919	-0.164601	7794.066406	58196.744621	4331.650330	31945.100970
52.037000	-0.007898	-0.048998	-0.011027	-0.219514	8405.845911	62981.765703	4542.618022	35856.430527
52.537000	-0.001834	-0.039194	0.000471	-0.208003	8337.522718	62746.417620	4542.571597	34995.060650
53.037500	-0.000334	-0.028427	-0.002463	-0.182531	8046.848595	60756.347976	4438.743027	33168.245771
53.534500	-0.003066	-0.016014	-0.003061	-0.129385	7428.431855	55583.231388	4259.949126	29684.860641
54.035500	-0.004018	-0.015143	-0.004600	-0.137662	7505.045144	56703.223534	4281.173033	30199.767504
54.535500	-0.004640	-0.014832	-0.008607	-0.138982	7512.411253	56905.303587	4272.667125	30282.762061
55.035500	-0.002927	-0.011153	-0.005344	-0.128348	7419.143511	56048.668033	4249.613514	29621.078310
55.536000	0.004413	-0.007675	0.000297	-0.124965	7460.282322	56060.274677	4256.637662	29413.955925
56.036500	0.008667	-0.005215	0.000613	-0.115767	7408.939430	55243.025099	4229.228624	28858.855237
56.536500	0.009734	-0.002967	0.004854	-0.093666	7196.919907	52907.231902	4175.779164	27572.111440
57.036500	0.007289	0.000874	0.004937	-0.069804	6945.815135	50657.675117	4107.949544	26254.495959
57.534000	0.007889	0.001103	0.005126	-0.052641	6795.346290	48834.093742	4061.751349	25350.524783
58.037000	0.007344	0.000630	0.006138	-0.036336	6648.048627	47096.188416	4021.650461	24524.256860
58.535000	0.008443	0.001610	0.006417	0.001558	6345.577445	43500.892093	3928.813038	22719.571851
59.035000	0.008545	0.000673	0.008335	0.028764	6138.605242	40957.900038	3870.772149	21517.661952
59.535500	0.001878	0.002016	0.005804	0.067686	5818.328786	37809.385110	3782.643742	19923.915241
60.036000	0.003467	0.005349	0.007377	0.081763	5736.309718	36958.124179	3757.669746	19381.779754
60.536000	0.004448	0.007140	0.009802	0.083813	5729.397772	36937.913603	3758.409130	19304.300781
61.036500	0.005129	0.008376	0.010881	0.080525	5755.148865	37293.554897	3767.058842	19428.778601
61.539500	0.006884	0.009942	0.004884	0.076841	5790.819544	37710.888309	3762.465382	19569.339535
62.037000	0.008136	0.012120	0.009912	0.072502	5827.955677	38236.077604	3781.210885	19736.454932
62.535000	0.008748	0.011414	0.009814	0.061881	5904.028142	39050.453413	3802.757704	20152.656606
63.034500	0.005043	0.011590	0.009073	0.052738	5941.569029	39832.924348	3820.340606	20519.165533
63.535500	0.007147	0.012745	0.011093	0.045233	6009.069078	40575.356952	3840.687712	20825.842678
64.035500	0.007326	0.014164	0.006085	0.038642	6057.518709	41275.180699	3844.112857	21099.542850
64.535500	0.009090	0.014576	0.012590	0.033774	6105.732811	41743.734499	3869.091052	21304.420503
65.036500	0.007083	0.014359	0.011841	0.030365	6116.017032	42029.777563	3875.028787	21449.261495
65.536500	0.008869	0.013837	0.010513	0.025801	6163.027494	42394.987743	3882.301846	21644.953094
66.036500	0.010457	0.013706	0.006773	0.026147	6172.301263	42351.711626	3873.128455	21630.046247
66.537000	0.010141	0.013760	0.013739	0.022209	6199.491722	42715.280785	3897.799368	21800.382014
67.037000	0.007301	0.012440	0.005772	0.019205	6200.726588	42869.636416	3886.491763	21931.388383
67.534500	0.007537	0.013223	0.013408	0.018278	6209.522873	43027.148498	3906.085285	21972.037419
68.035000	0.009322	0.013208	0.007090	0.020054	6209.587747	42862.282994	3887.556848	21894.304411
68.535500	0.009327	0.013145	0.011262	0.016330	6237.908869	43199.911341	3905.624576	22057.630941
69.036000	0.010634	0.012901	0.013284	0.015193	6256.610166	43282.695493	3912.947141	22107.773301
69.535500	0.011387	0.014290	0.010326	0.015453	6260.388035	43387.580634	3905.488811	22096.292550
70.036000	0.008379	0.012913	0.016470	0.016708	6227.805878	43143.454649	3916.842170	22040.978757
70.536500	0.014241	0.015006	0.017831	0.015204	6284.315461	43477.493517	3923.553164	22107.296552
71.039500	0.013846	0.014276	0.018058	0.013619	6293.528260	43557.291418	3927.820991	22177.425930
71.537000	0.014429	0.014894	0.014001	0.013786	6296.758634	43599.473453	3917.900334	22170.020230
72.034500	0.014728	0.015610	0.014509	0.017233	6272.402639	43344.874053	3911.051785	22017.883871
72.534500	0.014529	0.014459	0.013977	0.012756	6305.551263	43655.252980	3920.254094	22215.742059
73.035000	0.015718	0.015428	0.021848	0.014107	6304.286258	43619.450952	3935.646354	22155.810324
73.535500	0.018308	0.016247	0.017882	0.013411	6329.948564	43761.468904	3927.897403	22186.648738
74.035500	0.015541	0.016522	0.015765	0.017292	6278.221867	43424.241377	3913.835664	22015.301901
74.536000	0.018424	0.017065	0.020973	0.013395	6330.988414	43839.971799	3935.258373	22187.383547
75.036000	0.018668	0.017817	0.019670	0.014423	6324.843485	43813.891533	3929.730033	22141.821803
75.537000	0.020257	0.018078	0.019930	0.012737	6350.580002	43997.448486	3934.344304	22216.575026
76.036500	0.018109	0.017042	0.012392	0.015104	6315.154142	43677.299769	3911.082288	22111.730411
76.537000	0.022043	0.018451	0.023171	0.010733	6380.610953	44222.539220	3946.876721	22305.787457
77.034500	0.018767	0.019146	0.021255	0.010940	6353.008773	44268.998685	3941.787538	22296.561189
77.535000	0.021813	0.018939	0.022923	0.008916	6393.264507	44442.118752	3950.657914	22387.046393
78.035000	0.020551	0.018238	0.022566	0.007275	6396.297148	44532.000782	3953.762246	22460.733763
78.535500	0.024822	0.019302	0.020699	0.006668	6435.507152	44692.139365	3950.714341	22488.038403
79.035500	0.019569	0.019006	0.018874	0.006797	6392.260774	44651.331949	3946.009611	22482.219453
79.536000	0.021656	0.019424	0.015886	0.004773	6425.241756	44886.330390	3943.697406	22573.581028
80.036500	0.017277	0.018968	0.018228	0.008027	6364.257398	44529.816464	3941.513977	22426.931711
80.539000	0.021259	0.019504	0.019771	0.003055	6435.906471	45060.289068	3957.215190	22651.471264
81.037000	0.022042	0.019877	0.023576	0.004096	6433.829834	44995.583195	3963.947444	22604.259899
81.534000	0.019992	0.020110	0.023666	0.001722	6436.449619	45248.587351	3969.986068	22712.119195
82.035000	0.018645	0.019823	0.014470	0.005851	6392.442943	44820.897694	3937.736536	22524.871228
82.535500	0.020777	0.020766	0.019374	0.000779	6450.448763	45404.528321	3961.787821	22755.135003
83.036000	0.018954	0.020441	0.022246	0.000926	6434.485386	45358.416704	3968.453441	22748.406271
83.536000	0.021282	0.021203	0.022249	0.000241	6458.917371	45499.829286	3970.141819	22779.678931
84.036000	0.017223	0.020741	0.019134	0.004505	6391.831267	45039.575388	3952.158766	22585.723015
84.536000	0.021866	0.021099	0.019837	-0.000487	6469.621613	45561.045876	3966.013509	22813.017981
85.037000	0.020217	0.021517	0.023963	-0.001099	6461.158440	45662.087880	3977.674685	22841.023108
85.537000	0.021506	0.022227	0.025298	-0.001029	6471.100507	45725.100253	3980.810948	22837.837177
86.037500	0.021671	0.021817	0.019991	0.004123	6430.615172	45181.131983	3955.159935	22603.035739
86.535000	0.021608	0.021904	0.020732	-0.001446	6475.346570	45734.343135	3970.562713	22856.979289
87.035000	0.022494	0.021748	0.017641	-0.001628	6484.081985	45736.867427	3963.432408	22865.321486
87.535000	0.022823	0.021498	0.025724	-0.002099	6490.651531	45758.677661	3984.531894	22886.963838
88.035500	0.020395	0.022809	0.023523	0.004298	6418.915942	45260.598441	3963.324356	22595.108862
88.535500	0.022383	0.022277	0.024778	-0.001575	6482.736790	45783.748385	3980.873829	22862.868805
89.036000	0.024339	0.022334	0.029174	-0.001444	6497.726771	45776.490801	3991.516363	22856.878335
89.536500	0.025409	0.022475	0.023571	-0.000905	6502.094923	45737.318767	3976.227110	22832.151731
90.039000	0.023173	0.022797	0.023869	0.004560	6439.213725	45233.840827	3963.529029	22583.226051
90.537000	0.025518	0.022346	0.025990	-0.001125	6504.808238	45746.305831	3982.769961	22842.258579
91.034500	0.026984	0.022872	0.027879	-0.000530	6511.989608	45739.376045	3985.991414	22814.950424
91.534500	0.023720	0.022342	0.018563	-0.001257	6491.103420	45758.928810	3964.779006	22848.314503
92.035000	0.023865	0.022549	0.022464	0.004962	6441.567148	45170.712914	3959.127158	22565.060272
92.535000	0.023792	0.021917	0.024084	-0.001134	6490.678409	45704.881400	3978.060274	22842.643973
93.036000	0.023681	0.024003	0.022430	0.000510	6476.300450	45748.411925	3969.927318	22767.412924
93.536000	0.023910	0.023274	0.025177	0.000158	6481.056014	45711.297865	3977.568217	22783.488673
94.036000	0.021411	0.022933	0.026163	0.004988	6421.539630	45205.486614	3968.096186	22563.857436
94.539500	0.022704	0.023024	0.025135	0.000624	6467.384794	45640.936556	3976.313885	22762.201424
95.037000	0.025231	0.022729	0.026527	0.000808	6486.549196	45593.889191	3979.303107	22753.790879
95.536500	0.024264	0.023439	0.022083	0.001289	6474.695861	45616.405484	3967.164319	22731.855845
96.037000	0.021943	0.023249	0.026544	0.006514	6413.543712	45087.925283	3965.292614	22494.981913
96.534500	0.025631	0.023470	0.030022	0.002095	6479.282991	45540.279168	3984.790341	22695.101833
97.038000	0.024651	0.023148	0.021955	0.004286	6453.422262	45294.709130	3959.530545	22595.626007
97.535500	0.027424	0.024031	0.028076	0.003647	6481.258835	45443.309550	3976.109746	22624.606077
98.035500	0.025722	0.023082	0.023984	0.003183	6471.129115	45395.914721	3967.179570	22645.652893
98.536000	0.027270	0.024639	0.023628	0.005071	6468.359573	45363.549169	3961.692939	22560.101478
99.036000	0.024088	0.023715	0.029882	0.006336	6432.258349	45150.527533	3973.930001	22503.012326
99.536500	0.029082	0.024154	0.026198	0.005538	6479.347667	45270.777586	3966.834864	22539.006537
100.037000	0.025200	0.023258	0.027006	0.011056	6403.233848	44650.616899	3955.355277	22291.370387
100.537000	0.026638	0.023819	0.027951	0.006431	6452.141743	45151.357557	3968.944584	22498.712690
101.057000	0.023594	0.024234	0.029176	0.011107	6389.993420	44739.571914	3960.505464	22289.120922
101.535000	0.026895	0.024392	0.026742	0.008013	6441.398122	45053.478356	3962.114057	22427.550199
102.035500	0.023101	0.023595	0.022887	0.012837	6372.293386	44512.332037	3941.152367	22212.130972
102.536000	0.029117	0.024678	0.027889	0.008897	6452.251380	44995.614470	3962.754856	22387.906191
103.036000	0.024932	0.024527	0.024719	0.011385	6398.461733	44740.978083	3949.034449	22276.737602
103.536500	0.026060	0.024992	0.019437	0.010110	6417.731721	44908.695694	3939.425448	22333.620492
