sample name	sample
index	1140
start time	 04-22-2021  03:01:15 PM


Wavelength (nm)	Absorbance
494.344910	0.010166
494.563924	0.010166
494.782919	0.010166
495.001897	-1.124328
495.220856	-0.020588
495.439797	0.030893
495.658719	0.053969
495.877624	0.453695
496.096510	NaN
496.315378	NaN
496.534227	0.141942
496.753059	0.691212
496.971872	0.445382
497.190667	0.145233
497.409444	0.140105
497.628203	0.143174
497.846943	0.139067
498.065665	0.136827
498.284369	0.137244
498.503055	0.139195
498.721723	0.138051
498.940372	0.138270
499.159003	0.138788
499.377616	0.138078
499.596210	0.135600
499.814787	0.136359
500.033345	0.135992
500.251885	0.136235
500.470406	0.135907
500.688910	0.135999
500.907395	0.136831
501.125862	0.136462
501.344311	0.136092
501.562742	0.137208
501.781154	0.137155
501.999548	0.137757
502.217924	0.137643
502.436282	0.137680
502.654621	0.137229
502.872942	0.136037
503.091245	0.136472
503.309530	0.136790
503.527797	0.137686
503.746045	0.135982
503.964275	0.135719
504.182487	0.135414
504.400681	0.136371
504.618856	0.136972
504.837013	0.137333
505.055152	0.138064
505.273273	0.138060
505.491376	0.136837
505.709460	0.137464
505.927526	0.138011
506.145574	0.137687
506.363604	0.136589
506.581615	0.136213
506.799608	0.135853
507.017583	0.134215
507.235540	0.134731
507.453478	0.134236
507.671399	0.134888
507.889301	0.134893
508.107185	0.136009
508.325050	0.136135
508.542898	0.137030
508.760727	0.136109
508.978538	0.136036
509.196330	0.134853
509.414105	0.135637
509.631861	0.134485
509.849599	0.134017
510.067319	0.133191
510.285021	0.132067
510.502704	0.131137
510.720369	0.132237
510.938016	0.132221
511.155645	0.132993
511.373255	0.132246
511.590848	0.132064
511.808422	0.132404
512.025977	0.132343
512.243515	0.132949
512.461034	0.132514
512.678536	0.131038
512.896018	0.130994
513.113483	0.130109
513.330930	0.131045
513.548358	0.131301
513.765768	0.131153
513.983160	0.130195
514.200533	0.130587
514.417889	0.130728
514.635226	0.131731
514.852545	0.132491
515.069845	0.132955
515.287128	0.131829
515.504392	0.132633
515.721638	0.132285
515.938866	0.132772
516.156075	0.132503
516.373267	0.133002
516.590440	0.133583
516.807594	0.132281
517.024731	0.133145
517.241850	0.133168
517.458950	0.133087
517.676032	0.132719
517.893095	0.133481
518.110141	0.133754
518.327168	0.133262
518.544177	0.132461
518.761168	0.132126
518.978141	0.130519
519.195095	0.131214
519.412031	0.130670
519.628949	0.131057
519.845849	0.130364
520.062731	0.129687
520.279594	0.129858
520.496439	0.129819
520.713266	0.130420
520.930074	0.131382
521.146865	0.130596
521.363637	0.130652
521.580391	0.130469
521.797127	0.130428
522.013844	0.130701
522.230543	0.130529
522.447224	0.130673
522.663887	0.130889
522.880532	0.130267
523.097158	0.130664
523.313766	0.130389
523.530356	0.130573
523.746928	0.130146
523.963481	0.129952
524.180017	0.130041
524.396534	0.130580
524.613032	0.130765
524.829513	0.131754
525.045975	0.131731
525.262420	0.131412
525.478845	0.131773
525.695253	0.132140
525.911643	0.132278
526.128014	0.131773
526.344367	0.130719
526.560702	0.130839
526.777018	0.130727
526.993316	0.130573
527.209597	0.130133
527.425858	0.129437
527.642102	0.129295
527.858328	0.129083
528.074535	0.129343
528.290724	0.129648
528.506894	0.129631
528.723047	0.128973
528.939181	0.129184
529.155297	0.129813
529.371395	0.130005
529.587475	0.129685
529.803536	0.129709
530.019579	0.130710
530.235604	0.130764
530.451611	0.129941
530.667600	0.130445
530.883570	0.130933
531.099522	0.130870
531.315456	0.130516
531.531372	0.130090
531.747269	0.129833
531.963148	0.128583
532.179009	0.128373
532.394852	0.128999
532.610676	0.127960
532.826482	0.127449
533.042271	0.127377
533.258040	0.127160
533.473792	0.127967
533.689525	0.127972
533.905240	0.128457
534.120937	0.127912
534.336616	0.127844
534.552277	0.127952
534.767919	0.127120
534.983543	0.126915
535.199149	0.127231
535.414736	0.127030
535.630306	0.127005
535.845857	0.126302
536.061390	0.126568
536.276904	0.125835
536.492401	0.125923
536.707879	0.126384
536.923339	0.126240
537.138781	0.126065
537.354204	0.126136
537.569610	0.126068
537.784997	0.126002
538.000366	0.126004
538.215716	0.126139
538.431049	0.125944
538.646363	0.125562
538.861659	0.126039
539.076937	0.126154
539.292196	0.125778
539.507438	0.125900
539.722661	0.126026
539.937866	0.125904
540.153052	0.125997
540.368221	0.126432
540.583371	0.126214
540.798503	0.125775
541.013617	0.125438
541.228712	0.125731
541.443789	0.125602
541.658848	0.126042
541.873889	0.126268
542.088912	0.126469
542.303916	0.126614
542.518902	0.127034
542.733870	0.127246
542.948820	0.127931
543.163752	0.127911
543.378665	0.127880
543.593560	0.128014
543.808437	0.128211
544.023295	0.128567
544.238136	0.127990
544.452958	0.127990
544.667762	0.127413
544.882548	0.127094
545.097315	0.127034
545.312064	0.127217
545.526795	0.127171
545.741508	0.126706
545.956203	0.126122
546.170879	0.126537
546.385537	0.126666
546.600177	0.127142
546.814799	0.127164
547.029402	0.126976
547.243988	0.126500
547.458555	0.125816
547.673103	0.126076
547.887634	0.125891
548.102146	0.125631
548.316640	0.125424
548.531116	0.125438
548.745574	0.125562
548.960013	0.125176
549.174435	0.125409
549.388838	0.125805
549.603222	0.126146
549.817589	0.125918
550.031937	0.125764
550.246267	0.125924
550.460579	0.125922
550.674873	0.125612
550.889148	0.126001
551.103405	0.125967
551.317644	0.125680
551.531865	0.125127
551.746068	0.125122
551.960252	0.125064
552.174418	0.124885
552.388566	0.124860
552.602696	0.124992
552.816807	0.125349
553.030900	0.125020
553.244975	0.124660
553.459032	0.125032
553.673070	0.125432
553.887091	0.125358
554.101093	0.125221
554.315077	0.125216
554.529042	0.125009
554.742990	0.124495
554.956919	0.124731
555.170830	0.124935
555.384722	0.124601
555.598597	0.124373
555.812453	0.124476
556.026291	0.124510
556.240111	0.124269
556.453913	0.124447
556.667696	0.124289
556.881461	0.123874
557.095208	0.124078
557.308937	0.124122
557.522647	0.123965
557.736339	0.123961
557.950013	0.123832
558.163669	0.123695
558.377307	0.123201
558.590926	0.123198
558.804527	0.123741
559.018110	0.123316
559.231675	0.123244
559.445221	0.123818
559.658749	0.123952
559.872259	0.123863
560.085751	0.123697
560.299225	0.124053
560.512680	0.124343
560.726117	0.124191
560.939536	0.124293
561.152937	0.124459
561.366319	0.123927
561.579683	0.123734
561.793029	0.123969
562.006357	0.123988
562.219667	0.123748
562.432958	0.123510
562.646231	0.123339
562.859486	0.123147
563.072723	0.122871
563.285941	0.123230
563.499141	0.122809
563.712323	0.122712
563.925487	0.123076
564.138632	0.123069
564.351760	0.122943
564.564869	0.122971
564.777960	0.123345
564.991032	0.123382
565.204087	0.123055
565.417123	0.123256
565.630141	0.123185
565.843140	0.122874
566.056122	0.123264
566.269085	0.122976
566.482030	0.122805
566.694957	0.122466
566.907866	0.122030
567.120756	0.121974
567.333628	0.122407
567.546482	0.122120
567.759318	0.121957
567.972135	0.121234
568.184935	0.121214
568.397716	0.121320
568.610478	0.121516
568.823223	0.121998
569.035949	0.122204
569.248657	0.121807
569.461347	0.121892
569.674019	0.122030
569.886672	0.121911
570.099308	0.122065
570.311925	0.122560
570.524523	0.121874
570.737104	0.121685
570.949666	0.121319
571.162210	0.121310
571.374736	0.121288
571.587244	0.121240
571.799733	0.121364
572.012205	0.121555
572.224658	0.120923
572.437092	0.121594
572.649509	0.121206
572.861907	0.121534
573.074287	0.121515
573.286649	0.121452
573.498993	0.121107
573.711318	0.121493
573.923625	0.121219
574.135914	0.121202
574.348185	0.120866
574.560438	0.121150
574.772672	0.120735
574.984888	0.120466
575.197086	0.120515
575.409266	0.120673
575.621427	0.120410
575.833570	0.120587
576.045695	0.120539
576.257802	0.120519
576.469890	0.120594
576.681961	0.120562
576.894013	0.120606
577.106046	0.120911
577.318062	0.120855
577.530059	0.120590
577.742039	0.120605
577.954000	0.120298
578.165942	0.119989
578.377867	0.119639
578.589773	0.119749
578.801661	0.119864
579.013531	0.119866
579.225382	0.120058
579.437216	0.120043
579.649031	0.119950
579.860828	0.120090
580.072606	0.120423
580.284367	0.120142
580.496109	0.120392
580.707833	0.120346
580.919539	0.119791
581.131227	0.119721
581.342896	0.119580
581.554547	0.119584
581.766180	0.119453
581.977795	0.119064
582.189391	0.119604
582.400969	0.118917
582.612529	0.118743
582.824071	0.119091
583.035595	0.119084
583.247100	0.119398
583.458587	0.118917
583.670056	0.119030
583.881506	0.119374
584.092939	0.119316
584.304353	0.119552
584.515749	0.119735
584.727127	0.119405
584.938486	0.119415
585.149828	0.119374
585.361151	0.119584
585.572456	0.119573
585.783742	0.119464
585.995011	0.119289
586.206261	0.119093
586.417493	0.118991
586.628706	0.118909
586.839902	0.118522
587.051079	0.118498
587.262238	0.118404
587.473379	0.118328
587.684502	0.118458
587.895606	0.118948
588.106692	0.119120
588.317760	0.119201
588.528810	0.119382
588.739841	0.119823
588.950855	0.119883
589.161850	0.120035
589.372827	0.120117
589.583785	0.120348
589.794726	0.120098
590.005648	0.120431
590.216552	0.120012
590.427437	0.120092
590.638305	0.119946
590.849154	0.119895
591.059985	0.120031
591.270798	0.119821
591.481592	0.119527
591.692369	0.119140
591.903127	0.119294
592.113867	0.119455
592.324588	0.119148
592.535292	0.118770
592.745977	0.118514
592.956644	0.118562
593.167293	0.118809
593.377923	0.118877
593.588536	0.119228
593.799130	0.118820
594.009706	0.118912
594.220263	0.119296
594.430803	0.119743
594.641324	0.119779
594.851827	0.119483
595.062312	0.119421
595.272778	0.119502
595.483227	0.119199
595.693657	0.119022
595.904069	0.119289
596.114462	0.119172
596.324838	0.119112
596.535195	0.119363
596.745534	0.119754
596.955855	0.119939
597.166157	0.119790
597.376441	0.120015
597.586707	0.120154
597.796955	0.120183
598.007185	0.120409
598.217396	0.120357
598.427589	0.120440
598.637764	0.119898
598.847921	0.119645
599.058060	0.119828
599.268180	0.119708
599.478282	0.120036
599.688366	0.119923
599.898431	0.119304
600.108479	0.119263
600.318508	0.119147
600.528519	0.119266
600.738511	0.119186
600.948486	0.119075
601.158442	0.119128
601.368380	0.118723
601.578300	0.118325
601.788202	0.118626
601.998085	0.118302
602.207950	0.117977
602.417797	0.118200
602.627626	0.117980
602.837436	0.117761
603.047228	0.117388
603.257002	0.117575
603.466758	0.117688
603.676496	0.117629
603.886215	0.117829
604.095916	0.118065
604.305599	0.117849
604.515264	0.118193
604.724910	0.118222
604.934538	0.118211
605.144148	0.117878
605.353740	0.118046
605.563314	0.117712
605.772869	0.117636
605.982406	0.117458
606.191925	0.117289
606.401425	0.117061
606.610908	0.116896
606.820372	0.117033
607.029818	0.116837
607.239246	0.116780
607.448655	0.116783
607.658047	0.116791
607.867420	0.116642
608.076775	0.116807
608.286111	0.117047
608.495430	0.116769
608.704730	0.116801
608.914012	0.116983
609.123275	0.116756
609.332521	0.116642
609.541748	0.116624
609.750957	0.116798
609.960148	0.116916
610.169321	0.116734
610.378475	0.117006
610.587611	0.116832
610.796729	0.116736
611.005829	0.116782
611.214910	0.116780
611.423974	0.116703
611.633019	0.116802
611.842045	0.116547
612.051054	0.116249
612.260044	0.116127
612.469017	0.116326
612.677970	0.116099
612.886906	0.116105
613.095824	0.115932
613.304723	0.115914
613.513604	0.115735
613.722467	0.115727
613.931311	0.115788
614.140138	0.115787
614.348946	0.115597
614.557736	0.115764
614.766507	0.115680
614.975261	0.116034
615.183996	0.116054
615.392713	0.115965
615.601412	0.116060
615.810092	0.116069
616.018754	0.116135
616.227399	0.115948
616.436024	0.115871
616.644632	0.115692
616.853222	0.115514
617.061793	0.115357
617.270346	0.115399
617.478880	0.115180
617.687397	0.114963
617.895895	0.114747
618.104375	0.114640
618.312837	0.114616
618.521281	0.114583
618.729706	0.114606
618.938113	0.114513
619.146502	0.114320
619.354873	0.114146
619.563226	0.114132
619.771560	0.114163
619.979876	0.114182
620.188174	0.114147
620.396453	0.114356
620.604715	0.114225
620.812958	0.114213
621.021183	0.114150
621.229390	0.114451
621.437578	0.114572
621.645748	0.114344
621.853900	0.114463
622.062034	0.114348
622.270150	0.114085
622.478247	0.114121
622.686326	0.114047
622.894387	0.113925
623.102430	0.113578
623.310454	0.113572
623.518461	0.113811
623.726449	0.113704
623.934418	0.113765
624.142370	0.113773
624.350303	0.113701
624.558218	0.113813
624.766115	0.113954
624.973994	0.113780
625.181855	0.113848
625.389697	0.113612
625.597521	0.113638
625.805327	0.113531
626.013114	0.113599
626.220883	0.113595
626.428634	0.113496
626.636367	0.113481
626.844082	0.113475
627.051778	0.113439
627.259457	0.113430
627.467117	0.113150
627.674758	0.113319
627.882382	0.113422
628.089987	0.113519
628.297574	0.113746
628.505143	0.113875
628.712694	0.114277
628.920226	0.114059
629.127740	0.114228
629.335236	0.114570
629.542714	0.114426
629.750174	0.114018
629.957615	0.113794
630.165038	0.113465
630.372443	0.113389
630.579829	0.113144
630.787198	0.113403
630.994548	0.113382
631.201880	0.113105
631.409194	0.113197
631.616489	0.113377
631.823766	0.113516
632.031025	0.113462
632.238266	0.113247
632.445489	0.113053
632.652693	0.112726
632.859879	0.112683
633.067047	0.112780
633.274197	0.112695
633.481329	0.112801
633.688442	0.112582
633.895537	0.112674
634.102614	0.112803
634.309672	0.112881
634.516713	0.112938
634.723735	0.112661
634.930739	0.112715
635.137724	0.112683
635.344692	0.112128
635.551641	0.112186
635.758572	0.111890
635.965485	0.111639
636.172379	0.111744
636.379256	0.111729
636.586114	0.111868
636.792954	0.111898
636.999775	0.111747
637.206579	0.112107
637.413364	0.112121
637.620131	0.112256
637.826880	0.112243
638.033610	0.112280
638.240323	0.112258
638.447017	0.112110
638.653692	0.112195
638.860350	0.112037
639.066990	0.112220
639.273611	0.112324
639.480214	0.112347
639.686798	0.112660
639.893365	0.112626
640.099913	0.112820
640.306443	0.113109
640.512955	0.113104
640.719449	0.113403
640.925924	0.113043
641.132381	0.112868
641.338820	0.112939
641.545241	0.112664
641.751644	0.112589
641.958028	0.112301
642.164394	0.112110
642.370742	0.111785
642.577071	0.111600
642.783383	0.111744
642.989676	0.111817
643.195951	0.111831
643.402207	0.111974
643.608446	0.111851
643.814666	0.111671
644.020868	0.111569
644.227052	0.111603
644.433218	0.111841
644.639365	0.111859
644.845494	0.111633
645.051605	0.111541
645.257698	0.111430
645.463772	0.111396
645.669828	0.111522
645.875866	0.111671
646.081886	0.111773
646.287888	0.111558
646.493871	0.111513
646.699836	0.111426
646.905783	0.111376
647.111712	0.111276
647.317622	0.111423
647.523514	0.111637
647.729388	0.111502
647.935244	0.111262
648.141082	0.111282
648.346901	0.111264
648.552702	0.111486
648.758485	0.111394
648.964250	0.111462
649.169996	0.111568
649.375724	0.111367
649.581434	0.111223
649.787126	0.111233
649.992800	0.111564
650.198455	0.111460
650.404092	0.111323
650.609711	0.111580
650.815311	0.111608
651.020894	0.111325
651.226458	0.111362
651.432004	0.111536
651.637532	0.111619
651.843041	0.111285
652.048532	0.111542
652.254006	0.111371
652.459460	0.111217
652.664897	0.111071
652.870315	0.111037
653.075716	0.111168
653.281097	0.111121
653.486461	0.111001
653.691807	0.111039
653.897134	0.110832
654.102443	0.111033
654.307734	0.110848
654.513006	0.110816
654.718261	0.110683
654.923497	0.110475
655.128715	0.110395
655.333915	0.110272
655.539096	0.110019
655.744259	0.110006
655.949404	0.110023
656.154531	0.110215
656.359640	0.110192
656.564730	0.110420
656.769802	0.110512
656.974856	0.110566
657.179892	0.110882
657.384909	0.111094
657.589908	0.110849
657.794889	0.110916
657.999852	0.111076
658.204797	0.111214
658.409723	0.111160
658.614631	0.111164
658.819521	0.111072
659.024393	0.111067
659.229246	0.111187
659.434081	0.111374
659.638898	0.111290
659.843697	0.111246
660.048478	0.111244
660.253240	0.111006
660.457984	0.110815
660.662710	0.110752
660.867417	0.110496
661.072107	0.110372
661.276778	0.110239
661.481431	0.110332
661.686066	0.110036
661.890682	0.109991
662.095281	0.110133
662.299861	0.110179
662.504422	0.110273
662.708966	0.110454
662.913491	0.110365
663.117999	0.110508
663.322488	0.110338
663.526958	0.110253
663.731411	0.110062
663.935845	0.110334
664.140261	0.110040
664.344659	0.109849
664.549038	0.109703
664.753400	0.109540
664.957743	0.109321
665.162068	0.109050
665.366375	0.109191
665.570663	0.108993
665.774933	0.108563
665.979185	0.108777
666.183419	0.108919
666.387635	0.108755
666.591832	0.108730
666.796011	0.108845
667.000172	0.108997
667.204315	0.108842
667.408439	0.109144
667.612545	0.109363
667.816634	0.109498
668.020703	0.109727
668.224755	0.109741
668.428788	0.109936
668.632803	0.109852
668.836800	0.109745
669.040779	0.109808
669.244739	0.109562
669.448681	0.109269
669.652605	0.109147
669.856511	0.108647
670.060399	0.108726
670.264268	0.108617
670.468119	0.108525
670.671952	0.108591
670.875767	0.108504
671.079563	0.108524
671.283341	0.108760
671.487101	0.108784
671.690843	0.108958
671.894567	0.108818
672.098272	0.108862
672.301959	0.108901
672.505628	0.108830
672.709278	0.108746
672.912911	0.108925
673.116525	0.108859
673.320121	0.108776
673.523699	0.108857
673.727258	0.108854
673.930799	0.108707
674.134322	0.108781
674.337827	0.108675
674.541314	0.108718
674.744782	0.108515
674.948232	0.108442
675.151664	0.108278
675.355078	0.108124
675.558474	0.108103
675.761851	0.108110
675.965210	0.108091
676.168551	0.108008
676.371873	0.107896
676.575178	0.108016
676.778464	0.108003
676.981732	0.107996
677.184981	0.107956
677.388213	0.108039
677.591426	0.108090
677.794621	0.107884
677.997798	0.108304
678.200956	0.108464
678.404097	0.108355
678.607219	0.108339
678.810323	0.108464
679.013408	0.108459
679.216476	0.108402
679.419525	0.108276
679.622556	0.108451
679.825569	0.108310
680.028563	0.108191
680.231540	0.108281
680.434498	0.108252
680.637438	0.108368
680.840359	0.108436
681.043263	0.108615
681.246148	0.108649
681.449015	0.108684
681.651864	0.108700
681.854694	0.108858
682.057506	0.108652
682.260301	0.108683
682.463076	0.108489
682.665834	0.108336
682.868573	0.108375
683.071295	0.108540
683.273998	0.108479
683.476682	0.108471
683.679349	0.108354
683.881997	0.108490
684.084627	0.108391
684.287239	0.108356
684.489833	0.108459
684.692408	0.108216
684.894965	0.107915
685.097504	0.107933
685.300025	0.107895
685.502527	0.107755
685.705012	0.107697
685.907478	0.107409
686.109925	0.107450
686.312355	0.107452
686.514766	0.107438
686.717159	0.107536
686.919534	0.107193
687.121891	0.106958
687.324230	0.106911
687.526550	0.106683
687.728852	0.106843
687.931136	0.106617
688.133401	0.106322
688.335649	0.106244
688.537878	0.105984
688.740089	0.105803
688.942281	0.105678
689.144456	0.105893
689.346612	0.105950
689.548750	0.105912
689.750870	0.105911
689.952971	0.106159
690.155055	0.106071
690.357120	0.106038
690.559167	0.106280
690.761195	0.106265
690.963206	0.106085
691.165198	0.106108
691.367172	0.106102
691.569128	0.106239
691.771065	0.106206
691.972984	0.106096
692.174885	0.106229
692.376768	0.106280
692.578633	0.106420
692.780479	0.106573
692.982308	0.106653
693.184118	0.106859
693.385909	0.106876
693.587683	0.106901
693.789438	0.107112
693.991175	0.107186
694.192894	0.107254
694.394595	0.107244
694.596277	0.107323
694.797941	0.107409
694.999587	0.107284
695.201215	0.107223
695.402824	0.107211
695.604416	0.107254
695.805989	0.107067
696.007543	0.107125
696.209080	0.107087
696.410598	0.106818
696.612099	0.106698
696.813580	0.106678
697.015044	0.106859
697.216490	0.106753
697.417917	0.106530
697.619326	0.106451
697.820717	0.106213
698.022089	0.106229
698.223444	0.106203
698.424780	0.105916
698.626098	0.105604
698.827397	0.105450
699.028679	0.105540
699.229942	0.105597
699.431187	0.105622
699.632414	0.105513
699.833622	0.105447
700.034813	0.105260
700.235985	0.105355
700.437139	0.105440
700.638274	0.105287
700.839392	0.105167
701.040491	0.105043
701.241572	0.105045
701.442635	0.104997
701.643679	0.104868
701.844706	0.105055
702.045714	0.105079
702.246704	0.105110
702.447675	0.105070
702.648629	0.104855
702.849564	0.104846
703.050481	0.104903
703.251380	0.104972
703.452260	0.104991
703.653122	0.104837
703.853966	0.104859
704.054792	0.104767
704.255600	0.104717
704.456389	0.104631
704.657160	0.104730
704.857913	0.104680
705.058648	0.104582
705.259365	0.104515
705.460063	0.104354
705.660743	0.104277
705.861405	0.104241
706.062048	0.104000
706.262674	0.104081
706.463281	0.103802
706.663870	0.103643
706.864441	0.103469
707.064993	0.103453
707.265527	0.103549
707.466043	0.103418
707.666541	0.103377
707.867021	0.103589
708.067482	0.103562
708.267925	0.103710
708.468350	0.103866
708.668757	0.104241
708.869145	0.104227
709.069516	0.104272
709.269868	0.104382
709.470201	0.104445
709.670517	0.104256
709.870814	0.104386
710.071093	0.104421
710.271354	0.104399
710.471597	0.104344
710.671821	0.104538
710.872028	0.104518
711.072216	0.104500
711.272385	0.104530
711.472537	0.104991
711.672670	0.105088
711.872785	0.105169
712.072882	0.105075
712.272961	0.105040
712.473021	0.104993
712.673063	0.105191
712.873087	0.105385
713.073093	0.105408
713.273081	0.105234
713.473050	0.105053
713.673001	0.104800
713.872934	0.104808
714.072849	0.104828
714.272745	0.104714
714.472623	0.104677
714.672483	0.104548
714.872325	0.104644
715.072148	0.104529
715.271954	0.104588
715.471741	0.104735
715.671509	0.104796
715.871260	0.104707
716.070992	0.104570
716.270707	0.104516
716.470403	0.104628
716.670080	0.104609
716.869740	0.104690
717.069381	0.104627
717.269004	0.104782
717.468609	0.104725
717.668195	0.104797
717.867764	0.105035
718.067314	0.104931
718.266846	0.104715
718.466360	0.104711
718.665855	0.104597
718.865332	0.104550
719.064791	0.104352
719.264232	0.104448
719.463655	0.104465
719.663059	0.104542
719.862445	0.104416
720.061813	0.104477
720.261163	0.104422
720.460494	0.104370
720.659807	0.104501
720.859102	0.104553
721.058379	0.104459
721.257638	0.104452
721.456878	0.104200
721.656100	0.104289
721.855304	0.104330
722.054490	0.104315
722.253657	0.104285
722.452806	0.104192
722.651937	0.104174
722.851050	0.104179
723.050145	0.103859
723.249221	0.104045
723.448279	0.103993
723.647319	0.103928
723.846340	0.103950
724.045344	0.104027
724.244329	0.104112
724.443296	0.104063
724.642245	0.104137
724.841175	0.104338
725.040088	0.104495
725.238982	0.104689
725.437857	0.104734
725.636715	0.104896
725.835554	0.104940
726.034376	0.104915
726.233179	0.105053
726.431963	0.104999
726.630730	0.105010
726.829478	0.104671
727.028208	0.104591
727.226920	0.104465
727.425614	0.104243
727.624289	0.104189
727.822946	0.104029
728.021585	0.103903
728.220206	0.103795
728.418808	0.103822
728.617392	0.103729
728.815958	0.103693
729.014506	0.103730
729.213036	0.103596
729.411547	0.103616
729.610040	0.103727
729.808515	0.103688
730.006972	0.103696
730.205410	0.103695
730.403831	0.103731
730.602233	0.103716
730.800616	0.103726
730.998982	0.104128
731.197329	0.104085
731.395658	0.104037
731.593969	0.104285
731.792262	0.104424
731.990536	0.104434
732.188793	0.104784
732.387031	0.104967
732.585250	0.105023
732.783452	0.104839
732.981635	0.104716
733.179800	0.104676
733.377947	0.104348
733.576076	0.104279
733.774186	0.104360
733.972278	0.104159
734.170352	0.104071
734.368408	0.104061
734.566446	0.104091
734.764465	0.104200
734.962466	0.104187
735.160449	0.104385
735.358413	0.104494
735.556360	0.104296
735.754288	0.104106
735.952198	0.103873
736.150090	0.103882
736.347963	0.103574
736.545818	0.103532
736.743655	0.103546
736.941474	0.103306
737.139275	0.103161
737.337057	0.103147
737.534821	0.103246
737.732567	0.103486
737.930295	0.103278
738.128005	0.103362
738.325696	0.103422
738.523369	0.103407
738.721024	0.103482
738.918660	0.103361
739.116279	0.103448
739.313879	0.103445
739.511461	0.103436
739.709024	0.103626
739.906570	0.103764
740.104097	0.103868
740.301606	0.104150
740.499097	0.104391
740.696569	0.104592
740.894024	0.104703
741.091460	0.104980
741.288878	0.104834
741.486277	0.104766
741.683659	0.104996
741.881022	0.104988
742.078367	0.104740
742.275694	0.104648
742.473002	0.104702
742.670293	0.104642
742.867565	0.104775
743.064819	0.104889
743.262054	0.105166
743.459272	0.104991
743.656471	0.105104
743.853652	0.105423
744.050815	0.105471
744.247959	0.105696
744.445085	0.105774
744.642194	0.105516
744.839283	0.105566
745.036355	0.105431
745.233408	0.105505
745.430444	0.105558
745.627461	0.105665
745.824459	0.105740
746.021440	0.105598
746.218402	0.105665
746.415346	0.105777
746.612272	0.105801
746.809180	0.105772
747.006069	0.105819
747.202940	0.105575
747.399793	0.105406
747.596628	0.105351
747.793444	0.105395
747.990243	0.105428
748.187023	0.105540
748.383784	0.105582
748.580528	0.105549
748.777253	0.105437
748.973960	0.105526
749.170649	0.105347
749.367320	0.105275
749.563973	0.105302
749.760607	0.105252
749.957223	0.105183
750.153821	0.105174
750.350400	0.105317
750.546962	0.105238
750.743505	0.105444
750.940030	0.105587
751.136536	0.105748
751.333025	0.105732
751.529495	0.105696
751.725947	0.105866
751.922381	0.106057
752.118796	0.106140
752.315194	0.106467
752.511573	0.106465
752.707934	0.106460
752.904276	0.106291
753.100601	0.106304
753.296907	0.106420
753.493195	0.106306
753.689465	0.106109
753.885716	0.106173
754.081949	0.106264
754.278164	0.106163
754.474361	0.106205
754.670540	0.106370
754.866700	0.106191
755.062843	0.106037
755.258967	0.106041
755.455072	0.106081
755.651160	0.106056
755.847229	0.105824
756.043280	0.105802
756.239313	0.105830
756.435328	0.106079
756.631324	0.106231
756.827302	0.106387
757.023262	0.106393
757.219204	0.106527
757.415127	0.106470
757.611033	0.106717
757.806920	0.106859
758.002788	0.106882
758.198639	0.106644
758.394471	0.106612
758.590286	0.106360
758.786081	0.106322
758.981859	0.106177
759.177619	0.106307
759.373360	0.106064
759.569083	0.106156
759.764788	0.106237
759.960474	0.106261
760.156143	0.106327
760.351793	0.106721
760.547425	0.106843
760.743038	0.107029
760.938634	0.106888
761.134211	0.106925
761.329770	0.106745
761.525311	0.106723
761.720833	0.106955
761.916338	0.106847
762.111824	0.106572
762.307292	0.106228
762.502741	0.105951
762.698173	0.105935
762.893586	0.105991
763.088981	0.106085
763.284358	0.106073
763.479716	0.105706
763.675057	0.105842
763.870379	0.106176
764.065683	0.106411
764.260968	0.106657
764.456236	0.106789
764.651485	0.106802
764.846716	0.106957
765.041929	0.106931
765.237123	0.107183
765.432299	0.107401
765.627457	0.107190
765.822597	0.107465
766.017719	0.107453
766.212822	0.107474
766.407907	0.107657
766.602974	0.107540
766.798023	0.107731
766.993054	0.107514
767.188066	0.107232
767.383060	0.107315
767.578036	0.107099
767.772993	0.107131
767.967933	0.107131
768.162854	0.107019
768.357757	0.106958
768.552642	0.106846
768.747508	0.107104
768.942356	0.107059
769.137186	0.107060
769.331998	0.106989
769.526792	0.106888
769.721567	0.106736
769.916324	0.106625
770.111063	0.106669
770.305784	0.106463
770.500486	0.106211
770.695171	0.106247
770.889837	0.106100
771.084484	0.106038
771.279114	0.106147
771.473725	0.106207
771.668318	0.106093
771.862893	0.105954
772.057450	0.106149
772.251988	0.106220
772.446509	0.106402
772.641011	0.106416
772.835494	0.106614
773.029960	0.106502
773.224407	0.106461
773.418836	0.106589
773.613247	0.106570
773.807640	0.106417
774.002014	0.106202
774.196370	0.106084
774.390708	0.106172
774.585028	0.105994
774.779330	0.105990
774.973613	0.105872
775.167878	0.105648
775.362125	0.105823
775.556354	0.105839
775.750564	0.106163
775.944756	0.106038
776.138930	0.106103
776.333086	0.106166
776.527223	0.106049
776.721343	0.106364
776.915444	0.106487
777.109526	0.106239
777.303591	0.106329
777.497637	0.106341
777.691666	0.106607
777.885676	0.106692
778.079667	0.106960
778.273641	0.107307
778.467596	0.107217
778.661533	0.107415
778.855452	0.107829
779.049352	0.107792
779.243235	0.107971
779.437099	0.107919
779.630945	0.107976
779.824773	0.107736
780.018582	0.107593
780.212373	0.107874
780.406146	0.107899
780.599901	0.107877
780.793638	0.108004
780.987356	0.107762
781.181056	0.107875
781.374738	0.107716
781.568402	0.107996
781.762047	0.108184
781.955674	0.107985
782.149283	0.107990
782.342874	0.107854
782.536447	0.107764
782.730001	0.107832
782.923537	0.107797
783.117055	0.107779
783.310555	0.107649
783.504036	0.107456
783.697499	0.107371
783.890944	0.107194
784.084371	0.107103
784.277780	0.107153
784.471170	0.107139
784.664542	0.107263
784.857896	0.107282
785.051231	0.107106
785.244549	0.107283
785.437848	0.107525
785.631129	0.107398
785.824392	0.107667
786.017636	0.107755
786.210863	0.107826
786.404071	0.107473
786.597260	0.107579
786.790432	0.107901
786.983585	0.107893
787.176721	0.107773
787.369838	0.108129
787.562936	0.108168
787.756017	0.108095
787.949079	0.108115
788.142123	0.108125
788.335149	0.108019
788.528156	0.107798
788.721146	0.107593
788.914117	0.107350
789.107070	0.107341
789.300005	0.107002
789.492921	0.106896
789.685819	0.106903
789.878699	0.107087
790.071561	0.107168
790.264405	0.107116
790.457230	0.107051
790.650037	0.107282
790.842826	0.107220
791.035597	0.107302
791.228349	0.107440
791.421084	0.107470
791.613800	0.107450
791.806497	0.107253
791.999177	0.107418
792.191838	0.107739
792.384481	0.107576
792.577106	0.107596
792.769713	0.107736
792.962301	0.107703
793.154871	0.107472
793.347423	0.107451
793.539957	0.107734
793.732473	0.107565
793.924970	0.107297
794.117449	0.107584
794.309910	0.107392
794.502353	0.107222
794.694777	0.107238
794.887183	0.107309
795.079571	0.107394
795.271941	0.107329
795.464293	0.107327
795.656626	0.107378
795.848941	0.107336
796.041238	0.107716
796.233516	0.108132
796.425777	0.108111
796.618019	0.108333
796.810243	0.108389
797.002449	0.108326
797.194636	0.108465
797.386805	0.108423
797.578956	0.108153
797.771089	0.107882
797.963204	0.107425
798.155300	0.107303
798.347378	0.107213
798.539438	0.107010
798.731480	0.107011
798.923503	0.106926
799.115509	0.107030
799.307496	0.107091
799.499465	0.107163
799.691415	0.107126
799.883348	0.107146
800.075262	0.107079
800.267158	0.107078
800.459035	0.107153
800.650895	0.107081
800.842736	0.107243
801.034559	0.107307
801.226364	0.107370
801.418150	0.107593
801.609919	0.107650
801.801669	0.107604
801.993401	0.107587
802.185114	0.107556
802.376810	0.107634
802.568487	0.107301
802.760146	0.107286
802.951787	0.107215
803.143409	0.107158
803.335014	0.107304
803.526600	0.107232
803.718168	0.107424
803.909717	0.107141
804.101249	0.107122
804.292762	0.107089
804.484257	0.107175
804.675734	0.107235
804.867192	0.107264
805.058632	0.107290
805.250054	0.107657
805.441458	0.107576
805.632844	0.107785
805.824211	0.107902
806.015561	0.108241
806.206891	0.108161
806.398204	0.108135
806.589499	0.108196
806.780775	0.108263
806.972033	0.108267
807.163273	0.108340
807.354495	0.108367
807.545698	0.108308
807.736883	0.108176
807.928050	0.108221
808.119199	0.108132
808.310329	0.107927
808.501441	0.107685
808.692535	0.107422
808.883611	0.107534
809.074669	0.107799
809.265708	0.108031
809.456729	0.108143
809.647732	0.108166
809.838717	0.108539
810.029683	0.108690
810.220632	0.108922
810.411562	0.109002
810.602474	0.108896
810.793367	0.108743
810.984242	0.108532
811.175100	0.108480
811.365938	0.108541
811.556759	0.108377
811.747562	0.108271
811.938346	0.108399
812.129112	0.108329
812.319860	0.108461
812.510589	0.108551
812.701300	0.108783
812.891994	0.108731
813.082668	0.108645
813.273325	0.108486
813.463964	0.108658
813.654584	0.108439
813.845186	0.108586
814.035769	0.108605
814.226335	0.108529
814.416882	0.108527
814.607411	0.108754
814.797922	0.108745
814.988415	0.108688
815.178889	0.108796
815.369345	0.108884
815.559783	0.108906
815.750203	0.108556
815.940605	0.108647
816.130988	0.108369
816.321353	0.108376
816.511700	0.108352
816.702028	0.108459
816.892339	0.108264
817.082631	0.108169
817.272905	0.108131
817.463161	0.108262
817.653398	0.108141
817.843617	0.108195
818.033819	0.108104
818.224001	0.108348
818.414166	0.108345
818.604312	0.108246
818.794440	0.108187
818.984550	0.107838
819.174642	0.107605
819.364716	0.107603
819.554771	0.107479
819.744808	0.107655
819.934827	0.107344
820.124827	0.107372
820.314810	0.107656
820.504774	0.107711
820.694720	0.107988
820.884647	0.108351
821.074557	0.108300
821.264448	0.108479
821.454321	0.108360
821.644176	0.108424
821.834012	0.108283
822.023831	0.108043
822.213631	0.108157
822.403413	0.108142
822.593176	0.107915
822.782922	0.107748
822.972649	0.107585
823.162358	0.107194
823.352049	0.107197
823.541721	0.107187
823.731376	0.107119
823.921012	0.107042
824.110629	0.107081
824.300229	0.107231
824.489811	0.107400
824.679374	0.107347
824.868919	0.107500
825.058445	0.107433
825.247954	0.107526
825.437444	0.107693
825.626916	0.107387
825.816370	0.107320
826.005806	0.106866
826.195223	0.106824
826.384622	0.106975
826.574003	0.106972
826.763366	0.106959
826.952711	0.107007
827.142037	0.106712
827.331345	0.106582
827.520635	0.106459
827.709906	0.106519
827.899160	0.106368
828.088395	0.106295
828.277612	0.106188
828.466810	0.106298
828.655991	0.106187
828.845153	0.106221
829.034297	0.106560
829.223423	0.106431
829.412531	0.106543
829.601620	0.106584
829.790691	0.106632
829.979744	0.106729
830.168779	0.106596
830.357795	0.106573
830.546793	0.106666
830.735773	0.106401
830.924735	0.106612
831.113679	0.106851
831.302604	0.107079
831.491511	0.106992
831.680400	0.106665
831.869271	0.106665
832.058123	0.106619
832.246957	0.106713
832.435773	0.106729
832.624571	0.106674
832.813351	0.106328
833.002112	0.106129
833.190855	0.106145
833.379580	0.106296
833.568287	0.106198
833.756975	0.106309
833.945645	0.106079
834.134297	0.106318
834.322931	0.106320
834.511547	0.106644
834.700144	0.106605
834.888723	0.106549
835.077284	0.106739
835.265826	0.106808
835.454351	0.106905
835.642857	0.107107
835.831345	0.107165
836.019815	0.107198
836.208266	0.107243
836.396699	0.107264
836.585114	0.107458
836.773511	0.107464
836.961890	0.107400
837.150250	0.107191
837.338592	0.107140
837.526916	0.107015
837.715222	0.107109
837.903510	0.106913
838.091779	0.107142
838.280030	0.107114
838.468263	0.106953
838.656477	0.107171
838.844674	0.107134
839.032852	0.107301
839.221012	0.107274
839.409153	0.107190
839.597277	0.107167
839.785382	0.106778
839.973469	0.106759
840.161538	0.106722
840.349589	0.106752
840.537621	0.106864
840.725635	0.106562
840.913631	0.106739
841.101609	0.106988
841.289568	0.107179
841.477509	0.107141
841.665432	0.106938
841.853337	0.107253
842.041224	0.107246
842.229092	0.107269
842.416942	0.107217
842.604774	0.106896
842.792588	0.106526
842.980383	0.106236
843.168160	0.106324
843.355919	0.106460
843.543660	0.106083
843.731382	0.106032
843.919087	0.106133
844.106773	0.106468
844.294441	0.106520
844.482090	0.106595
844.669722	0.106833
844.857335	0.106984
845.044930	0.106902
845.232507	0.106921
845.420065	0.106630
845.607605	0.106481
845.795127	0.106309
845.982631	0.106666
846.170117	0.106553
846.357584	0.106402
846.545033	0.106395
846.732464	0.106578
846.919877	0.106917
847.107272	0.107330
847.294648	0.107287
847.482006	0.107582
847.669346	0.107420
847.856667	0.107511
848.043971	0.107681
848.231256	0.107660
848.418523	0.107427
848.605771	0.107545
848.793002	0.107226
848.980214	0.107418
849.167408	0.107379
849.354584	0.107601
849.541742	0.107705
849.728881	0.107721
849.916002	0.107637
850.103105	0.107875
850.290190	0.107601
850.477256	0.108052
850.664304	0.108056
850.851334	0.107867
851.038346	0.107779
851.225340	0.108038
851.412315	0.108086
851.599272	0.108344
851.786211	0.108314
851.973132	0.108532
852.160034	0.108421
852.346918	0.108446
852.533784	0.108597
852.720632	0.108587
852.907462	0.108210
853.094273	0.108356
853.281066	0.108287
853.467841	0.108290
853.654598	0.108360
853.841336	0.108288
854.028056	0.108326
854.214758	0.108525
854.401442	0.108566
854.588107	0.108663
854.774755	0.108715
854.961384	0.108575
855.147995	0.108437
855.334587	0.108329
855.521162	0.108103
855.707718	0.108036
855.894256	0.107925
856.080775	0.107802
856.267277	0.108042
856.453760	0.107920
856.640225	0.108218
856.826672	0.108335
857.013101	0.108352
857.199511	0.108622
857.385903	0.108783
857.572277	0.108816
857.758633	0.108801
857.944970	0.108470
858.131290	0.108577
858.317591	0.108538
858.503873	0.108512
858.690138	0.108421
858.876384	0.108278
859.062612	0.108024
859.248822	0.107742
859.435014	0.107748
859.621188	0.107915
859.807343	0.107747
859.993480	0.107464
860.179599	0.107473
860.365699	0.107673
860.551781	0.107794
860.737846	0.107736
860.923891	0.107846
861.109919	0.107925
861.295929	0.107796
861.481920	0.107792
861.667893	0.107914
861.853848	0.107950
862.039784	0.107556
862.225702	0.107493
862.411603	0.107436
862.597484	0.107500
862.783348	0.107451
862.969193	0.107638
863.155021	0.107813
863.340830	0.108051
863.526620	0.107903
863.712393	0.108107
863.898147	0.108039
864.083883	0.108230
864.269601	0.108200
864.455301	0.108120
864.640982	0.108280
864.826645	0.108277
865.012290	0.108041
865.197917	0.108077
865.383526	0.108199
865.569116	0.108537
865.754688	0.108659
865.940242	0.108792
866.125777	0.109098
866.311295	0.109160
866.496794	0.109105
866.682275	0.109463
866.867737	0.109730
867.053182	0.109636
867.238608	0.109520
867.424016	0.109474
867.609406	0.109618
867.794778	0.109573
867.980131	0.109535
868.165466	0.109113
868.350783	0.108932
868.536082	0.108855
868.721362	0.108869
868.906625	0.108600
869.091869	0.108977
869.277094	0.108809
869.462302	0.108601
869.647491	0.108370
869.832662	0.108603
870.017815	0.108650
870.202950	0.108719
870.388066	0.109106
870.573165	0.109279
870.758245	0.109138
870.943306	0.109059
871.128350	0.109175
871.313375	0.109432
871.498382	0.109570
871.683371	0.109393
871.868342	0.109215
872.053294	0.108861
872.238229	0.108717
872.423144	0.108649
872.608042	0.108933
872.792922	0.108832
872.977783	0.108490
873.162626	0.108553
873.347451	0.108743
873.532258	0.108716
873.717046	0.108737
873.901816	0.109074
874.086568	0.108867
874.271302	0.108895
874.456017	0.109251
874.640715	0.109756
874.825394	0.109867
875.010055	0.109758
875.194697	0.109971
875.379322	0.109947
875.563928	0.109672
875.748516	0.109948
875.933085	0.109763
876.117637	0.109683
876.302170	0.109525
876.486685	0.109329
876.671182	0.109369
876.855661	0.109545
877.040121	0.109533
877.224563	0.109753
877.408987	0.109762
877.593393	0.109877
877.777780	0.109896
877.962150	0.109964
878.146501	0.110240
878.330833	0.110442
878.515148	0.110384
878.699444	0.110521
878.883722	0.110721
879.067982	0.110566
879.252224	0.110450
879.436447	0.110475
879.620653	0.110619
879.804840	0.110439
879.989008	0.110389
880.173159	0.110640
880.357291	0.110707
880.541405	0.110860
880.725501	0.111225
880.909579	0.111601
881.093638	0.111570
881.277680	0.111471
881.461703	0.111557
881.645707	0.111807
881.829694	0.112031
882.013662	0.112135
882.197612	0.111967
882.381544	0.111978
882.565458	0.112068
882.749353	0.112270
882.933230	0.112372
883.117089	0.112530
883.300930	0.112517
883.484753	0.112503
883.668557	0.112436
883.852343	0.112364
884.036111	0.112193
884.219861	0.111827
884.403592	0.111614
884.587305	0.111450
884.771000	0.111533
884.954677	0.111928
885.138335	0.111673
885.321976	0.111723
885.505598	0.111739
885.689201	0.111793
885.872787	0.111847
886.056354	0.111710
886.239904	0.111763
886.423434	0.111983
886.606947	0.111554
886.790442	0.111269
886.973918	0.111128
887.157376	0.111402
887.340816	0.111333
887.524237	0.111366
887.707641	0.111431
887.891026	0.111916
888.074393	0.111891
888.257741	0.111980
888.441072	0.112361
888.624384	0.112799
888.807678	0.112634
888.990954	0.112741
889.174211	0.112510
889.357451	0.112867
889.540672	0.112407
889.723875	0.112337
889.907059	0.112479
890.090226	0.112583
890.273374	0.112632
890.456504	0.112696
890.639616	0.112623
890.822709	0.113213
891.005785	0.113231
891.188842	0.113565
891.371881	0.113363
891.554901	0.113299
891.737904	0.113058
891.920888	0.112848
892.103854	0.112933
892.286802	0.113039
892.469731	0.112651
892.652643	0.112247
892.835536	0.111855
893.018410	0.111902
893.201267	0.111860
893.384106	0.111837
893.566926	0.112225
893.749728	0.111990
893.932511	0.112226
894.115277	0.112363
894.298024	0.112612
894.480753	0.112855
894.663464	0.112864
894.846157	0.112881
895.028831	0.113092
895.211487	0.113110
895.394125	0.113537
895.576745	0.113035
895.759346	0.113087
895.941930	0.113449
896.124495	0.113384
896.307041	0.113488
896.489570	0.113555
896.672080	0.113547
896.854573	0.113463
897.037046	0.113621
897.219502	0.113947
897.401940	0.114012
897.584359	0.114211
897.766760	0.114258
897.949143	0.114394
898.131507	0.114181
898.313854	0.114209
898.496182	0.113510
898.678492	0.113387
898.860783	0.112773
899.043057	0.112670
899.225312	0.112368
899.407549	0.112341
899.589768	0.112157
899.771968	0.112243
899.954151	0.112101
900.136315	0.112467
900.318461	0.112749
900.500588	0.113274
900.682698	0.113467
900.864789	0.113440
901.046862	0.113420
901.228917	0.113321
901.410953	0.113625
901.592971	0.113772
901.774972	0.113494
901.956953	0.112813
902.138917	0.112900
902.320862	0.113110
902.502790	0.113272
902.684699	0.113397
902.866589	0.113840
903.048462	0.113494
903.230316	0.113574
903.412152	0.114123
903.593970	0.114669
903.775770	0.114847
903.957551	0.114836
904.139314	0.114718
904.321059	0.114496
904.502786	0.114115
904.684494	0.114069
904.866185	0.113818
905.047857	0.113841
905.229510	0.113236
905.411146	0.113098
905.592763	0.112895
905.774363	0.112844
905.955943	0.112843
906.137506	0.112701
906.319051	0.112750
906.500577	0.112886
906.682085	0.112572
906.863575	0.112942
907.045046	0.112894
907.226500	0.113015
907.407935	0.112912
907.589352	0.113233
907.770750	0.113676
907.952131	0.113895
908.133493	0.113845
908.314837	0.113816
908.496163	0.113381
908.677470	0.113373
908.858760	0.113230
909.040031	0.112804
909.221284	0.112672
909.402518	0.112589
909.583735	0.112349
909.764933	0.112395
909.946113	0.112431
910.127275	0.112746
910.308418	0.112428
910.489544	0.111977
910.670651	0.112046
910.851740	0.111768
911.032810	0.111431
911.213863	0.111492
911.394897	0.111011
911.575913	0.111023
911.756911	0.110876
911.937890	0.110723
912.118851	0.110959
912.299794	0.111285
912.480719	0.111293
912.661626	0.111590
912.842514	0.111641
913.023384	0.111853
913.204236	0.111722
913.385070	0.111171
913.565886	0.111445
913.746683	0.111636
913.927462	0.111696
914.108223	0.111901
914.288965	0.111181
914.469690	0.110837
914.650396	0.110446
914.831084	0.110464
915.011754	0.110575
915.192405	0.110654
915.373038	0.109911
915.553653	0.109721
915.734250	0.109446
915.914829	0.110045
916.095389	0.109936
916.275931	0.109985
916.456455	0.109855
916.636961	0.110165
916.817448	0.110163
916.997917	0.110289
917.178368	0.109693
917.358801	0.109459
917.539216	0.108997
917.719612	0.109112
917.899990	0.109988
918.080350	0.109903
918.260692	0.109720
918.441015	0.109498
918.621320	0.109627
918.801607	0.110183
918.981876	0.111108
919.162127	0.111126
919.342359	0.111039
919.522573	0.110492
919.702769	0.110901
919.882947	0.111056
920.063106	0.111714
920.243247	0.112262
920.423370	0.112262
920.603475	0.111688
920.783562	0.111886
920.963630	0.112389
921.143680	0.112706
921.323712	0.112535
921.503725	0.112777
921.683721	0.111780
921.863698	0.111130
922.043657	0.111344
922.223598	0.111241
922.403520	0.110922
922.583424	0.110481
922.763311	0.109921
922.943178	0.109795
923.123028	0.109629
923.302859	0.110301
923.482673	0.110641
923.662467	0.110275
923.842244	0.109194
924.022003	0.109705
924.201743	0.109907
924.381465	0.109731
924.561169	0.110003
924.740854	0.109672
924.920522	0.109442
925.100171	0.109180
925.279802	0.109175
925.459414	0.110237
925.639009	0.109764
925.818585	0.109318
925.998143	0.109156
926.177683	0.108544
926.357205	0.108331
926.536708	0.107737
926.716193	0.107359
926.895660	0.106594
927.075109	0.106616
927.254539	0.105783
927.433951	0.105540
927.613345	0.106116
927.792721	0.106142
927.972079	0.106616
928.151418	0.106332
928.330739	0.106363
928.510042	0.106648
928.689327	0.106008
928.868593	0.106636
929.047841	0.106454
929.227071	0.105947
929.406283	0.105217
929.585476	0.104785
929.764652	0.104915
929.943809	0.105013
930.122948	0.105039
930.302068	0.105042
930.481171	0.104924
930.660255	0.105181
930.839321	0.104922
931.018369	0.105329
931.197398	0.105045
931.376409	0.104428
931.555402	0.104124
931.734377	0.103621
931.913334	0.103012
932.092272	0.102883
932.271192	0.102055
932.450094	0.101545
932.628978	0.101098
932.807844	0.100724
932.986691	0.101450
933.165520	0.101656
933.344331	0.101984
933.523123	0.102274
933.701898	0.101424
933.880654	0.101333
934.059392	0.101141
934.238111	0.101962
934.416813	0.102133
934.595496	0.102230
934.774161	0.101672
934.952808	0.101426
935.131437	0.101908
935.310047	0.102380
935.488639	0.102635
935.667213	0.103185
935.845769	0.102972
936.024306	0.102031
936.202825	0.101139
936.381326	0.100909
936.559809	0.100639
936.738274	0.099553
936.916720	0.099585
937.095148	0.099146
937.273558	0.098862
937.451950	0.098088
937.630323	0.099573
937.808678	0.100381
937.987015	0.100967
938.165334	0.102103
938.343635	0.101675
938.521917	0.101244
938.700181	0.100701
938.878427	0.100827
939.056655	0.100537
939.234864	0.099120
939.413055	0.097706
939.591228	0.097708
939.769383	0.095594
939.947519	0.096298
940.125638	0.096599
940.303738	0.097838
940.481820	0.096921
940.659883	0.097090
940.837929	0.097670
941.015956	0.098658
941.193965	0.098301
941.371955	0.099187
941.549928	0.099372
941.727882	0.099167
941.905818	0.098599
942.083736	0.099207
942.261636	0.098681
942.439517	0.098563
942.617380	0.097978
942.795225	0.097135
942.973052	0.097130
943.150860	0.097279
943.328651	0.097029
943.506423	0.096687
943.684176	0.097107
943.861912	0.097506
944.039629	0.096800
944.217328	0.097151
944.395009	0.098517
944.572672	0.098358
944.750317	0.098464
944.927943	0.098080
945.105551	0.099142
945.283141	0.098458
945.460712	0.097303
945.638265	0.097574
945.815801	0.097446
945.993317	0.095706
946.170816	0.095734
946.348297	0.095028
946.525759	0.096536
946.703203	0.095302
946.880629	0.096116
947.058036	0.097018
947.235425	0.097086
947.412797	0.096807
947.590149	0.098351
947.767484	0.099185
947.944800	0.100016
948.122099	0.099162
948.299379	0.099681
948.476640	0.098057
948.653884	0.099493
948.831109	0.100211
949.008316	0.099765
949.185505	0.098847
949.362676	0.097595
949.539828	0.098278
949.716962	0.098456
949.894078	0.098245
950.071176	0.098848
950.248256	0.097221
950.425317	0.097853
950.602360	0.098988
950.779385	0.099547
950.956391	0.100484
951.133380	0.099355
951.310350	0.101165
951.487302	0.101576
951.664235	0.102218
951.841151	0.104522
952.018048	0.103624
952.194927	0.104346
952.371788	0.104216
952.548631	0.103525
952.725455	0.102700
952.902261	0.100306
953.079049	0.099605
953.255819	0.099365
953.432570	0.098280
953.609303	0.099398
953.786018	0.099330
953.962715	0.097631
954.139394	0.099519
954.316054	0.101174
954.492696	0.103824
954.669320	0.104097
954.845926	0.105372
955.022513	0.104742
955.199083	0.105186
955.375634	0.104129
955.552166	0.107693
955.728681	0.108500
955.905177	0.105595
956.081655	0.104518
956.258115	0.107027
956.434557	0.107103
956.610980	0.108605
956.787385	0.106901
956.963772	0.106247
957.140141	0.105758
957.316492	0.104336
957.492824	0.107339
957.669138	0.108091
957.845434	0.108386
958.021712	0.108451
958.197971	0.109844
958.374212	0.110403
958.550435	0.112850
958.726640	0.112958
958.902826	0.113592
959.078995	0.114547
959.255145	0.113190
959.431277	0.112219
959.607390	0.112091
959.783486	0.110770
959.959563	0.113172
960.135622	0.113778
960.311662	0.114071
960.487685	0.115199
960.663689	0.115707
960.839675	0.115842
961.015643	0.120633
961.191593	0.120065
961.367524	0.121151
961.543437	0.120947
961.719332	0.121160
961.895209	0.123511
962.071067	0.121798
962.246907	0.121903
962.422730	0.125405
962.598533	0.121009
962.774319	0.123474
962.950086	0.123584
963.125835	0.123975
963.301566	0.123654
963.477279	0.123880
963.652973	0.124741
963.828650	0.125137
964.004308	0.123247
964.179947	0.126080
964.355569	0.125690
964.531172	0.127168
964.706757	0.124962
964.882324	0.126418
965.057873	0.124198
965.233403	0.123676
965.408916	0.121986
965.584410	0.121261
965.759885	0.120079
965.935343	0.119849
966.110782	0.119133
966.286203	0.121153
966.461606	0.120342
966.636991	0.120312
966.812357	0.122693
966.987705	0.123890
967.163035	0.123554
967.338347	0.123931
967.513641	0.125275
967.688916	0.126334
967.864173	0.125875
968.039412	0.126366
968.214632	0.127798
968.389835	0.127469
968.565019	0.127312
968.740185	0.127678
968.915333	0.127832
969.090462	0.126731
969.265573	0.126851
969.440667	0.127284
969.615741	0.124469
969.790798	0.123299
969.965836	0.124298
970.140856	0.123312
970.315858	0.125246
970.490842	0.124975
970.665808	0.126438
970.840755	0.126932
971.015684	0.126856
971.190595	0.129367
971.365487	0.128719
971.540362	0.126862
971.715218	0.126590
971.890056	0.124539
972.064875	0.125484
972.239677	0.124358
972.414460	0.122309
972.589225	0.122920
972.763972	0.123090
972.938700	0.124986
973.113411	0.128236
973.288103	0.130450
973.462777	0.130757
973.637432	0.128455
973.812070	0.129061
973.986689	0.127333
974.161290	0.126853
974.335873	0.127836
974.510437	0.126401
974.684984	0.123957
974.859512	0.123753
975.034022	0.125857
975.208513	0.127249
975.382987	0.127611
975.557442	0.129041
975.731879	0.127328
975.906298	0.125444
976.080698	0.123216
976.255080	0.124094
976.429445	0.123118
976.603790	0.121665
976.778118	0.124057
976.952427	0.125173
977.126719	0.125798
977.300992	0.127997
977.475246	0.129729
977.649483	0.133007
977.823701	0.131712
977.997901	0.134663
978.172083	0.135807
978.346247	0.132898
978.520392	0.133411
978.694519	0.132860
978.868628	0.133694
979.042719	0.131914
979.216791	0.132617
979.390845	0.133696
979.564882	0.132585
979.738899	0.132969
979.912899	0.133299
980.086880	0.130911
980.260843	0.128846
980.434788	0.125319
980.608715	0.123877
980.782623	0.122970
980.956514	0.121129
981.130386	0.117924
981.304240	0.116244
981.478075	0.116574
981.651892	0.117627
981.825692	0.119405
981.999472	0.120805
982.173235	0.124038
982.346980	0.125432
982.520706	0.127075
982.694414	0.128267
982.868104	0.128828
983.041775	0.128878
983.215428	0.129313
983.389064	0.129178
983.562680	0.128126
983.736279	0.127761
983.909860	0.127346
984.083422	0.127926
984.256966	0.129523
984.430491	0.128842
984.603999	0.129484
984.777488	0.126176
984.950959	0.128092
985.124412	0.129509
985.297847	0.129210
985.471263	0.129075
985.644661	0.128129
985.818041	0.127445
985.991403	0.127093
986.164747	0.124229
986.338072	0.126245
986.511379	0.125250
986.684668	0.126721
986.857938	0.124312
987.031191	0.124591
987.204425	0.125648
987.377641	0.126902
987.550839	0.127514
987.724018	0.132251
987.897179	0.131881
988.070322	0.130193
988.243447	0.129850
988.416554	0.133341
988.589642	0.132041
988.762712	0.132414
988.935764	0.133137
989.108798	0.133796
989.281813	0.131058
989.454811	0.131613
989.627790	0.132239
989.800751	0.131287
989.973693	0.131343
990.146617	0.131551
990.319524	0.130304
990.492412	0.127116
990.665281	0.128050
990.838133	0.129193
991.010966	0.129899
991.183781	0.131364
991.356578	0.130642
991.529356	0.129882
991.702117	0.131402
991.874859	0.130142
992.047583	0.133183
992.220288	0.131688
992.392976	0.130449
992.565645	0.128893
992.738296	0.126693
992.910929	0.125851
993.083543	0.125393
993.256139	0.124046
993.428718	0.124603
993.601277	0.122159
993.773819	0.122997
993.946342	0.123331
994.118848	0.123665
994.291335	0.124808
994.463803	0.127697
994.636254	0.128057
994.808686	0.128174
994.981100	0.126011
995.153496	0.128133
995.325874	0.127111
995.498233	0.128206
995.670574	0.129174
995.842897	0.129619
996.015202	0.128459
996.187488	0.128142
996.359757	0.128069
996.532007	0.128595
996.704239	0.127054
996.876452	0.127706
997.048648	0.126561
997.220825	0.125199
997.392984	0.124415
997.565124	0.124054
997.737247	0.124397
997.909351	0.121974
998.081437	0.124133
998.253505	0.123205
998.425554	0.122675
998.597586	0.121425
998.769599	0.120534
998.941594	0.121029
999.113571	0.121420
999.285529	0.121226
999.457469	0.122636
999.629391	0.121801
999.801295	0.123546
999.973181	0.124324
1000.145048	0.124468
1000.316897	0.126557
1000.488728	0.125174
1000.660541	0.124027
1000.832335	0.122282
1001.004111	0.121863
1001.175869	0.123712
1001.347609	0.121874
1001.519331	0.120345
1001.691034	0.119535
1001.862719	0.118828
1002.034386	0.118156
1002.206035	0.118938
1002.377665	0.120871
1002.549277	0.121747
1002.720871	0.120117
1002.892447	0.121765
1003.064004	0.123380
1003.235544	0.124206
1003.407065	0.122496
1003.578568	0.123131
1003.750052	0.125125
1003.921519	0.124738
1004.092967	0.124225
1004.264397	0.125012
1004.435809	0.125256
1004.607202	0.125125
1004.778577	0.125349
1004.949934	0.127759
1005.121273	0.129993
1005.292594	0.127336
1005.463896	0.127861
1005.635180	0.127730
1005.806446	0.126638
1005.977694	0.125839
1006.148923	0.125880
1006.320135	0.126799
1006.491328	0.125247
1006.662503	0.123233
1006.833659	0.124978
1007.004798	0.123564
1007.175918	0.123724
1007.347020	0.123823
1007.518103	0.123042
1007.689169	0.122202
1007.860216	0.122945
1008.031245	0.123239
1008.202256	0.123589
1008.373248	0.122823
1008.544223	0.123494
1008.715179	0.124562
1008.886117	0.123895
1009.057036	0.122701
1009.227938	0.123811
1009.398821	0.122048
1009.569686	0.121932
1009.740533	0.121526
1009.911361	0.120297
1010.082172	0.120940
1010.252964	0.121314
1010.423738	0.122533
1010.594493	0.124916
1010.765231	0.124373
1010.935950	0.124266
1011.106651	0.125166
1011.277334	0.126169
1011.447998	0.127116
1011.618645	0.127270
1011.789273	0.124879
1011.959882	0.123264
1012.130474	0.122338
1012.301048	0.123208
1012.471603	0.124924
1012.642140	0.123390
1012.812658	0.123889
1012.983159	0.123551
1013.153641	0.121717
1013.324105	0.122752
1013.494551	0.124511
1013.664979	0.122964
1013.835388	0.121139
1014.005779	0.119488
1014.176152	0.121606
1014.346507	0.120351
1014.516843	0.120153
1014.687162	0.121497
1014.857462	0.121615
1015.027744	0.120688
1015.198007	0.121679
1015.368252	0.122484
1015.538480	0.122184
1015.708689	0.121763
1015.878879	0.121877
1016.049052	0.122233
1016.219206	0.123462
1016.389342	0.122221
1016.559460	0.121583
1016.729559	0.123465
1016.899641	0.123330
1017.069704	0.123778
1017.239749	0.124819
1017.409775	0.125200
1017.579784	0.124395
1017.749774	0.122161
1017.919746	0.123758
1018.089700	0.125040
1018.259635	0.124435
1018.429553	0.124722
1018.599452	0.125425
1018.769333	0.123698
1018.939195	0.124028
1019.109040	0.124246
1019.278866	0.125955
1019.448674	0.125757
1019.618464	0.123847
1019.788235	0.122411
1019.957989	0.122221
1020.127724	0.123486
1020.297441	0.124859
1020.467139	0.123095
1020.636820	0.124502
1020.806482	0.123612
1020.976126	0.123991
1021.145752	0.125758
1021.315359	0.127629
1021.484948	0.127611
1021.654519	0.126662
1021.824072	0.125936
1021.993607	0.129015
1022.163123	0.129330
1022.332621	0.128872
1022.502101	0.128870
1022.671563	0.128220
1022.841007	0.126994
1023.010432	0.127817
1023.179839	0.125726
1023.349228	0.125819
1023.518598	0.124089
1023.687951	0.122168
1023.857285	0.121123
1024.026601	0.122336
1024.195899	0.122170
1024.365178	0.122976
1024.534439	0.122453
1024.703682	0.124166
1024.872907	0.122315
1025.042114	0.122158
1025.211302	0.124834
1025.380472	0.127943
1025.549624	0.125794
1025.718758	0.125882
1025.887873	0.125177
1026.056970	0.125460
1026.226049	0.126089
1026.395110	0.128527
1026.564153	0.130150
1026.733177	0.129236
1026.902183	0.127205
1027.071171	0.128912
1027.240141	0.128347
1027.409092	0.129299
1027.578026	0.129122
1027.746940	0.128830
1027.915837	0.127892
1028.084716	0.126357
1028.253576	0.125334
1028.422418	0.125928
1028.591242	0.124120
1028.760048	0.124235
1028.928835	0.124184
1029.097604	0.124356
1029.266355	0.122438
1029.435088	0.122284
1029.603803	0.124785
1029.772499	0.125176
1029.941177	0.123748
1030.109837	0.122921
1030.278478	0.121923
1030.447102	0.120797
1030.615707	0.119778
1030.784294	0.121251
1030.952863	0.121158
1031.121413	0.118216
1031.289945	0.117576
1031.458460	0.119498
1031.626955	0.120447
1031.795433	0.122704
1031.963892	0.122375
1032.132334	0.123230
1032.300756	0.122299
1032.469161	0.124535
1032.637548	0.125817
1032.805916	0.125213
1032.974266	0.124691
1033.142598	0.125622
1033.310911	0.125684
1033.479207	0.125613
1033.647484	0.124955
1033.815743	0.124420
1033.983983	0.121552
1034.152206	0.120343
1034.320410	0.121519
1034.488596	0.123049
1034.656764	0.123479
1034.824914	0.125571
1034.993045	0.126665
1035.161158	0.127119
1035.329253	0.128912
1035.497330	0.130759
1035.665388	0.132098
1035.833428	0.131429
1036.001450	0.127848
1036.169454	0.126216
1036.337440	0.124102
1036.505407	0.124210
1036.673356	0.124682
1036.841287	0.123546
1037.009200	0.120547
1037.177094	0.120146
1037.344970	0.119316
1037.512828	0.121454
1037.680668	0.121341
1037.848489	0.122777
1038.016293	0.122312
1038.184078	0.121008
1038.351845	0.121155
1038.519593	0.123212
1038.687324	0.123588
1038.855036	0.124888
1039.022730	0.124162
1039.190406	0.124204
1039.358063	0.122650
1039.525702	0.123362
1039.693323	0.124200
1039.860926	0.123853
1040.028511	0.123836
1040.196077	0.123294
1040.363625	0.123153
1040.531155	0.121026
1040.698667	0.122797
1040.866161	0.122740
1041.033636	0.121281
1041.201093	0.122210
1041.368532	0.122526
1041.535952	0.121499
1041.703355	0.121935
1041.870739	0.121600
1042.038105	0.123663
1042.205452	0.123127
1042.372782	0.120672
1042.540093	0.121914
1042.707386	0.119790
1042.874661	0.118837
1043.041918	0.120022
1043.209156	0.120551
1043.376376	0.120509
1043.543578	0.121204
1043.710762	0.120962
1043.877927	0.123321
1044.045074	0.122436
1044.212203	0.124227
1044.379314	0.124970
1044.546407	0.123051
1044.713481	0.122423
1044.880537	0.124117
1045.047575	0.123940
1045.214595	0.126385
1045.381596	0.125811
1045.548579	0.125005
1045.715544	0.123281
1045.882491	0.124650
1046.049420	0.127922
1046.216330	0.127848
1046.383222	0.127657
1046.550096	0.127388
1046.716951	0.124834
1046.883789	0.124792
1047.050608	0.125742
1047.217409	0.126958
1047.384192	0.125016
1047.550956	0.122975
1047.717703	0.121682
1047.884431	0.119930
1048.051140	0.120282
1048.217832	0.120753
1048.384505	0.120991
1048.551161	0.123053
1048.717798	0.122140
1048.884416	0.123293
1049.051017	0.124372
1049.217599	0.124757
1049.384163	0.125339
1049.550709	0.124444
1049.717237	0.124484
1049.883746	0.125745
1050.050237	0.125979
1050.216710	0.126829
1050.383165	0.126606
1050.549601	0.127328
1050.716019	0.125547
1050.882420	0.125209
1051.048801	0.124532
1051.215165	0.123608
1051.381510	0.122590
1051.547837	0.120097
1051.714146	0.119367
1051.880437	0.119901
1052.046709	0.118613
1052.212964	0.121362
1052.379200	0.123290
1052.545417	0.122765
1052.711617	0.123555
1052.877798	0.125073
1053.043961	0.126173
1053.210106	0.126322
1053.376233	0.125915
1053.542341	0.125056
1053.708432	0.125157
1053.874504	0.122834
1054.040557	0.124408
1054.206593	0.122869
1054.372610	0.121409
1054.538609	0.121670
1054.704590	0.120816
1054.870553	0.120180
1055.036497	0.119458
1055.202424	0.118757
1055.368331	0.119739
1055.534221	0.119200
1055.700093	0.120376
1055.865946	0.118835
1056.031781	0.118173
1056.197598	0.119626
1056.363397	0.119898
1056.529177	0.121210
1056.694939	0.121716
1056.860683	0.122072
1057.026409	0.122430
1057.192116	0.118904
1057.357806	0.120004
1057.523477	0.119784
1057.689130	0.119696
1057.854764	0.120896
1058.020381	0.120909
1058.185979	0.121131
1058.351559	0.120627
1058.517120	0.121750
1058.682664	0.125308
1058.848189	0.124251
1059.013696	0.123017
1059.179185	0.120078
1059.344656	0.119868
1059.510108	0.119025
1059.675542	0.118304
1059.840958	0.117236
1060.006356	0.113810
1060.171735	0.113905
1060.337096	0.113234
1060.502439	0.112701
1060.667764	0.114222
1060.833071	0.109762
1060.998359	0.110907
1061.163629	0.109558
1061.328881	0.108614
1061.494115	0.111191
1061.659330	0.112819
1061.824527	0.114551
1061.989706	0.115819
1062.154867	0.116180
1062.320010	0.119791
1062.485134	0.119568
1062.650240	0.119903
1062.815328	0.120679
1062.980398	0.120985
1063.145449	0.117518
1063.310482	0.116378
1063.475497	0.116089
1063.640494	0.116651
1063.805473	0.114885
1063.970433	0.112833
1064.135375	0.111939
1064.300299	0.112000
1064.465204	0.112174
1064.630092	0.113635
1064.794961	0.113331
1064.959812	0.113113
1065.124645	0.113852
1065.289459	0.114815
1065.454256	0.115790
1065.619034	0.116100
1065.783793	0.115727
1065.948535	0.114099
1066.113258	0.111794
1066.277964	0.111539
1066.442651	0.112279
1066.607319	0.109612
1066.771970	0.110175
1066.936602	0.109865
1067.101216	0.110419
1067.265812	0.109468
1067.430389	0.110009
1067.594949	0.111937
1067.759490	0.112076
1067.924013	0.112296
1068.088518	0.112926
1068.253004	0.111128
1068.417472	0.113533
1068.581922	0.115529
1068.746354	0.116690
1068.910768	0.117068
1069.075163	0.116426
1069.239540	0.116356
1069.403899	0.115823
1069.568240	0.115926
1069.732562	0.116687
1069.896866	0.116043
1070.061152	0.115211
1070.225420	0.116731
1070.389670	0.115086
1070.553901	0.113388
1070.718114	0.114220
1070.882309	0.112354
1071.046486	0.113402
1071.210644	0.113044
1071.374784	0.112925
1071.538906	0.112147
1071.703010	0.112417
1071.867096	0.113353
1072.031163	0.114611
1072.195212	0.115139
1072.359243	0.117484
1072.523256	0.117517
1072.687250	0.119235
1072.851226	0.115743
1073.015184	0.116385
1073.179124	0.114100
1073.343045	0.112745
1073.506949	0.114892
1073.670834	0.115700
1073.834701	0.115842
1073.998549	0.114857
1074.162380	0.113275
1074.326192	0.114168
1074.489986	0.114596
1074.653761	0.116573
1074.817519	0.117061
1074.981258	0.116138
1075.144979	0.114998
1075.308682	0.112827
1075.472367	0.111430
1075.636033	0.114388
1075.799681	0.114634
1075.963311	0.113255
1076.126923	0.112086
1076.290516	0.113938
1076.454092	0.114934
1076.617649	0.116075
1076.781187	0.116879
1076.944708	0.119966
1077.108210	0.117338
1077.271695	0.115549
1077.435160	0.114454
1077.598608	0.115950
1077.762038	0.112781
1077.925449	0.111900
1078.088842	0.108891
1078.252217	0.110065
1078.415573	0.109901
1078.578912	0.111796
1078.742232	0.112319
1078.905534	0.111520
1079.068817	0.109798
1079.232083	0.111857
1079.395330	0.112441
1079.558559	0.113879
1079.721770	0.111489
1079.884962	0.111869
1080.048136	0.107763
1080.211293	0.105853
1080.374430	0.109057
1080.537550	0.109980
1080.700651	0.110748
1080.863735	0.108625
1081.026800	0.110849
1081.189846	0.115405
1081.352875	0.115469
1081.515885	0.119548
1081.678877	0.123446
1081.841851	0.122480
1082.004807	0.120982
1082.167744	0.118780
1082.330663	0.114962
1082.493564	0.111362
1082.656447	0.107393
1082.819312	0.104318
1082.982158	0.101848
1083.144986	0.103051
1083.307796	0.102004
1083.470587	0.103681
1083.633361	0.106447
1083.796116	0.111550
1083.958853	0.113509
1084.121571	0.115066
1084.284272	0.113872
1084.446954	0.115133
1084.609618	0.111592
1084.772264	0.113582
1084.934892	0.111873
1085.097501	0.110877
1085.260092	0.110356
1085.422665	0.107907
1085.585220	0.105125
1085.747756	0.108590
1085.910274	0.107246
1086.072774	0.110118
1086.235256	0.105647
1086.397720	0.107330
1086.560165	0.106914
1086.722592	0.103402
1086.885001	0.103895
1087.047392	0.107634
1087.209764	0.106536
1087.372119	0.106919
1087.534455	0.106190
1087.696772	0.107629
1087.859072	0.104908
1088.021353	0.104771
1088.183616	0.106944
1088.345861	0.109494
1088.508088	0.106744
1088.670296	0.107138
1088.832486	0.108649
1088.994658	0.110319
1089.156812	0.112147
1089.318948	0.114031
1089.481065	0.112304
1089.643164	0.113374
1089.805245	0.110889
1089.967308	0.108884
1090.129352	0.108495
1090.291378	0.106066
1090.453386	0.108821
1090.615376	0.107475
1090.777347	0.104809
1090.939301	0.107602
1091.101236	0.107471
1091.263153	0.109720
1091.425051	0.112690
1091.586932	0.112781
1091.748794	0.112029
1091.910638	0.109639
1092.072463	0.110105
1092.234271	0.114387
1092.396060	0.111870
1092.557831	0.114395
1092.719584	0.115101
1092.881319	0.116558
1093.043035	0.113967
1093.204733	0.115842
1093.366413	0.115315
1093.528075	0.116086
1093.689718	0.113070
1093.851343	0.112457
1094.012950	0.108811
1094.174539	0.105639
1094.336110	0.104107
1094.497662	0.104538
1094.659196	0.105002
1094.820712	0.103929
1094.982210	0.101451
1095.143689	0.102368
1095.305151	0.105304
1095.466594	0.106802
1095.628018	0.107726
1095.789425	0.110795
1095.950813	0.110099
1096.112183	0.113277
1096.273535	0.113877
1096.434869	0.114036
1096.596184	0.114382
1096.757482	0.114406
1096.918761	0.113275
1097.080021	0.112458
1097.241264	0.109479
1097.402488	0.111850
1097.563694	0.109687
1097.724882	0.105419
1097.886052	0.107023
1098.047203	0.108803
1098.208336	0.106147
1098.369451	0.105802
1098.530548	0.108934
1098.691627	0.112565
1098.852687	0.109748
1099.013729	0.108078
1099.174753	0.109024
1099.335758	0.108452
1099.496746	0.109436
1099.657715	0.114331
1099.818666	0.115242
1099.979599	0.115511
1100.140513	0.109743
1100.301409	0.108157
1100.462287	0.106645
1100.623147	0.109773
1100.783989	0.114818
1100.944812	0.110505
1101.105617	0.106644
1101.266404	0.105684
1101.427173	0.102602
1101.587923	0.102558
1101.748656	0.111158
1101.909370	0.111867
1102.070066	0.108031
1102.230743	0.105459
1102.391403	0.105186
1102.552044	0.103697
1102.712667	0.106435
1102.873271	0.109849
1103.033858	0.112980
1103.194426	0.107897
1103.354976	0.108995
1103.515508	0.110497
1103.676021	0.108945
1103.836517	0.105085
1103.996994	0.104992
1104.157453	0.100019
1104.317893	0.098909
1104.478316	0.097925
1104.638720	0.096999
1104.799106	0.095965
1104.959474	0.094106
1105.119823	0.094773
1105.280155	0.100361
1105.440468	0.101463
1105.600763	0.105096
1105.761039	0.098347
1105.921298	0.095157
1106.081538	0.097793
1106.241760	0.097989
1106.401964	0.100575
1106.562149	0.100532
1106.722316	0.102616
1106.882465	0.096515
1107.042596	0.098252
1107.202709	0.108083
1107.362803	0.108249
1107.522879	0.106625
1107.682937	0.107534
1107.842977	0.113398
1108.002999	0.112014
1108.163002	0.108347
1108.322987	0.117606
1108.482954	0.112657
1108.642902	0.109670
1108.802833	0.107599
1108.962745	0.108970
1109.122639	0.113566
1109.282515	0.108105
1109.442372	0.113687
1109.602211	0.115455
1109.762032	0.113354
1109.921835	0.111371
1110.081620	0.105351
1110.241386	0.109449
1110.401134	0.105521
1110.560864	0.101043
1110.720576	0.102753
1110.880269	0.094979
1111.039945	0.098831
1111.199602	0.092810
1111.359240	0.095122
1111.518861	0.097506
1111.678463	0.100660
1111.838047	0.103758
1111.997613	0.105201
1112.157161	0.102657
1112.316690	0.102874
1112.476202	0.094496
1112.635695	0.096062
1112.795169	0.093780
1112.954626	0.092666
1113.114064	0.090781
1113.273484	0.093319
1113.432886	0.088626
1113.592270	0.088549
1113.751635	0.091312
1113.910983	0.094121
1114.070312	0.096507
1114.229622	0.101026
1114.388915	0.108336
1114.548189	0.112027
1114.707445	0.106490
1114.866683	0.112069
1115.025903	0.107379
1115.185104	0.107769
1115.344287	0.110121
1115.503452	0.109988
1115.662599	0.104080
1115.821727	0.101753
1115.980838	0.094202
1116.139930	0.100470
1116.299004	0.101634
1116.458059	0.111529
1116.617097	0.112513
1116.776116	0.111181
1116.935117	0.110322
1117.094099	0.117512
1117.253064	0.110064
1117.412010	0.110917
1117.570938	0.111582
1117.729848	0.108454
1117.888740	0.104123
1118.047613	0.104283
1118.206468	0.108202
1118.365305	0.110755
1118.524124	0.105357
1118.682924	0.103328
1118.841707	0.104588
1119.000471	0.094494
1119.159216	0.090868
1119.317944	0.087557
1119.476653	0.086377
1119.635344	0.084706
1119.794017	0.085163
1119.952672	0.088033
1120.111308	0.090762
1120.269927	0.093081
1120.428527	0.097647
1120.587108	0.100755
1120.745672	0.103768
1120.904217	0.097614
1121.062744	0.085516
1121.221253	0.082639
1121.379744	0.087931
1121.538216	0.087851
1121.696671	0.084373
1121.855107	0.085334
1122.013524	0.080903
1122.171924	0.079448
1122.330305	0.085984
1122.488668	0.097040
1122.647013	0.105414
1122.805340	0.098511
1122.963648	0.102652
1123.121938	0.103865
1123.280210	0.109085
1123.438464	0.103441
1123.596700	0.099803
1123.754917	0.100206
1123.913116	0.102878
1124.071297	0.096511
1124.229459	0.094945
1124.387604	0.092185
1124.545730	0.094269
1124.703838	0.091007
1124.861928	0.103352
1125.019999	0.104616
1125.178052	0.100341
1125.336088	0.092462
1125.494104	0.089686
1125.652103	0.089348
1125.810083	0.093309
1125.968045	0.088924
1126.125989	0.085509
1126.283915	0.077317
1126.441823	0.076667
1126.599712	0.075411
1126.757583	0.078470
1126.915436	0.080810
1127.073270	0.082351
1127.231087	0.080092
1127.388885	0.085128
1127.546665	0.087969
1127.704426	0.091948
1127.862170	0.098178
1128.019895	0.104502
1128.177602	0.103079
1128.335291	0.103216
1128.492961	0.108586
1128.650614	0.109412
1128.808248	0.102028
1128.965864	0.105832
1129.123461	0.109552
1129.281041	0.106848
1129.438602	0.104061
1129.596145	0.103305
1129.753670	0.108409
1129.911176	0.092607
1130.068665	0.094273
1130.226135	0.101777
1130.383587	0.095731
1130.541020	0.091347
1130.698436	0.102547
1130.855833	0.092808
1131.013212	0.086725
1131.170573	0.076671
1131.327915	0.093749
1131.485239	0.095530
1131.642545	0.086599
1131.799833	0.085313
1131.957103	0.090234
1132.114354	0.077708
1132.271588	0.081932
1132.428803	0.090271
1132.585999	0.088754
1132.743178	0.092567
1132.900338	0.086566
1133.057480	0.091442
1133.214604	0.087995
1133.371710	0.090624
1133.528797	0.096026
1133.685866	0.102763
1133.842917	0.097106
1133.999950	0.093360
1134.156964	0.082232
1134.313960	0.087077
1134.470938	0.090146
1134.627898	0.094432
1134.784840	0.091236
1134.941763	0.087609
1135.098668	0.084115
1135.255555	0.089970
1135.412424	0.105064
1135.569274	0.106614
1135.726107	0.102545
1135.882921	0.099571
1136.039716	0.096196
1136.196494	0.093546
1136.353253	0.086611
1136.509995	0.093969
1136.666717	0.092442
1136.823422	0.088824
1136.980109	0.087358
1137.136777	0.095454
1137.293427	0.095608
1137.450059	0.095651
1137.606672	0.096494
1137.763267	0.105602
1137.919844	0.100777
1138.076403	0.103414
1138.232944	0.100159
1138.389466	0.099457
1138.545971	0.089102
1138.702457	0.083571
1138.858924	0.089118
1139.015374	0.088296
1139.171805	0.083969
1139.328218	0.079182
1139.484613	0.081273
1139.640990	0.082340
1139.797348	0.097808
1139.953688	0.097305
1140.110010	0.103793
1140.266314	0.101672
1140.422600	0.099195
1140.578867	0.095705
1140.735116	0.105518
1140.891347	0.104439
1141.047559	0.105274
1141.203754	0.087059
1141.359930	0.097022
1141.516088	0.095278
1141.672228	0.094114
1141.828349	0.097018
1141.984452	0.111031
1142.140537	0.094329
1142.296604	0.099473
1142.452653	0.101761
1142.608683	0.108661
1142.764695	0.101664
1142.920689	0.104338
1143.076665	0.100435
1143.232622	0.099479
1143.388562	0.088286
1143.544483	0.106359
1143.700385	0.103587
1143.856270	0.100989
1144.012136	0.101271
1144.167985	0.097125
1144.323814	0.093042
1144.479626	0.099541
1144.635420	0.100494
1144.791195	0.113186
1144.946952	0.097322
1145.102691	0.084069
1145.258411	0.075225
1145.414113	0.075364
1145.569798	0.085973
1145.725463	0.084136
1145.881111	0.095350
1146.036741	0.097280
1146.192352	0.084936
1146.347945	0.098325
1146.503519	0.105875
1146.659076	0.113613
1146.814614	0.109846
1146.970134	0.109941
1147.125636	0.113082
1147.281120	0.096064
1147.436585	0.099731
1147.592032	0.101250
1147.747461	0.098819
1147.902872	0.101935
1148.058265	0.108754
1148.213639	0.121383
1148.368995	0.117703
1148.524333	0.116192
1148.679653	0.132465
1148.834954	0.121024
1148.990237	0.128849
1149.145502	0.125393
1149.300749	0.120045
1149.455977	0.108921
1149.611188	0.088862
1149.766380	0.082539
1149.921553	0.096461
1150.076709	0.090650
1150.231846	0.088985
1150.386966	0.079044
1150.542066	0.072574
1150.697149	0.079101
1150.852214	0.091697
1151.007260	0.099755
1151.162288	0.106748
1151.317298	0.098988
1151.472289	0.100192
1151.627263	0.110909
1151.782218	0.118004
1151.937155	0.117384
1152.092073	0.117225
1152.246974	0.105259
1152.401856	0.109792
1152.556720	0.110529
1152.711566	0.099330
1152.866393	0.099060
1153.021203	0.089050
1153.175994	0.088376
1153.330767	0.092359
1153.485521	0.087233
1153.640258	0.100179
1153.794976	0.117925
1153.949676	0.095752
1154.104358	0.093707
1154.259021	0.094109
1154.413667	0.113827
1154.568294	0.124227
1154.722903	0.127452
1154.877493	0.132279
1155.032066	0.141460
1155.186620	0.115113
1155.341156	0.143784
1155.495674	0.148363
1155.650173	0.135573
1155.804654	0.114153
1155.959118	0.099508
1156.113562	0.107158
1156.267989	0.099016
1156.422397	0.086623
1156.576788	0.082731
1156.731160	0.071961
1156.885513	0.074076
1157.039849	0.083550
1157.194166	0.077542
1157.348465	0.096295
1157.502746	0.079348
1157.657009	0.078035
1157.811253	0.065544
1157.965479	0.069608
1158.119687	0.068560
1158.273877	0.074521
1158.428048	0.074176
1158.582201	0.091470
1158.736337	0.073323
1158.890453	0.093092
1159.044552	0.093656
1159.198632	0.100949
1159.352694	0.105640
1159.506738	0.112066
1159.660764	0.121475
1159.814771	0.133294
1159.968761	0.123873
1160.122732	0.130418
1160.276685	0.121586
1160.430619	0.138875
1160.584535	0.127765
1160.738434	0.130970
1160.892313	0.141265
1161.046175	0.108957
1161.200019	0.094187
1161.353844	0.092961
1161.507651	0.104368
1161.661440	0.107741
1161.815210	0.110568
1161.968962	0.129605
1162.122697	0.119009
1162.276412	0.111137
1162.430110	0.145012
1162.583789	0.135956
1162.737451	0.145817
1162.891094	0.128528
1163.044718	0.127563
1163.198325	0.115445
1163.351913	0.101768
1163.505483	0.099197
1163.659035	0.114089
1163.812569	0.087173
1163.966084	0.098714
1164.119581	0.089984
1164.273060	0.079874
1164.426521	0.077048
1164.579964	0.069189
1164.733388	0.076432
1164.886794	0.093600
1165.040182	0.073177
1165.193551	0.086132
1165.346903	0.080112
1165.500236	0.071344
1165.653551	0.088900
1165.806848	0.098253
1165.960126	0.103622
1166.113386	0.116605
1166.266628	0.121123
1166.419852	0.105044
1166.573058	0.094871
1166.726245	0.103373
1166.879414	0.115697
1167.032565	0.112692
1167.185698	0.108180
1167.338812	0.092117
1167.491909	0.064438
1167.644987	0.070252
1167.798046	0.074877
1167.951088	0.081201
1168.104111	0.082405
1168.257117	0.100547
1168.410103	0.088458
1168.563072	0.048629
1168.716023	0.057178
1168.868955	0.060823
1169.021869	0.063441
1169.174765	0.067643
1169.327642	0.050273
1169.480501	0.024982
1169.633343	0.011378
1169.786165	0.017508
1169.938970	0.058853
1170.091757	0.059484
1170.244525	0.086804
1170.397275	0.062539
1170.550007	0.063566
1170.702720	0.066906
1170.855415	0.090745
1171.008092	0.065253
1171.160751	0.048412
1171.313392	0.014839
1171.466014	0.165098
1171.618619	-0.078878
1171.771205	-0.078878
1171.923772	-0.078878
