sample name	sample
index	270
start time	 02-25-2021  11:29:14 AM
880	0.198622
Peak Time (s)	92.038
Peak Height 	0.1986
calc peak height	90,93
Baseline Time (s)	8.536
Baseline Value 	-0.004934
subtract baseline	10,4
Abs	0.138216
Peak Time (s)	92.535
Peak Height 	0.1382
calc peak height	90,93
Baseline Time (s)	8.536
Baseline Value 	0.002762
subtract baseline	10,3
PK_550	0.064777
Peak Time (s)	91.537
Peak Height 	0.06478
calc peak height	90,93
Baseline Time (s)	9.537
Baseline Value 	1.7888E-4
subtract baseline	10,2
PK_880	0.131551
Peak Time (s)	92.535
Peak Height 	0.1316
calc peak height	90,93
Baseline Time (s)	10.037
Baseline Value 	0.001704
subtract baseline	10,1


Time (s)	A880-A510	A880-A775	A880-A975	A880	I510	I775	I975	I880	
0.036500	-0.000117	0.000324	-0.001280	0.001940	6867.749238	45942.555508	3974.044886	24205.672539
0.537500	-0.000701	0.000063	-0.001213	0.004508	6838.960316	45663.112033	3967.622773	24079.896260
1.037500	-0.003357	-0.000776	-0.001856	0.003385	6825.037113	45691.149728	3968.853747	24134.845325
1.535000	-0.001641	-0.000511	-0.003844	0.001247	6860.139694	45928.495689	3969.236770	24239.737195
2.035000	0.000168	0.000251	0.001523	0.001555	6873.902072	45973.567424	3982.289180	24224.598729
2.535500	-0.000733	-0.000113	-0.000915	0.001741	6863.942465	45919.059904	3975.500723	24215.492541
3.035500	0.002108	-0.000027	-0.005083	-0.000487	6910.630487	46148.812079	3970.507646	24325.219397
3.535500	-0.000023	-0.000626	-0.000232	-0.000059	6886.995213	46046.717944	3981.922905	24304.116482
4.036000	-0.000875	-0.000230	-0.001269	0.000595	6873.140836	46021.041136	3977.544032	24271.845288
4.536500	-0.000083	-0.000933	0.001886	-0.000099	6886.806967	46020.172184	3987.534268	24306.063811
5.036500	0.001248	0.000292	0.000281	0.001016	6888.793385	46031.099869	3980.465932	24251.120910
5.537000	-0.001435	-0.000275	0.002139	0.000006	6873.410705	46075.169937	3987.920665	24300.929108
6.037500	-0.000513	-0.000173	0.006659	0.000351	6878.704080	46050.952032	3998.860497	24283.870893
6.537500	0.001376	-0.000295	0.002212	0.000291	6896.663953	46044.832219	3987.368292	24286.835486
7.035000	-0.002549	-0.000460	-0.001338	0.000047	6862.818027	46052.629839	3978.781840	24298.862625
7.535500	0.001331	-0.000050	0.001217	0.000608	6893.328784	46037.725295	3983.953889	24271.241511
8.035500	0.000179	-0.000238	0.000545	-0.000086	6889.101199	46088.024692	3984.011142	24305.454978
8.536000	-0.001210	0.000174	0.000000	0.000000	6875.528796	46120.372886	3982.371755	24301.200733
9.039000	0.000571	-0.000582	-0.001993	-0.000067	6892.540670	46051.882654	3977.385132	24304.488696
9.536500	0.000477	0.000000	0.001162	0.000502	6886.425682	46053.133896	3984.085454	24276.426661
10.037000	0.000000	0.000134	0.000644	0.000457	6882.456405	46070.980069	3982.859059	24278.679037
10.537000	-0.000652	-0.000692	0.001234	-0.000013	6880.777110	46035.523619	3985.610267	24301.823948
11.037500	0.000684	0.000112	-0.000243	0.000417	6889.122445	46072.721085	3980.660602	24280.628711
11.535000	-0.001868	-0.000969	-0.004328	-0.000649	6875.446383	46071.301202	3972.865226	24333.251193
12.035500	-0.002282	-0.001213	-0.000534	-0.000689	6872.007505	46050.915337	3982.772508	24335.200958
12.535500	-0.001193	0.000054	-0.002198	0.000340	6872.569378	46074.690600	3975.806371	24284.450337
13.035500	0.002731	0.000047	0.003312	-0.001760	6928.255273	46283.195320	3995.610710	24388.238638
13.536500	0.001083	-0.000124	0.000971	-0.000200	6898.502788	46110.699043	3985.415752	24311.095576
14.039500	-0.000283	-0.000506	0.002306	-0.000658	6890.113331	46118.202173	3990.088463	24333.670636
14.539500	-0.004275	-0.000567	0.003501	0.002217	6827.300663	45827.055813	3985.707938	24192.083527
15.034500	-0.002100	-0.000722	-0.000273	0.000327	6864.370886	45998.873807	3980.815371	24285.077096
15.534500	0.001404	-0.000007	0.000867	-0.000213	6901.581527	46123.604464	3985.176377	24311.709191
16.034500	0.000700	0.000518	0.001619	0.000382	6889.589651	46116.540516	3985.586598	24282.352034
16.534500	-0.000091	0.000178	-0.002273	0.000663	6879.722190	46054.805331	3974.779225	24268.505077
17.035500	0.000198	-0.000291	0.002216	0.000017	6888.334726	46072.456715	3988.094748	24300.380016
17.535500	0.002998	-0.000283	-0.000452	-0.003545	6947.386028	46428.766019	3990.425664	24476.826752
18.036000	0.000827	-0.000033	-0.000181	-0.000427	6898.228472	46142.236587	3983.009025	24322.269057
18.539500	0.000983	0.000547	-0.003359	0.001684	6880.206887	45990.080251	3969.361794	24218.262396
19.036000	-0.000212	0.000300	0.003849	0.001230	6873.396624	46010.673813	3989.188459	24240.590494
19.537000	0.000823	0.000262	-0.000441	0.001445	6880.935168	45985.545318	3977.487605	24230.014925
20.037000	0.000166	0.000078	-0.000667	0.001280	6876.406933	45983.586863	3977.328550	24238.112151
20.537500	-0.002792	-0.000336	-0.002735	0.000874	6853.036488	45982.946429	3973.044938	24258.124885
21.035000	-0.000000	-0.000043	0.002249	0.001250	6875.158974	45974.610144	3984.965629	24239.604392
21.535500	-0.000559	0.000263	0.002663	0.002089	6862.343508	45921.817858	3983.862226	24198.385268
22.035500	-0.000801	-0.000427	-0.002126	0.001393	6866.505726	45922.428410	3973.276498	24232.594435
22.535500	0.000963	0.000311	0.000447	0.001863	6878.376601	45948.995794	3978.702949	24209.473200
23.039000	-0.001814	-0.000081	0.003416	0.001353	6857.591898	45960.618717	3987.738543	24234.541191
23.536500	-0.001661	0.000004	0.002085	0.001069	6861.591759	45997.224473	3985.011451	24248.509581
24.037000	-0.000499	0.000509	0.002284	0.001668	6866.750347	45987.943596	3983.972601	24219.072016
24.538000	-0.000599	0.000015	0.002771	0.001596	6866.490014	45946.068741	3985.423188	24222.572709
25.037500	-0.000228	-0.000451	0.003019	0.001397	6871.718515	45919.588222	3986.589094	24232.368675
25.534500	-0.001885	-0.000045	-0.001807	0.000925	6860.858192	46006.656340	3975.303505	24255.611044
26.035000	0.000604	-0.000471	0.002704	0.001060	6882.462136	45951.035146	3986.644918	24248.955015
26.535500	0.001767	0.000328	-0.001348	0.001529	6888.856034	45983.768468	3974.929949	24225.900081
27.035500	-0.002646	0.000170	-0.005303	0.001398	6849.580268	45981.100108	3965.115605	24232.343799
27.536000	-0.001941	0.000464	0.005653	0.001369	6856.287268	46013.221323	3993.544489	24233.778077
28.036500	0.003491	0.000308	0.002615	-0.002037	6937.916849	46336.985557	3994.508512	24401.966265
28.536500	-0.001761	0.000032	-0.001259	0.005451	6820.769359	45567.367289	3965.093433	24033.921541
29.045000	-0.000444	0.000029	0.000958	-0.000037	6882.907949	46109.619922	3984.956006	24303.009125
29.537000	0.001358	-0.000033	0.001686	0.000094	6898.327091	46090.482004	3986.512682	24296.585793
30.035000	-0.001342	-0.000412	0.000658	-0.000304	6877.115203	46092.350608	3984.873363	24316.228775
30.535000	-0.001641	-0.000102	0.001724	0.004777	6827.974594	45620.493508	3974.476366	24066.793863
31.035000	0.000625	0.000196	0.001402	0.000364	6889.073283	46086.434776	3985.070512	24283.263265
31.535500	-0.000372	0.000200	0.001424	0.002598	6859.394763	45865.269118	3979.330908	24173.409203
32.035500	-0.002506	-0.000172	0.000792	0.001792	6847.263753	45908.164043	3979.779447	24212.943870
32.596500	0.000896	-0.000127	0.000012	0.002765	6869.474186	45816.289757	3975.249178	24165.185520
33.036500	0.001191	-0.000390	0.000963	-0.000285	6900.280998	46092.597546	3985.614691	24315.246461
33.536500	0.001129	0.000315	0.000178	0.000082	6896.309645	46126.179531	3982.619908	24297.134587
34.036500	-0.000616	0.000371	0.000889	0.000149	6879.621693	46125.231295	3984.294171	24293.869545
34.537000	-0.002218	-0.000122	0.001311	0.005101	6819.810539	45586.710471	3972.579874	24050.999485
35.034500	0.000047	-0.000075	0.003504	0.002181	6867.050998	45879.256627	3985.808914	24193.836684
35.535000	-0.001596	0.000062	-0.003064	0.001930	6854.312412	45917.667212	3969.488762	24206.199643
36.035000	-0.001068	-0.000246	0.001894	0.001734	6860.931069	45906.491729	3982.787226	24215.792745
36.536000	-0.000139	-0.000107	-0.001363	0.003633	6852.062944	45732.656008	3969.481929	24122.695159
37.036000	-0.002128	0.000044	-0.003294	0.001844	6850.232805	45924.351324	3969.116635	24210.404343
37.536000	-0.000248	0.000267	0.001737	0.002360	6862.709279	45895.375774	3980.756776	24185.063130
38.036500	0.000147	-0.000737	0.004264	0.001551	6873.750734	45876.088844	3989.434065	24224.817868
38.537000	0.000335	-0.000083	0.007277	0.002082	6870.595906	45888.240780	3995.932504	24198.712487
39.037500	-0.002786	-0.000041	0.001891	0.002222	6840.793864	45878.501257	3981.513510	24191.828804
39.536500	-0.000264	-0.000659	-0.000381	0.001579	6869.725774	45881.020055	3977.298495	24223.443904
40.034500	0.000448	0.000429	0.002582	0.002629	6866.622972	45884.832980	3982.250415	24171.887482
40.534500	-0.002522	-0.000156	-0.000625	0.002812	6837.823675	45808.916229	3973.488830	24162.910010
41.035500	-0.001760	0.000055	0.000430	0.002296	6849.473348	45880.740616	3977.540125	24188.220268
41.535500	0.001073	0.000394	0.003276	0.002663	6872.043277	45877.915571	3983.962530	24170.194425
42.039000	-0.000978	0.000026	-0.002679	0.002259	6856.948995	45881.528324	3969.629485	24190.008176
42.536000	-0.000541	-0.000525	-0.000590	0.002000	6863.328367	45852.633890	3975.672551	24202.758270
43.036500	-0.001376	-0.000337	-0.000299	0.001770	6857.787407	45893.981746	3977.014503	24214.036219
43.537000	0.000801	-0.000281	-0.002261	0.002104	6874.675759	45866.496868	3971.102468	24197.656745
44.037000	-0.000803	0.000046	0.002957	0.002149	6859.558898	45894.437919	3984.469596	24195.431651
44.537000	-0.000103	0.000355	0.001755	0.003210	6856.266318	45820.112696	3978.604676	24143.420530
45.038000	0.001290	0.000050	0.004398	-0.000310	6901.429151	46138.927884	3994.655105	24316.495618
45.535500	0.000470	-0.000197	0.004653	-0.000170	6892.563052	46100.423823	3994.957361	24309.597530
46.036000	0.000438	0.000269	0.000670	0.000412	6886.904549	46088.884635	3983.041783	24280.893995
46.536000	0.001017	0.000130	0.005957	0.000830	6888.381911	46033.480202	3995.755408	24260.283112
47.036000	-0.000251	-0.000299	0.001696	-0.000246	6886.612693	46097.740430	3987.421327	24313.324580
47.536000	0.003163	0.000571	-0.000230	0.000911	6907.457329	46069.252438	3979.413482	24256.295138
48.065000	0.001481	0.000186	0.000610	0.000376	6896.856103	46084.178552	3982.980175	24282.665231
48.537000	-0.004130	-0.000232	0.002009	0.003959	6812.838759	45688.258545	3977.322835	24106.755283
49.042000	-0.002946	-0.000694	0.004585	0.001674	6844.325580	45868.230358	3989.951804	24218.767870
49.559500	0.001544	0.000187	-0.000930	0.000093	6900.049223	46112.380330	3979.719870	24296.607331
50.037500	0.001591	-0.000213	-0.000487	0.000185	6899.634834	46063.474540	3980.628826	24292.072136
50.535000	-0.004050	-0.000669	-0.001209	0.005498	6799.669332	45493.985653	3965.103056	24031.645702
51.036000	0.002226	0.000425	-0.000519	-0.002235	6927.973793	46368.466648	3986.834631	24411.775467
51.539000	-0.001157	-0.000375	0.000483	0.000545	6871.008960	46011.601670	3982.210960	24274.307868
52.036500	0.009758	-0.001075	0.006956	0.002685	6952.355777	45730.665252	3993.510819	24169.139256
52.536000	-0.024722	-0.015375	-0.004717	0.136196	5647.917504	33376.199942	3670.099719	18532.711260
53.037000	-0.020623	-0.033222	-0.017483	-0.150417	8280.211038	59484.752330	4385.953972	33170.531569
53.537000	-0.034338	-0.185983	-0.013045	-0.347298	11110.227266	65535.000000	5288.555059	50548.203000
54.037500	-0.033696	-0.155750	-0.001928	-0.317065	10568.529303	65535.000000	5183.779009	47342.164452
54.535000	-0.035971	-0.140315	-0.003296	-0.301631	10261.555035	65535.000000	5095.416253	45789.483144
55.035500	-0.030314	-0.107652	-0.000868	-0.268968	9816.881338	65535.000000	4944.772650	42680.128693
55.535000	-0.023337	-0.091197	-0.004116	-0.252510	9667.217554	65534.639664	4852.090753	41199.842497
56.038500	-0.007077	-0.103034	0.001358	-0.264349	10120.467669	65535.000000	4933.294802	42259.010614
56.536000	-0.005649	-0.079805	0.000266	-0.240495	9756.379651	65444.885278	4817.300692	40154.010692
57.036000	0.000957	-0.054158	0.006666	-0.205506	9321.718578	64113.949594	4692.310133	37268.169411
57.536500	0.005184	-0.036052	-0.000549	-0.177654	8980.978179	62755.634428	4549.814669	35131.530866
58.037000	0.007522	-0.014921	0.009185	-0.115814	8200.582252	57400.257485	4358.244330	30850.135913
58.537000	0.009178	-0.009512	0.007442	-0.075559	7748.609593	53198.502831	4219.717517	28373.400862
59.035000	0.012894	-0.006780	0.013628	-0.049689	7506.782395	50589.172452	4159.257869	26898.703525
59.535000	0.021486	0.000325	0.027199	-0.022543	7313.531166	48438.610372	4119.132280	25442.879496
60.035500	0.024448	0.003098	0.031026	0.008894	7032.547473	45530.360585	4041.293868	23866.826811
60.535500	0.028572	0.005620	0.033216	0.031384	6860.843666	43614.958977	3987.136354	22807.296768
61.036000	0.039913	0.011510	0.040568	0.049556	6798.805672	42479.682449	3959.286816	21990.348428
61.536500	0.048733	0.017889	0.055446	0.070192	6693.789341	41201.682533	3944.750011	21103.197075
62.036500	0.054526	0.022228	0.057768	0.088965	6581.663678	39949.725932	3904.255134	20331.929839
62.536500	0.059658	0.027472	0.062627	0.107074	6472.862017	38868.332512	3872.737238	19618.837843
63.037000	0.068505	0.033548	0.071897	0.107686	6541.528649	39323.752209	3893.222364	19595.265369
63.567000	0.072648	0.036966	0.075984	0.109268	6563.150084	39478.002297	3899.226579	19534.464541
64.035000	0.075891	0.040663	0.078936	0.118471	6513.030249	39017.261994	3884.310744	19185.105994
64.535000	0.079149	0.042264	0.082346	0.125284	6483.465911	38586.518189	3876.280865	18931.204076
65.036000	0.085573	0.045198	0.084069	0.126279	6528.710021	38746.110327	3877.991793	18894.428855
65.538000	0.087165	0.047182	0.094230	0.130072	6510.297961	38597.171543	3893.097719	18755.110939
66.036000	0.090285	0.049115	0.098357	0.133573	6507.116946	38468.482100	3894.593906	18627.580448
66.536500	0.094373	0.050232	0.088311	0.136580	6516.143821	38314.037258	3863.823518	18518.872757
67.036500	0.096304	0.052405	0.098136	0.139303	6509.536577	38269.314122	3880.450573	18421.084908
67.537000	0.098051	0.054755	0.098670	0.143202	6491.621863	38143.382761	3872.538970	18282.117430
68.037500	0.101145	0.055559	0.105060	0.146332	6491.325560	37955.142230	3880.203315	18171.454443
68.589500	0.103348	0.056177	0.108074	0.149891	6480.081284	37718.554001	3878.917722	18046.592403
69.035000	0.104701	0.057054	0.113874	0.152336	6471.057522	37593.090093	3886.854354	17961.389898
69.534500	0.107876	0.058555	0.112508	0.156090	6466.278341	37413.606571	3874.764693	17831.519825
70.035500	0.109661	0.061156	0.117265	0.160486	6444.818719	37271.285541	3875.613694	17680.881121
70.535500	0.109346	0.061122	0.105077	0.165117	6404.521037	36904.067193	3836.858286	17523.799273
71.036000	0.110949	0.062413	0.115003	0.165606	6413.557250	36966.954980	3858.420202	17507.327932
71.536500	0.113943	0.063127	0.115976	0.168256	6416.353916	36815.442392	3854.555160	17418.300043
72.037000	0.113201	0.063576	0.119500	0.170146	6395.018062	36703.017665	3858.318623	17355.106451
72.537000	0.112308	0.063047	0.113817	0.173837	6358.177589	36376.232206	3836.904108	17232.550121
73.037000	0.115405	0.063527	0.114933	0.172609	6392.927591	36508.155095	3842.214109	17273.210797
73.534500	0.119379	0.064810	0.121896	0.175930	6398.199720	36350.780564	3850.525192	17163.502055
74.035000	0.117568	0.065709	0.117022	0.177803	6368.530834	36275.921127	3835.184178	17102.004980
74.535500	0.115887	0.065783	0.117823	0.182129	6320.698560	35950.834460	3827.266480	16960.989372
75.038500	0.119723	0.067333	0.120003	0.181957	6352.543543	36082.074654	3832.543189	16966.566348
75.536000	0.120522	0.066902	0.125574	0.182984	6350.724571	35970.850851	3842.819001	16933.256687
76.036500	0.121483	0.066979	0.120685	0.183885	6351.201708	35908.144981	3829.743369	16904.119900
76.536500	0.119526	0.066691	0.124306	0.185759	6320.766695	35744.286839	3833.669951	16843.709034
77.037000	0.122696	0.068070	0.128292	0.185935	6344.531221	35835.394641	3842.292087	16838.048945
77.537500	0.123781	0.067446	0.128328	0.186731	6346.836966	35727.922971	3840.564944	16812.473670
78.034500	0.126659	0.067671	0.126575	0.187774	6361.484842	35666.121208	3834.242240	16779.019773
78.534500	0.121101	0.066916	0.123783	0.188838	6308.892856	35529.210050	3825.589670	16745.003364
79.035000	0.126930	0.067616	0.128860	0.189067	6353.314414	35564.557185	3836.479909	16737.682281
79.536500	0.126295	0.068576	0.121201	0.190256	6338.787835	35547.407367	3816.695556	16699.789475
80.035000	0.126429	0.067624	0.131412	0.190363	6339.000983	35467.867758	3839.323160	16696.370871
80.536000	0.126567	0.067506	0.129295	0.192319	6324.580237	35312.798064	3830.139923	16634.267582
81.036500	0.126200	0.068023	0.131095	0.191485	6328.276434	35413.769297	3836.069241	16660.718290
81.537000	0.126081	0.067704	0.128469	0.192496	6319.328958	35314.346324	3827.890910	16628.649783
82.036500	0.130376	0.068147	0.130190	0.193523	6345.264146	35270.786722	3829.444418	16596.156807
82.537500	0.127291	0.067744	0.128179	0.194907	6309.847328	35137.807104	3821.858740	16552.481573
83.034500	0.127757	0.067693	0.135521	0.193979	6320.858842	35203.046989	3840.440833	16581.753753
83.535000	0.127185	0.067757	0.132509	0.194420	6312.860206	35174.991899	3832.641170	16567.851659
84.035500	0.128414	0.067496	0.132279	0.194896	6318.801375	35120.260402	3831.050463	16552.822564
84.538500	0.127440	0.066392	0.132545	0.195758	6304.323512	34974.781458	3829.714227	16525.718600
85.036000	0.130271	0.066763	0.131071	0.195196	6331.125276	35043.725996	3827.670694	16543.383054
85.536000	0.130723	0.067257	0.135672	0.195965	6328.615870	35023.395137	3836.286754	16519.199011
86.036500	0.131503	0.067372	0.133030	0.196948	6327.009156	34959.280992	3828.135087	16488.360231
86.537000	0.130400	0.065790	0.128781	0.197025	6317.674368	34837.077282	3818.492123	16485.946021
87.037000	0.128930	0.066247	0.141713	0.196568	6309.673608	34904.272693	3848.644932	16500.253032
87.534500	0.129163	0.065958	0.132169	0.196885	6309.012473	34859.706901	3826.346404	16490.316916
88.035000	0.129839	0.066786	0.136730	0.197405	6310.242200	34882.337801	3835.425497	16474.025519
88.535000	0.129872	0.065846	0.131531	0.198183	6304.371537	34756.078422	3822.029587	16449.677328
89.038000	0.129166	0.064469	0.135729	0.197159	6306.872495	34730.240113	3833.721420	16481.724809
89.536000	0.128750	0.064709	0.135392	0.197268	6302.746691	34739.849503	3832.718477	16478.320251
90.036000	0.128798	0.064145	0.134777	0.197293	6302.921696	34696.673106	3831.278407	16477.525822
90.536500	0.129463	0.064231	0.134581	0.198485	6298.776920	34615.813864	3828.164608	16440.229814
91.036500	0.129703	0.064180	0.137620	0.198100	6303.696668	34640.222566	3835.863674	16452.265706
91.536500	0.129439	0.064777	0.132678	0.198622	6297.518882	34645.733019	3823.607074	16435.965105
92.037500	0.130885	0.064066	0.137669	0.198622	6308.896067	34593.737796	3834.796420	16435.955024
92.535000	0.131551	0.062447	0.138216	0.197922	6319.681389	34526.788280	3837.613884	16457.855078
93.035000	0.128797	0.063837	0.139732	0.198969	6289.750588	34551.746284	3838.673030	16425.118782
93.535500	0.130463	0.062706	0.136357	0.198792	6304.232848	34482.319460	3831.461063	16430.648290
94.035500	0.131942	0.062967	0.136687	0.199306	6311.829694	34463.895915	3831.045729	16414.607796
94.536000	0.128750	0.061175	0.133574	0.198820	6290.551302	34369.182979	3825.163371	16429.776225
95.108500	0.130131	0.061765	0.134066	0.198593	6303.186081	34428.462006	3826.770603	16436.883676
95.536500	0.131259	0.061931	0.134884	0.198807	6310.380149	34424.918194	3828.123141	16430.182341
96.037000	0.131888	0.062403	0.137870	0.199917	6306.593930	34378.692465	3832.334851	16395.585289
96.537000	0.131163	0.062181	0.138449	0.200532	6296.054959	34318.070203	3832.253034	16376.443061
97.034000	0.128587	0.061011	0.135178	0.199244	6285.953549	34326.569452	3827.800675	16416.538399
97.535000	0.130091	0.060675	0.142817	0.200032	6291.568325	34245.408323	3843.263409	16392.004400
98.040500	0.130495	0.060717	0.137384	0.200071	6294.425320	34245.562151	3830.895092	16390.775337
98.538000	0.130088	0.060680	0.147304	0.201930	6276.690403	34109.044196	3849.170107	16333.033014
