sample name	sample
index	568
start time	 03-16-2021  02:49:27 PM


Wavelength (nm)	Absorbance
494.344910	-0.089901
494.563924	-0.089901
494.782919	-0.089901
495.001897	-0.085882
495.220856	-0.043208
495.439797	-0.038421
495.658719	-0.034385
495.877624	-0.022280
496.096510	-0.022705
496.315378	-0.028206
496.534227	-0.022794
496.753059	-0.019553
496.971872	-0.024261
497.190667	-0.013904
497.409444	-0.002741
497.628203	-0.003440
497.846943	-0.001140
498.065665	-0.000043
498.284369	0.001057
498.503055	0.001706
498.721723	0.001044
498.940372	0.000018
499.159003	-0.000293
499.377616	-0.000700
499.596210	0.001067
499.814787	0.002197
500.033345	0.003328
500.251885	0.003465
500.470406	0.001968
500.688910	0.002106
500.907395	0.003335
501.125862	0.003035
501.344311	0.003714
501.562742	0.003880
501.781154	0.002618
501.999548	0.002883
502.217924	0.002819
502.436282	0.004290
502.654621	0.004260
502.872942	0.003523
503.091245	0.003277
503.309530	0.001176
503.527797	-0.000182
503.746045	0.000199
503.964275	-0.000703
504.182487	-0.000826
504.400681	-0.000753
504.618856	-0.000596
504.837013	-0.000330
505.055152	0.000200
505.273273	0.000677
505.491376	0.001534
505.709460	0.001304
505.927526	0.000568
506.145574	0.000318
506.363604	-0.000745
506.581615	-0.001294
506.799608	-0.001751
507.017583	-0.000925
507.235540	-0.000289
507.453478	-0.001507
507.671399	-0.001585
507.889301	-0.001479
508.107185	-0.001451
508.325050	-0.000514
508.542898	0.000370
508.760727	0.000798
508.978538	0.000440
509.196330	0.000052
509.414105	0.000431
509.631861	0.000315
509.849599	0.000548
510.067319	0.000539
510.285021	0.000237
510.502704	0.000156
510.720369	0.000670
510.938016	-0.000052
511.155645	0.000871
511.373255	0.001060
511.590848	0.000906
511.808422	0.000690
512.025977	0.001527
512.243515	0.000680
512.461034	0.000677
512.678536	-0.000297
512.896018	0.000747
513.113483	0.000438
513.330930	0.000670
513.548358	0.000564
513.765768	0.000914
513.983160	0.000498
514.200533	0.001643
514.417889	0.001265
514.635226	0.001325
514.852545	0.000824
515.069845	0.000697
515.287128	0.000777
515.504392	0.000487
515.721638	-0.000108
515.938866	-0.000197
516.156075	-0.000375
516.373267	-0.000262
516.590440	-0.000445
516.807594	-0.000936
517.024731	-0.000515
517.241850	-0.001228
517.458950	-0.001883
517.676032	-0.001268
517.893095	-0.001655
518.110141	-0.001869
518.327168	-0.001815
518.544177	-0.000981
518.761168	-0.000565
518.978141	-0.001166
519.195095	-0.000040
519.412031	0.000793
519.628949	0.001598
519.845849	0.002018
520.062731	0.002438
520.279594	0.001839
520.496439	0.001305
520.713266	0.001094
520.930074	0.000920
521.146865	0.000520
521.363637	0.000973
521.580391	0.000176
521.797127	-0.000541
522.013844	-0.000417
522.230543	-0.000322
522.447224	-0.001054
522.663887	-0.000635
522.880532	-0.000889
523.097158	-0.000602
523.313766	-0.000628
523.530356	-0.000100
523.746928	0.000688
523.963481	-0.000295
524.180017	-0.000544
524.396534	0.000515
524.613032	0.000159
524.829513	0.000296
525.045975	-0.000323
525.262420	-0.000230
525.478845	-0.000576
525.695253	-0.000289
525.911643	-0.000037
526.128014	0.001375
526.344367	0.001035
526.560702	0.001681
526.777018	0.001983
526.993316	0.001777
527.209597	0.001712
527.425858	0.000774
527.642102	-0.000100
527.858328	-0.000261
528.074535	-0.001043
528.290724	-0.001170
528.506894	-0.001321
528.723047	-0.001470
528.939181	-0.001317
529.155297	-0.001378
529.371395	-0.000949
529.587475	-0.000932
529.803536	-0.001004
530.019579	-0.000843
530.235604	-0.000140
530.451611	-0.000490
530.667600	-0.000263
530.883570	-0.000175
531.099522	-0.000875
531.315456	-0.001100
531.531372	-0.000894
531.747269	-0.000967
531.963148	-0.001061
532.179009	-0.001756
532.394852	-0.002094
532.610676	-0.002132
532.826482	-0.002015
533.042271	-0.001818
533.258040	-0.001643
533.473792	-0.001745
533.689525	-0.001463
533.905240	-0.001584
534.120937	-0.001712
534.336616	-0.001436
534.552277	-0.002012
534.767919	-0.002003
534.983543	-0.001208
535.199149	-0.000947
535.414736	-0.000891
535.630306	-0.000736
535.845857	-0.000613
536.061390	-0.000248
536.276904	-0.000544
536.492401	-0.000217
536.707879	-0.000417
536.923339	-0.001066
537.138781	-0.001259
537.354204	-0.001227
537.569610	-0.001441
537.784997	-0.001598
538.000366	-0.001581
538.215716	-0.001207
538.431049	-0.001276
538.646363	-0.000731
538.861659	-0.000782
539.076937	-0.000956
539.292196	-0.000599
539.507438	-0.000532
539.722661	-0.000547
539.937866	-0.000447
540.153052	-0.000587
540.368221	0.000034
540.583371	-0.000605
540.798503	-0.000786
541.013617	-0.000315
541.228712	-0.000654
541.443789	-0.000738
541.658848	-0.001194
541.873889	-0.001538
542.088912	-0.001685
542.303916	-0.002228
542.518902	-0.002134
542.733870	-0.002063
542.948820	-0.002335
543.163752	-0.002232
543.378665	-0.002110
543.593560	-0.001569
543.808437	-0.001531
544.023295	-0.001428
544.238136	-0.001723
544.452958	-0.001353
544.667762	-0.001692
544.882548	-0.001748
545.097315	-0.001603
545.312064	-0.001850
545.526795	-0.001589
545.741508	-0.001521
545.956203	-0.001598
546.170879	-0.000807
546.385537	-0.001291
546.600177	-0.000946
546.814799	-0.000982
547.029402	-0.001232
547.243988	-0.001226
547.458555	-0.001908
547.673103	-0.001857
547.887634	-0.001726
548.102146	-0.001754
548.316640	-0.001651
548.531116	-0.001381
548.745574	-0.001314
548.960013	-0.001267
549.174435	-0.001433
549.388838	-0.001096
549.603222	-0.001572
549.817589	-0.001641
550.031937	-0.001988
550.246267	-0.002339
550.460579	-0.002559
550.674873	-0.002762
550.889148	-0.002953
551.103405	-0.002722
551.317644	-0.002788
551.531865	-0.002319
551.746068	-0.002233
551.960252	-0.002357
552.174418	-0.002160
552.388566	-0.002421
552.602696	-0.002265
552.816807	-0.002054
553.030900	-0.002318
553.244975	-0.002156
553.459032	-0.002428
553.673070	-0.002707
553.887091	-0.003003
554.101093	-0.002671
554.315077	-0.002379
554.529042	-0.002578
554.742990	-0.002407
554.956919	-0.002185
555.170830	-0.002244
555.384722	-0.002128
555.598597	-0.001918
555.812453	-0.001597
556.026291	-0.001982
556.240111	-0.001771
556.453913	-0.001633
556.667696	-0.001792
556.881461	-0.001928
557.095208	-0.002211
557.308937	-0.002392
557.522647	-0.002606
557.736339	-0.002676
557.950013	-0.002503
558.163669	-0.002450
558.377307	-0.002496
558.590926	-0.002855
558.804527	-0.002824
559.018110	-0.002843
559.231675	-0.002499
559.445221	-0.002445
559.658749	-0.002579
559.872259	-0.002608
560.085751	-0.002889
560.299225	-0.002812
560.512680	-0.002928
560.726117	-0.002886
560.939536	-0.002720
561.152937	-0.002967
561.366319	-0.002837
561.579683	-0.002728
561.793029	-0.002665
562.006357	-0.002419
562.219667	-0.002622
562.432958	-0.002706
562.646231	-0.002737
562.859486	-0.003108
563.072723	-0.003124
563.285941	-0.003230
563.499141	-0.003438
563.712323	-0.003631
563.925487	-0.004118
564.138632	-0.004167
564.351760	-0.003978
564.564869	-0.003849
564.777960	-0.003611
564.991032	-0.003639
565.204087	-0.003740
565.417123	-0.003583
565.630141	-0.003633
565.843140	-0.003803
566.056122	-0.003774
566.269085	-0.003648
566.482030	-0.003931
566.694957	-0.003799
566.907866	-0.003864
567.120756	-0.004034
567.333628	-0.004013
567.546482	-0.003663
567.759318	-0.003771
567.972135	-0.003442
568.184935	-0.003488
568.397716	-0.003198
568.610478	-0.003283
568.823223	-0.002979
569.035949	-0.002770
569.248657	-0.002779
569.461347	-0.003490
569.674019	-0.003171
569.886672	-0.003268
570.099308	-0.002904
570.311925	-0.002632
570.524523	-0.002681
570.737104	-0.002997
570.949666	-0.003227
571.162210	-0.003307
571.374736	-0.002606
571.587244	-0.002595
571.799733	-0.002713
572.012205	-0.003046
572.224658	-0.003491
572.437092	-0.003624
572.649509	-0.003455
572.861907	-0.003327
573.074287	-0.003005
573.286649	-0.003125
573.498993	-0.002590
573.711318	-0.002313
573.923625	-0.002635
574.135914	-0.002451
574.348185	-0.002299
574.560438	-0.002320
574.772672	-0.001870
574.984888	-0.001854
575.197086	-0.001813
575.409266	-0.002459
575.621427	-0.002609
575.833570	-0.002464
576.045695	-0.002675
576.257802	-0.002254
576.469890	-0.002617
576.681961	-0.003034
576.894013	-0.003369
577.106046	-0.003450
577.318062	-0.003427
577.530059	-0.003473
577.742039	-0.002901
577.954000	-0.002826
578.165942	-0.003250
578.377867	-0.002818
578.589773	-0.002584
578.801661	-0.002466
579.013531	-0.002457
579.225382	-0.002190
579.437216	-0.002305
579.649031	-0.002478
579.860828	-0.002099
580.072606	-0.002050
580.284367	-0.001988
580.496109	-0.001939
580.707833	-0.001832
580.919539	-0.001796
581.131227	-0.002050
581.342896	-0.002099
581.554547	-0.002483
581.766180	-0.002884
581.977795	-0.003063
582.189391	-0.003200
582.400969	-0.003414
582.612529	-0.003374
582.824071	-0.003477
583.035595	-0.003130
583.247100	-0.002905
583.458587	-0.002668
583.670056	-0.002553
583.881506	-0.002227
584.092939	-0.002651
584.304353	-0.002534
584.515749	-0.002746
584.727127	-0.002612
584.938486	-0.002815
585.149828	-0.002734
585.361151	-0.002835
585.572456	-0.002760
585.783742	-0.003092
585.995011	-0.002467
586.206261	-0.002445
586.417493	-0.002389
586.628706	-0.002186
586.839902	-0.002261
587.051079	-0.002720
587.262238	-0.002539
587.473379	-0.002720
587.684502	-0.002860
587.895606	-0.003057
588.106692	-0.003305
588.317760	-0.003464
588.528810	-0.003947
588.739841	-0.003823
588.950855	-0.003920
589.161850	-0.004334
589.372827	-0.004234
589.583785	-0.004323
589.794726	-0.004351
590.005648	-0.004439
590.216552	-0.004459
590.427437	-0.004265
590.638305	-0.004269
590.849154	-0.004045
591.059985	-0.003978
591.270798	-0.003925
591.481592	-0.003608
591.692369	-0.003589
591.903127	-0.003542
592.113867	-0.003510
592.324588	-0.003804
592.535292	-0.003559
592.745977	-0.003284
592.956644	-0.003302
593.167293	-0.003654
593.377923	-0.003838
593.588536	-0.004199
593.799130	-0.003949
594.009706	-0.004152
594.220263	-0.004344
594.430803	-0.004603
594.641324	-0.004799
594.851827	-0.004612
595.062312	-0.004280
595.272778	-0.003849
595.483227	-0.003462
595.693657	-0.003368
595.904069	-0.002982
596.114462	-0.002491
596.324838	-0.002695
596.535195	-0.002752
596.745534	-0.002792
596.955855	-0.003265
597.166157	-0.003394
597.376441	-0.003255
597.586707	-0.003281
597.796955	-0.003309
598.007185	-0.003322
598.217396	-0.003321
598.427589	-0.003268
598.637764	-0.003407
598.847921	-0.003158
599.058060	-0.003240
599.268180	-0.003502
599.478282	-0.003690
599.688366	-0.003997
599.898431	-0.004585
600.108479	-0.004540
600.318508	-0.004451
600.528519	-0.004598
600.738511	-0.004567
600.948486	-0.004609
601.158442	-0.004530
601.368380	-0.004664
601.578300	-0.004521
601.788202	-0.004010
601.998085	-0.003881
602.207950	-0.003906
602.417797	-0.003562
602.627626	-0.003472
602.837436	-0.003488
603.047228	-0.003384
603.257002	-0.003449
603.466758	-0.003249
603.676496	-0.003547
603.886215	-0.003706
604.095916	-0.004161
604.305599	-0.004206
604.515264	-0.004370
604.724910	-0.004572
604.934538	-0.004769
605.144148	-0.004694
605.353740	-0.004812
605.563314	-0.004684
605.772869	-0.004618
605.982406	-0.004224
606.191925	-0.004424
606.401425	-0.004062
606.610908	-0.003917
606.820372	-0.003777
607.029818	-0.003784
607.239246	-0.003764
607.448655	-0.003822
607.658047	-0.003675
607.867420	-0.003624
608.076775	-0.003394
608.286111	-0.003705
608.495430	-0.003577
608.704730	-0.003752
608.914012	-0.003520
609.123275	-0.003511
609.332521	-0.003335
609.541748	-0.003570
609.750957	-0.003720
609.960148	-0.003916
610.169321	-0.003988
610.378475	-0.003948
610.587611	-0.003888
610.796729	-0.003838
611.005829	-0.003660
611.214910	-0.003700
611.423974	-0.003543
611.633019	-0.003569
611.842045	-0.003457
612.051054	-0.003346
612.260044	-0.003462
612.469017	-0.003518
612.677970	-0.003920
612.886906	-0.004138
613.095824	-0.004224
613.304723	-0.004194
613.513604	-0.004051
613.722467	-0.004171
613.931311	-0.004183
614.140138	-0.004056
614.348946	-0.003989
614.557736	-0.003583
614.766507	-0.003485
614.975261	-0.003207
615.183996	-0.003309
615.392713	-0.003170
615.601412	-0.003185
615.810092	-0.003178
616.018754	-0.003335
616.227399	-0.003360
616.436024	-0.003494
616.644632	-0.003431
616.853222	-0.003756
617.061793	-0.003562
617.270346	-0.003592
617.478880	-0.003534
617.687397	-0.003643
617.895895	-0.003559
618.104375	-0.003441
618.312837	-0.003192
618.521281	-0.003430
618.729706	-0.003340
618.938113	-0.003414
619.146502	-0.003390
619.354873	-0.003535
619.563226	-0.003268
619.771560	-0.003429
619.979876	-0.003559
620.188174	-0.003602
620.396453	-0.003456
620.604715	-0.003189
620.812958	-0.003285
621.021183	-0.003492
621.229390	-0.003125
621.437578	-0.003007
621.645748	-0.002832
621.853900	-0.002813
622.062034	-0.002936
622.270150	-0.002945
622.478247	-0.002913
622.686326	-0.002609
622.894387	-0.002486
623.102430	-0.002727
623.310454	-0.002860
623.518461	-0.002844
623.726449	-0.002782
623.934418	-0.002962
624.142370	-0.002907
624.350303	-0.003217
624.558218	-0.003575
624.766115	-0.003647
624.973994	-0.003422
625.181855	-0.003477
625.389697	-0.003796
625.597521	-0.003688
625.805327	-0.003635
626.013114	-0.003665
626.220883	-0.003772
626.428634	-0.003605
626.636367	-0.003645
626.844082	-0.003697
627.051778	-0.003745
627.259457	-0.003801
627.467117	-0.004058
627.674758	-0.004412
627.882382	-0.004438
628.089987	-0.004257
628.297574	-0.004379
628.505143	-0.004390
628.712694	-0.004493
628.920226	-0.004663
629.127740	-0.004341
629.335236	-0.004160
629.542714	-0.003835
629.750174	-0.003853
629.957615	-0.003881
630.165038	-0.003776
630.372443	-0.003960
630.579829	-0.003744
630.787198	-0.003725
630.994548	-0.003543
631.201880	-0.003367
631.409194	-0.003172
631.616489	-0.003168
631.823766	-0.003132
632.031025	-0.003018
632.238266	-0.002791
632.445489	-0.003085
632.652693	-0.002919
632.859879	-0.003163
633.067047	-0.003372
633.274197	-0.003507
633.481329	-0.003482
633.688442	-0.003484
633.895537	-0.003706
634.102614	-0.003905
634.309672	-0.003981
634.516713	-0.004156
634.723735	-0.003950
634.930739	-0.003854
635.137724	-0.004069
635.344692	-0.004294
635.551641	-0.004485
635.758572	-0.004503
635.965485	-0.004439
636.172379	-0.004449
636.379256	-0.004306
636.586114	-0.004458
636.792954	-0.004605
636.999775	-0.004581
637.206579	-0.004223
637.413364	-0.004195
637.620131	-0.004211
637.826880	-0.004066
638.033610	-0.003952
638.240323	-0.003820
638.447017	-0.003673
638.653692	-0.003548
638.860350	-0.003553
639.066990	-0.003828
639.273611	-0.003585
639.480214	-0.003501
639.686798	-0.003453
639.893365	-0.003395
640.099913	-0.003476
640.306443	-0.003541
640.512955	-0.003481
640.719449	-0.003285
640.925924	-0.003129
641.132381	-0.003335
641.338820	-0.003411
641.545241	-0.003524
641.751644	-0.003649
641.958028	-0.003615
642.164394	-0.003738
642.370742	-0.003758
642.577071	-0.003656
642.783383	-0.003698
642.989676	-0.003857
643.195951	-0.003789
643.402207	-0.003830
643.608446	-0.003857
643.814666	-0.003971
644.020868	-0.003936
644.227052	-0.003944
644.433218	-0.004075
644.639365	-0.004163
644.845494	-0.004008
645.051605	-0.004199
645.257698	-0.004229
645.463772	-0.004164
645.669828	-0.004150
645.875866	-0.004116
646.081886	-0.004197
646.287888	-0.004232
646.493871	-0.004145
646.699836	-0.004117
646.905783	-0.004150
647.111712	-0.004209
647.317622	-0.004137
647.523514	-0.004083
647.729388	-0.003955
647.935244	-0.003812
648.141082	-0.003821
648.346901	-0.003852
648.552702	-0.003674
648.758485	-0.003540
648.964250	-0.003497
649.169996	-0.003459
649.375724	-0.003294
649.581434	-0.003442
649.787126	-0.003509
649.992800	-0.003509
650.198455	-0.003496
650.404092	-0.003699
650.609711	-0.003633
650.815311	-0.003646
651.020894	-0.003639
651.226458	-0.003774
651.432004	-0.003645
651.637532	-0.003524
651.843041	-0.003651
652.048532	-0.003692
652.254006	-0.003624
652.459460	-0.003499
652.664897	-0.003505
652.870315	-0.003518
653.075716	-0.003684
653.281097	-0.003717
653.486461	-0.003838
653.691807	-0.003712
653.897134	-0.003771
654.102443	-0.003784
654.307734	-0.003896
654.513006	-0.003830
654.718261	-0.003777
654.923497	-0.003611
655.128715	-0.003725
655.333915	-0.003754
655.539096	-0.003965
655.744259	-0.003892
655.949404	-0.003817
656.154531	-0.003693
656.359640	-0.003569
656.564730	-0.003749
656.769802	-0.003756
656.974856	-0.003755
657.179892	-0.003797
657.384909	-0.003574
657.589908	-0.003643
657.794889	-0.003616
657.999852	-0.003807
658.204797	-0.003835
658.409723	-0.003710
658.614631	-0.003886
658.819521	-0.003850
659.024393	-0.003840
659.229246	-0.003957
659.434081	-0.003673
659.638898	-0.003825
659.843697	-0.003681
660.048478	-0.003616
660.253240	-0.003668
660.457984	-0.003658
660.662710	-0.003545
660.867417	-0.003628
661.072107	-0.003395
661.276778	-0.003476
661.481431	-0.003324
661.686066	-0.003585
661.890682	-0.003822
662.095281	-0.003732
662.299861	-0.003597
662.504422	-0.003748
662.708966	-0.003869
662.913491	-0.003973
663.117999	-0.004135
663.322488	-0.004406
663.526958	-0.004275
663.731411	-0.004084
663.935845	-0.003917
664.140261	-0.004155
664.344659	-0.004105
664.549038	-0.003793
664.753400	-0.003862
664.957743	-0.003933
665.162068	-0.003748
665.366375	-0.003766
665.570663	-0.003913
665.774933	-0.004115
665.979185	-0.003950
666.183419	-0.004183
666.387635	-0.004149
666.591832	-0.003996
666.796011	-0.003984
667.000172	-0.004003
667.204315	-0.003907
667.408439	-0.003741
667.612545	-0.003821
667.816634	-0.003955
668.020703	-0.003867
668.224755	-0.004017
668.428788	-0.004088
668.632803	-0.004161
668.836800	-0.004055
669.040779	-0.004038
669.244739	-0.004226
669.448681	-0.004013
669.652605	-0.003824
669.856511	-0.003769
670.060399	-0.004051
670.264268	-0.003752
670.468119	-0.003561
670.671952	-0.003507
670.875767	-0.003489
671.079563	-0.003351
671.283341	-0.003335
671.487101	-0.003435
671.690843	-0.003415
671.894567	-0.003273
672.098272	-0.003467
672.301959	-0.003646
672.505628	-0.003803
672.709278	-0.003840
672.912911	-0.003979
673.116525	-0.004028
673.320121	-0.004105
673.523699	-0.004106
673.727258	-0.004132
673.930799	-0.004303
674.134322	-0.004215
674.337827	-0.004196
674.541314	-0.004144
674.744782	-0.003980
674.948232	-0.004129
675.151664	-0.003894
675.355078	-0.003921
675.558474	-0.003797
675.761851	-0.003600
675.965210	-0.003522
676.168551	-0.003482
676.371873	-0.003588
676.575178	-0.003672
676.778464	-0.003748
676.981732	-0.003641
677.184981	-0.003414
677.388213	-0.003426
677.591426	-0.003468
677.794621	-0.003358
677.997798	-0.003298
678.200956	-0.003186
678.404097	-0.003213
678.607219	-0.002848
678.810323	-0.002980
679.013408	-0.002960
679.216476	-0.003013
679.419525	-0.003031
679.622556	-0.003205
679.825569	-0.003201
680.028563	-0.003365
680.231540	-0.003368
680.434498	-0.003846
680.637438	-0.004007
680.840359	-0.004235
681.043263	-0.004216
681.246148	-0.004273
681.449015	-0.004177
681.651864	-0.004206
681.854694	-0.004216
682.057506	-0.004079
682.260301	-0.003844
682.463076	-0.003869
682.665834	-0.003889
682.868573	-0.003815
683.071295	-0.003852
683.273998	-0.004145
683.476682	-0.004230
683.679349	-0.004340
683.881997	-0.004327
684.084627	-0.004268
684.287239	-0.004093
684.489833	-0.003942
684.692408	-0.004010
684.894965	-0.003955
685.097504	-0.003791
685.300025	-0.003787
685.502527	-0.003608
685.705012	-0.003632
685.907478	-0.003719
686.109925	-0.003892
686.312355	-0.004016
686.514766	-0.003921
686.717159	-0.003915
686.919534	-0.003896
687.121891	-0.003799
687.324230	-0.003704
687.526550	-0.003727
687.728852	-0.003684
687.931136	-0.003576
688.133401	-0.003631
688.335649	-0.003648
688.537878	-0.003634
688.740089	-0.003609
688.942281	-0.003652
689.144456	-0.003564
689.346612	-0.003602
689.548750	-0.003597
689.750870	-0.003444
689.952971	-0.003409
690.155055	-0.003380
690.357120	-0.003274
690.559167	-0.003061
690.761195	-0.003191
690.963206	-0.003454
691.165198	-0.003565
691.367172	-0.003591
691.569128	-0.003817
691.771065	-0.003794
691.972984	-0.003844
692.174885	-0.003903
692.376768	-0.004049
692.578633	-0.003783
692.780479	-0.003649
692.982308	-0.003491
693.184118	-0.003536
693.385909	-0.003565
693.587683	-0.003490
693.789438	-0.003485
693.991175	-0.003658
694.192894	-0.003657
694.394595	-0.003727
694.596277	-0.003774
694.797941	-0.003692
694.999587	-0.003706
695.201215	-0.003603
695.402824	-0.003529
695.604416	-0.003489
695.805989	-0.003528
696.007543	-0.003603
696.209080	-0.003595
696.410598	-0.003611
696.612099	-0.003744
696.813580	-0.003474
697.015044	-0.003296
697.216490	-0.003372
697.417917	-0.003485
697.619326	-0.003300
697.820717	-0.003305
698.022089	-0.003233
698.223444	-0.003167
698.424780	-0.003169
698.626098	-0.003240
698.827397	-0.003258
699.028679	-0.003326
699.229942	-0.003145
699.431187	-0.003175
699.632414	-0.003037
699.833622	-0.003371
700.034813	-0.003487
700.235985	-0.003689
700.437139	-0.004076
700.638274	-0.004365
700.839392	-0.004424
701.040491	-0.004675
701.241572	-0.004878
701.442635	-0.004971
701.643679	-0.004919
701.844706	-0.004705
702.045714	-0.004380
702.246704	-0.004258
702.447675	-0.004163
702.648629	-0.004068
702.849564	-0.003917
703.050481	-0.003866
703.251380	-0.004053
703.452260	-0.004030
703.653122	-0.004301
703.853966	-0.004516
704.054792	-0.004491
704.255600	-0.004623
704.456389	-0.004779
704.657160	-0.004878
704.857913	-0.004752
705.058648	-0.004818
705.259365	-0.004848
705.460063	-0.004684
705.660743	-0.004683
705.861405	-0.004602
706.062048	-0.004413
706.262674	-0.004257
706.463281	-0.004189
706.663870	-0.004082
706.864441	-0.003737
707.064993	-0.003391
707.265527	-0.003574
707.466043	-0.003558
707.666541	-0.003608
707.867021	-0.003617
708.067482	-0.003622
708.267925	-0.003605
708.468350	-0.003772
708.668757	-0.003811
708.869145	-0.004102
709.069516	-0.003905
709.269868	-0.003651
709.470201	-0.003505
709.670517	-0.003586
709.870814	-0.003651
710.071093	-0.003671
710.271354	-0.003658
710.471597	-0.003668
710.671821	-0.003499
710.872028	-0.003556
711.072216	-0.003696
711.272385	-0.004051
711.472537	-0.004053
711.672670	-0.004055
711.872785	-0.004137
712.072882	-0.004139
712.272961	-0.004183
712.473021	-0.004243
712.673063	-0.004328
712.873087	-0.004365
713.073093	-0.004015
713.273081	-0.004100
713.473050	-0.004064
713.673001	-0.004067
713.872934	-0.003996
714.072849	-0.004206
714.272745	-0.004323
714.472623	-0.004496
714.672483	-0.004486
714.872325	-0.004618
715.072148	-0.004646
715.271954	-0.004841
715.471741	-0.004858
715.671509	-0.005250
715.871260	-0.005145
716.070992	-0.005202
716.270707	-0.004818
716.470403	-0.004781
716.670080	-0.004810
716.869740	-0.004587
717.069381	-0.004503
717.269004	-0.004557
717.468609	-0.004349
717.668195	-0.004283
717.867764	-0.004452
718.067314	-0.004547
718.266846	-0.004810
718.466360	-0.004826
718.665855	-0.004985
718.865332	-0.005291
719.064791	-0.005132
719.264232	-0.005129
719.463655	-0.005203
719.663059	-0.005033
719.862445	-0.005076
720.061813	-0.005049
720.261163	-0.005191
720.460494	-0.005134
720.659807	-0.004925
720.859102	-0.005180
721.058379	-0.005118
721.257638	-0.004996
721.456878	-0.004826
721.656100	-0.004855
721.855304	-0.004674
722.054490	-0.004579
722.253657	-0.004519
722.452806	-0.004398
722.651937	-0.004444
722.851050	-0.004397
723.050145	-0.004689
723.249221	-0.004897
723.448279	-0.005066
723.647319	-0.005186
723.846340	-0.005081
724.045344	-0.005055
724.244329	-0.005204
724.443296	-0.005138
724.642245	-0.005378
724.841175	-0.005208
725.040088	-0.005120
725.238982	-0.005122
725.437857	-0.005192
725.636715	-0.005414
725.835554	-0.005803
726.034376	-0.005717
726.233179	-0.005515
726.431963	-0.005484
726.630730	-0.005423
726.829478	-0.005506
727.028208	-0.005433
727.226920	-0.005424
727.425614	-0.005396
727.624289	-0.005226
727.822946	-0.005206
728.021585	-0.005540
728.220206	-0.005567
728.418808	-0.005630
728.617392	-0.005660
728.815958	-0.005843
729.014506	-0.005787
729.213036	-0.005710
729.411547	-0.005908
729.610040	-0.005930
729.808515	-0.005782
730.006972	-0.005705
730.205410	-0.005887
730.403831	-0.005940
730.602233	-0.005896
730.800616	-0.005885
730.998982	-0.005863
731.197329	-0.005630
731.395658	-0.005909
731.593969	-0.006103
731.792262	-0.006102
731.990536	-0.006074
732.188793	-0.006159
732.387031	-0.006197
732.585250	-0.006308
732.783452	-0.006416
732.981635	-0.006451
733.179800	-0.006168
733.377947	-0.005988
733.576076	-0.006085
733.774186	-0.006123
733.972278	-0.005839
734.170352	-0.005913
734.368408	-0.005847
734.566446	-0.005964
734.764465	-0.005850
734.962466	-0.006025
735.160449	-0.006066
735.358413	-0.006199
735.556360	-0.006351
735.754288	-0.006768
735.952198	-0.006733
736.150090	-0.006850
736.347963	-0.006869
736.545818	-0.007077
736.743655	-0.006897
736.941474	-0.006973
737.139275	-0.006776
737.337057	-0.006540
737.534821	-0.006444
737.732567	-0.006524
737.930295	-0.006630
738.128005	-0.006756
738.325696	-0.006735
738.523369	-0.006960
738.721024	-0.006799
738.918660	-0.006798
739.116279	-0.007198
739.313879	-0.006968
739.511461	-0.006857
739.709024	-0.006568
739.906570	-0.006506
740.104097	-0.006557
740.301606	-0.006444
740.499097	-0.006591
740.696569	-0.006868
740.894024	-0.006806
741.091460	-0.006978
741.288878	-0.007029
741.486277	-0.007103
741.683659	-0.006962
741.881022	-0.007068
742.078367	-0.007319
742.275694	-0.007420
742.473002	-0.007171
742.670293	-0.006936
742.867565	-0.007047
743.064819	-0.007006
743.262054	-0.007168
743.459272	-0.007150
743.656471	-0.007041
743.853652	-0.006760
744.050815	-0.006610
744.247959	-0.006805
744.445085	-0.006839
744.642194	-0.006734
744.839283	-0.006663
745.036355	-0.006518
745.233408	-0.006500
745.430444	-0.006503
745.627461	-0.006757
745.824459	-0.006824
746.021440	-0.006767
746.218402	-0.006899
746.415346	-0.006733
746.612272	-0.006811
746.809180	-0.007085
747.006069	-0.007145
747.202940	-0.007174
747.399793	-0.007181
747.596628	-0.007164
747.793444	-0.007065
747.990243	-0.006916
748.187023	-0.007190
748.383784	-0.006997
748.580528	-0.006770
748.777253	-0.006592
748.973960	-0.006597
749.170649	-0.006353
749.367320	-0.006587
749.563973	-0.006494
749.760607	-0.006296
749.957223	-0.006046
750.153821	-0.006110
750.350400	-0.006039
750.546962	-0.006185
750.743505	-0.006050
750.940030	-0.006062
751.136536	-0.005707
751.333025	-0.005768
751.529495	-0.005764
751.725947	-0.005768
751.922381	-0.005851
752.118796	-0.006051
752.315194	-0.005891
752.511573	-0.005943
752.707934	-0.005808
752.904276	-0.005878
753.100601	-0.005737
753.296907	-0.005714
753.493195	-0.005723
753.689465	-0.005595
753.885716	-0.005648
754.081949	-0.005719
754.278164	-0.005877
754.474361	-0.006050
754.670540	-0.006015
754.866700	-0.005951
755.062843	-0.006133
755.258967	-0.006197
755.455072	-0.006156
755.651160	-0.005881
755.847229	-0.006016
756.043280	-0.005791
756.239313	-0.005555
756.435328	-0.005611
756.631324	-0.005779
756.827302	-0.005691
757.023262	-0.005603
757.219204	-0.005699
757.415127	-0.005616
757.611033	-0.005506
757.806920	-0.005325
758.002788	-0.005421
758.198639	-0.005230
758.394471	-0.005238
758.590286	-0.005163
758.786081	-0.005158
758.981859	-0.004978
759.177619	-0.004853
759.373360	-0.004926
759.569083	-0.005004
759.764788	-0.004820
759.960474	-0.004711
760.156143	-0.004725
760.351793	-0.004657
760.547425	-0.004599
760.743038	-0.004624
760.938634	-0.004936
761.134211	-0.004778
761.329770	-0.004860
761.525311	-0.005023
761.720833	-0.005276
761.916338	-0.005104
762.111824	-0.005050
762.307292	-0.005293
762.502741	-0.005328
762.698173	-0.005299
762.893586	-0.005328
763.088981	-0.005299
763.284358	-0.005151
763.479716	-0.004983
763.675057	-0.005015
763.870379	-0.005089
764.065683	-0.004838
764.260968	-0.005091
764.456236	-0.004995
764.651485	-0.004944
764.846716	-0.004735
765.041929	-0.004811
765.237123	-0.004833
765.432299	-0.004860
765.627457	-0.004752
765.822597	-0.004816
766.017719	-0.004481
766.212822	-0.004521
766.407907	-0.004430
766.602974	-0.004395
766.798023	-0.004334
766.993054	-0.004438
767.188066	-0.004312
767.383060	-0.004540
767.578036	-0.004456
767.772993	-0.004436
767.967933	-0.004202
768.162854	-0.004359
768.357757	-0.004474
768.552642	-0.004597
768.747508	-0.004538
768.942356	-0.004481
769.137186	-0.004476
769.331998	-0.004575
769.526792	-0.004655
769.721567	-0.004740
769.916324	-0.004624
770.111063	-0.004423
770.305784	-0.004283
770.500486	-0.004161
770.695171	-0.004233
770.889837	-0.003939
771.084484	-0.003942
771.279114	-0.004048
771.473725	-0.004191
771.668318	-0.004176
771.862893	-0.004507
772.057450	-0.004617
772.251988	-0.004618
772.446509	-0.004473
772.641011	-0.004419
772.835494	-0.004289
773.029960	-0.004137
773.224407	-0.003974
773.418836	-0.003960
773.613247	-0.003782
773.807640	-0.003773
774.002014	-0.003836
774.196370	-0.004023
774.390708	-0.004224
774.585028	-0.004154
774.779330	-0.004088
774.973613	-0.004024
775.167878	-0.003892
775.362125	-0.003946
775.556354	-0.003784
775.750564	-0.003694
775.944756	-0.003646
776.138930	-0.003596
776.333086	-0.003663
776.527223	-0.003613
776.721343	-0.003679
776.915444	-0.003660
777.109526	-0.003524
777.303591	-0.003545
777.497637	-0.003774
777.691666	-0.003944
777.885676	-0.004193
778.079667	-0.004224
778.273641	-0.004257
778.467596	-0.004192
778.661533	-0.004212
778.855452	-0.004342
779.049352	-0.004430
779.243235	-0.004171
779.437099	-0.003848
779.630945	-0.003338
779.824773	-0.003175
780.018582	-0.003273
780.212373	-0.003219
780.406146	-0.003025
780.599901	-0.002949
780.793638	-0.002856
780.987356	-0.002617
781.181056	-0.002850
781.374738	-0.003034
781.568402	-0.003061
781.762047	-0.002862
781.955674	-0.002714
782.149283	-0.003017
782.342874	-0.002937
782.536447	-0.002918
782.730001	-0.002830
782.923537	-0.002788
783.117055	-0.002708
783.310555	-0.002702
783.504036	-0.002901
783.697499	-0.003185
783.890944	-0.003158
784.084371	-0.003296
784.277780	-0.003296
784.471170	-0.003414
784.664542	-0.003425
784.857896	-0.003414
785.051231	-0.003513
785.244549	-0.003586
785.437848	-0.003499
785.631129	-0.003548
785.824392	-0.003385
786.017636	-0.003110
786.210863	-0.003393
786.404071	-0.003380
786.597260	-0.003550
786.790432	-0.003505
786.983585	-0.003274
787.176721	-0.003431
787.369838	-0.003400
787.562936	-0.003443
787.756017	-0.003683
787.949079	-0.003763
788.142123	-0.003541
788.335149	-0.003550
788.528156	-0.003384
788.721146	-0.003338
788.914117	-0.003137
789.107070	-0.003061
789.300005	-0.003091
789.492921	-0.002961
789.685819	-0.002827
789.878699	-0.002963
790.071561	-0.002752
790.264405	-0.003050
790.457230	-0.003242
790.650037	-0.003252
790.842826	-0.003171
791.035597	-0.003176
791.228349	-0.003375
791.421084	-0.003369
791.613800	-0.003399
791.806497	-0.003368
791.999177	-0.003065
792.191838	-0.002953
792.384481	-0.002871
792.577106	-0.002935
792.769713	-0.002756
792.962301	-0.002551
793.154871	-0.002491
793.347423	-0.002445
793.539957	-0.002637
793.732473	-0.002645
793.924970	-0.002482
794.117449	-0.002617
794.309910	-0.002472
794.502353	-0.002647
794.694777	-0.002743
794.887183	-0.002707
795.079571	-0.002704
795.271941	-0.002772
795.464293	-0.002963
795.656626	-0.003060
795.848941	-0.002905
796.041238	-0.002831
796.233516	-0.002903
796.425777	-0.003130
796.618019	-0.003157
796.810243	-0.003061
797.002449	-0.002721
797.194636	-0.002711
797.386805	-0.002858
797.578956	-0.002977
797.771089	-0.003272
797.963204	-0.003196
798.155300	-0.002872
798.347378	-0.002839
798.539438	-0.002926
798.731480	-0.003164
798.923503	-0.002939
799.115509	-0.002756
799.307496	-0.002800
799.499465	-0.002460
799.691415	-0.002163
799.883348	-0.002222
800.075262	-0.002203
800.267158	-0.002270
800.459035	-0.002178
800.650895	-0.002277
800.842736	-0.002379
801.034559	-0.002476
801.226364	-0.002798
801.418150	-0.003078
801.609919	-0.003048
801.801669	-0.003142
801.993401	-0.002941
802.185114	-0.003065
802.376810	-0.003057
802.568487	-0.002947
802.760146	-0.002703
802.951787	-0.002592
803.143409	-0.002405
803.335014	-0.002460
803.526600	-0.002428
803.718168	-0.002372
803.909717	-0.002483
804.101249	-0.002179
804.292762	-0.002120
804.484257	-0.002151
804.675734	-0.002037
804.867192	-0.002204
805.058632	-0.002050
805.250054	-0.001949
805.441458	-0.002053
805.632844	-0.001903
805.824211	-0.002146
806.015561	-0.002306
806.206891	-0.002431
806.398204	-0.002504
806.589499	-0.002581
806.780775	-0.002703
806.972033	-0.002850
807.163273	-0.002957
807.354495	-0.002647
807.545698	-0.002699
807.736883	-0.002761
807.928050	-0.002500
808.119199	-0.002554
808.310329	-0.002518
808.501441	-0.002641
808.692535	-0.002698
808.883611	-0.002541
809.074669	-0.002749
809.265708	-0.002799
809.456729	-0.002775
809.647732	-0.002743
809.838717	-0.002652
810.029683	-0.002688
810.220632	-0.002634
810.411562	-0.002236
810.602474	-0.002156
810.793367	-0.002072
810.984242	-0.001948
811.175100	-0.001835
811.365938	-0.002108
811.556759	-0.002183
811.747562	-0.002126
811.938346	-0.002076
812.129112	-0.002316
812.319860	-0.002449
812.510589	-0.002806
812.701300	-0.002977
812.891994	-0.002988
813.082668	-0.002893
813.273325	-0.002847
813.463964	-0.003052
813.654584	-0.003334
813.845186	-0.003308
814.035769	-0.003332
814.226335	-0.003185
814.416882	-0.003152
814.607411	-0.003318
814.797922	-0.003423
814.988415	-0.003520
815.178889	-0.003430
815.369345	-0.003258
815.559783	-0.003367
815.750203	-0.003416
815.940605	-0.003391
816.130988	-0.003466
816.321353	-0.003359
816.511700	-0.003275
816.702028	-0.003267
816.892339	-0.003341
817.082631	-0.003311
817.272905	-0.003346
817.463161	-0.003226
817.653398	-0.003149
817.843617	-0.002975
818.033819	-0.003118
818.224001	-0.003226
818.414166	-0.003428
818.604312	-0.003457
818.794440	-0.003390
818.984550	-0.003388
819.174642	-0.003423
819.364716	-0.003543
819.554771	-0.003577
819.744808	-0.003355
819.934827	-0.003515
820.124827	-0.003368
820.314810	-0.003218
820.504774	-0.003401
820.694720	-0.003315
820.884647	-0.003454
821.074557	-0.003317
821.264448	-0.003493
821.454321	-0.003752
821.644176	-0.003443
821.834012	-0.003567
822.023831	-0.003745
822.213631	-0.003745
822.403413	-0.004006
822.593176	-0.004137
822.782922	-0.004279
822.972649	-0.004310
823.162358	-0.004254
823.352049	-0.004497
823.541721	-0.004429
823.731376	-0.004307
823.921012	-0.004346
824.110629	-0.004198
824.300229	-0.004047
824.489811	-0.004189
824.679374	-0.004134
824.868919	-0.004004
825.058445	-0.004253
825.247954	-0.004364
825.437444	-0.004200
825.626916	-0.004298
825.816370	-0.004196
826.005806	-0.004287
826.195223	-0.004241
826.384622	-0.004433
826.574003	-0.004405
826.763366	-0.004125
826.952711	-0.004144
827.142037	-0.004262
827.331345	-0.004036
827.520635	-0.004207
827.709906	-0.004121
827.899160	-0.004014
828.088395	-0.003954
828.277612	-0.004311
828.466810	-0.004478
828.655991	-0.004341
828.845153	-0.004381
829.034297	-0.004594
829.223423	-0.004616
829.412531	-0.004701
829.601620	-0.004750
829.790691	-0.004694
829.979744	-0.004400
830.168779	-0.004385
830.357795	-0.004557
830.546793	-0.004535
830.735773	-0.004481
830.924735	-0.004658
831.113679	-0.004827
831.302604	-0.005011
831.491511	-0.005111
831.680400	-0.005328
831.869271	-0.005349
832.058123	-0.005016
832.246957	-0.005235
832.435773	-0.005260
832.624571	-0.005053
832.813351	-0.005020
833.002112	-0.004986
833.190855	-0.004915
833.379580	-0.004844
833.568287	-0.005000
833.756975	-0.005393
833.945645	-0.005409
834.134297	-0.005724
834.322931	-0.005914
834.511547	-0.005793
834.700144	-0.005903
834.888723	-0.006056
835.077284	-0.006385
835.265826	-0.006391
835.454351	-0.006269
835.642857	-0.006276
835.831345	-0.005930
836.019815	-0.005854
836.208266	-0.005951
836.396699	-0.006063
836.585114	-0.006234
836.773511	-0.006122
836.961890	-0.005952
837.150250	-0.006063
837.338592	-0.006127
837.526916	-0.006022
837.715222	-0.006183
837.903510	-0.006205
838.091779	-0.006304
838.280030	-0.006258
838.468263	-0.006247
838.656477	-0.006507
838.844674	-0.006601
839.032852	-0.006394
839.221012	-0.006720
839.409153	-0.006552
839.597277	-0.006585
839.785382	-0.006171
839.973469	-0.006164
840.161538	-0.006120
840.349589	-0.006025
840.537621	-0.005798
840.725635	-0.006006
840.913631	-0.005916
841.101609	-0.005865
841.289568	-0.005873
841.477509	-0.006099
841.665432	-0.005995
841.853337	-0.005938
842.041224	-0.005765
842.229092	-0.005817
842.416942	-0.005778
842.604774	-0.005863
842.792588	-0.006016
842.980383	-0.006116
843.168160	-0.006058
843.355919	-0.005965
843.543660	-0.006151
843.731382	-0.006093
843.919087	-0.006223
844.106773	-0.005953
844.294441	-0.005997
844.482090	-0.005663
844.669722	-0.005583
844.857335	-0.005738
845.044930	-0.005714
845.232507	-0.005667
845.420065	-0.005703
845.607605	-0.005521
845.795127	-0.005674
845.982631	-0.005497
846.170117	-0.005614
846.357584	-0.005532
846.545033	-0.005532
846.732464	-0.005440
846.919877	-0.005092
847.107272	-0.004958
847.294648	-0.004805
847.482006	-0.004760
847.669346	-0.004626
847.856667	-0.004771
848.043971	-0.005090
848.231256	-0.004675
848.418523	-0.004770
848.605771	-0.004904
848.793002	-0.004883
848.980214	-0.005118
849.167408	-0.004991
849.354584	-0.005201
849.541742	-0.005190
849.728881	-0.004892
849.916002	-0.005025
850.103105	-0.004948
850.290190	-0.005183
850.477256	-0.005371
850.664304	-0.005497
850.851334	-0.005767
851.038346	-0.005552
851.225340	-0.005672
851.412315	-0.005621
851.599272	-0.005338
851.786211	-0.005414
851.973132	-0.005345
852.160034	-0.005318
852.346918	-0.005108
852.533784	-0.005211
852.720632	-0.005135
852.907462	-0.004968
853.094273	-0.005048
853.281066	-0.005227
853.467841	-0.005135
853.654598	-0.005037
853.841336	-0.004830
854.028056	-0.004839
854.214758	-0.004512
854.401442	-0.004681
854.588107	-0.004731
854.774755	-0.004588
854.961384	-0.004872
855.147995	-0.004936
855.334587	-0.004789
855.521162	-0.005155
855.707718	-0.005381
855.894256	-0.005453
856.080775	-0.005256
856.267277	-0.005070
856.453760	-0.005043
856.640225	-0.004802
856.826672	-0.004844
857.013101	-0.004755
857.199511	-0.004575
857.385903	-0.004383
857.572277	-0.004117
857.758633	-0.004267
857.944970	-0.004263
858.131290	-0.004221
858.317591	-0.004244
858.503873	-0.004270
858.690138	-0.004181
858.876384	-0.003949
859.062612	-0.003896
859.248822	-0.004229
859.435014	-0.004137
859.621188	-0.004019
859.807343	-0.004051
859.993480	-0.004082
860.179599	-0.003798
860.365699	-0.004068
860.551781	-0.004089
860.737846	-0.003904
860.923891	-0.003554
861.109919	-0.003524
861.295929	-0.003774
861.481920	-0.003654
861.667893	-0.003664
861.853848	-0.003645
862.039784	-0.003667
862.225702	-0.003662
862.411603	-0.003689
862.597484	-0.003873
862.783348	-0.003899
862.969193	-0.003825
863.155021	-0.003916
863.340830	-0.003847
863.526620	-0.004344
863.712393	-0.004477
863.898147	-0.004320
864.083883	-0.004626
864.269601	-0.004630
864.455301	-0.004621
864.640982	-0.004578
864.826645	-0.004501
865.012290	-0.004477
865.197917	-0.004084
865.383526	-0.003655
865.569116	-0.003673
865.754688	-0.003559
865.940242	-0.003673
866.125777	-0.003872
866.311295	-0.004108
866.496794	-0.004569
866.682275	-0.004566
866.867737	-0.004373
867.053182	-0.004545
867.238608	-0.004804
867.424016	-0.004509
867.609406	-0.004298
867.794778	-0.003853
867.980131	-0.003598
868.165466	-0.003249
868.350783	-0.003170
868.536082	-0.003486
868.721362	-0.003382
868.906625	-0.003354
869.091869	-0.003578
869.277094	-0.003689
869.462302	-0.003916
869.647491	-0.003911
869.832662	-0.003950
870.017815	-0.003979
870.202950	-0.004011
870.388066	-0.004214
870.573165	-0.004202
870.758245	-0.004260
870.943306	-0.004286
871.128350	-0.004215
871.313375	-0.004318
871.498382	-0.004372
871.683371	-0.004228
871.868342	-0.004178
872.053294	-0.004386
872.238229	-0.004313
872.423144	-0.004213
872.608042	-0.004386
872.792922	-0.004374
872.977783	-0.004175
873.162626	-0.004040
873.347451	-0.004104
873.532258	-0.004010
873.717046	-0.003673
873.901816	-0.003825
874.086568	-0.003683
874.271302	-0.003730
874.456017	-0.003734
874.640715	-0.003885
874.825394	-0.003691
875.010055	-0.003952
875.194697	-0.003674
875.379322	-0.003470
875.563928	-0.003338
875.748516	-0.003084
875.933085	-0.002901
876.117637	-0.003081
876.302170	-0.003089
876.486685	-0.003375
876.671182	-0.003048
876.855661	-0.003128
877.040121	-0.003008
877.224563	-0.002972
877.408987	-0.003413
877.593393	-0.003122
877.777780	-0.002948
877.962150	-0.002593
878.146501	-0.002366
878.330833	-0.002258
878.515148	-0.002477
878.699444	-0.002875
878.883722	-0.002874
879.067982	-0.002691
879.252224	-0.002597
879.436447	-0.002429
879.620653	-0.002600
879.804840	-0.002391
879.989008	-0.002339
880.173159	-0.002054
880.357291	-0.001760
880.541405	-0.001667
880.725501	-0.001533
880.909579	-0.001705
881.093638	-0.002092
881.277680	-0.002180
881.461703	-0.002613
881.645707	-0.002769
881.829694	-0.002977
882.013662	-0.002872
882.197612	-0.002835
882.381544	-0.002888
882.565458	-0.002808
882.749353	-0.002707
882.933230	-0.002673
883.117089	-0.002497
883.300930	-0.002563
883.484753	-0.002525
883.668557	-0.002504
883.852343	-0.002345
884.036111	-0.001990
884.219861	-0.002170
884.403592	-0.001985
884.587305	-0.002055
884.771000	-0.002208
884.954677	-0.002413
885.138335	-0.002290
885.321976	-0.002315
885.505598	-0.002550
885.689201	-0.003005
885.872787	-0.002715
886.056354	-0.002677
886.239904	-0.002676
886.423434	-0.002451
886.606947	-0.002046
886.790442	-0.002034
886.973918	-0.002519
887.157376	-0.002296
887.340816	-0.002179
887.524237	-0.002230
887.707641	-0.002312
887.891026	-0.002196
888.074393	-0.002341
888.257741	-0.002478
888.441072	-0.002662
888.624384	-0.002097
888.807678	-0.002124
888.990954	-0.002371
889.174211	-0.002163
889.357451	-0.002164
889.540672	-0.002387
889.723875	-0.002348
889.907059	-0.002297
890.090226	-0.002232
890.273374	-0.002415
890.456504	-0.002361
890.639616	-0.002207
890.822709	-0.002569
891.005785	-0.002225
891.188842	-0.001811
891.371881	-0.001740
891.554901	-0.001759
891.737904	-0.001351
891.920888	-0.001352
892.103854	-0.001275
892.286802	-0.001148
892.469731	-0.001165
892.652643	-0.001336
892.835536	-0.001720
893.018410	-0.001611
893.201267	-0.001707
893.384106	-0.001830
893.566926	-0.001979
893.749728	-0.002339
893.932511	-0.002545
894.115277	-0.002292
894.298024	-0.002321
894.480753	-0.002239
894.663464	-0.002123
894.846157	-0.002215
895.028831	-0.002350
895.211487	-0.001733
895.394125	-0.001710
895.576745	-0.001684
895.759346	-0.001817
895.941930	-0.002083
896.124495	-0.001957
896.307041	-0.002319
896.489570	-0.002304
896.672080	-0.002828
896.854573	-0.003311
897.037046	-0.003267
897.219502	-0.003163
897.401940	-0.003417
897.584359	-0.003218
897.766760	-0.002940
897.949143	-0.002827
898.131507	-0.002740
898.313854	-0.002361
898.496182	-0.002278
898.678492	-0.002296
898.860783	-0.002352
899.043057	-0.002481
899.225312	-0.002709
899.407549	-0.002999
899.589768	-0.002915
899.771968	-0.002991
899.954151	-0.003194
900.136315	-0.003246
900.318461	-0.003273
900.500588	-0.003291
900.682698	-0.002801
900.864789	-0.002666
901.046862	-0.002365
901.228917	-0.002571
901.410953	-0.002624
901.592971	-0.002393
901.774972	-0.002801
901.956953	-0.002715
902.138917	-0.002373
902.320862	-0.002321
902.502790	-0.002407
902.684699	-0.002574
902.866589	-0.002571
903.048462	-0.002409
903.230316	-0.002015
903.412152	-0.001741
903.593970	-0.001825
903.775770	-0.002225
903.957551	-0.002546
904.139314	-0.002392
904.321059	-0.002452
904.502786	-0.002496
904.684494	-0.002457
904.866185	-0.003155
905.047857	-0.003112
905.229510	-0.002780
905.411146	-0.002439
905.592763	-0.002447
905.774363	-0.002390
905.955943	-0.002581
906.137506	-0.002224
906.319051	-0.002620
906.500577	-0.002315
906.682085	-0.002253
906.863575	-0.002746
907.045046	-0.002917
907.226500	-0.002890
907.407935	-0.002783
907.589352	-0.002633
907.770750	-0.002767
907.952131	-0.002512
908.133493	-0.002468
908.314837	-0.002601
908.496163	-0.002399
908.677470	-0.002608
908.858760	-0.002661
909.040031	-0.002742
909.221284	-0.002572
909.402518	-0.002650
909.583735	-0.002546
909.764933	-0.002838
909.946113	-0.002645
910.127275	-0.002858
910.308418	-0.002492
910.489544	-0.002332
910.670651	-0.002617
910.851740	-0.002542
911.032810	-0.002815
911.213863	-0.002764
911.394897	-0.002751
911.575913	-0.003218
911.756911	-0.003061
911.937890	-0.003092
912.118851	-0.003362
912.299794	-0.003079
912.480719	-0.003290
912.661626	-0.002920
912.842514	-0.003112
913.023384	-0.002533
913.204236	-0.002456
913.385070	-0.002380
913.565886	-0.002291
913.746683	-0.002178
913.927462	-0.002129
914.108223	-0.002434
914.288965	-0.002420
914.469690	-0.002813
914.650396	-0.003189
914.831084	-0.003341
915.011754	-0.003971
915.192405	-0.004421
915.373038	-0.004355
915.553653	-0.005215
915.734250	-0.005130
915.914829	-0.005617
916.095389	-0.005077
916.275931	-0.005309
916.456455	-0.004846
916.636961	-0.004356
916.817448	-0.004177
916.997917	-0.004455
917.178368	-0.003901
917.358801	-0.003899
917.539216	-0.003670
917.719612	-0.003700
917.899990	-0.003364
918.080350	-0.004064
918.260692	-0.004472
918.441015	-0.005023
918.621320	-0.005217
918.801607	-0.005366
918.981876	-0.005470
919.162127	-0.005682
919.342359	-0.005938
919.522573	-0.005803
919.702769	-0.005799
919.882947	-0.005276
920.063106	-0.005090
920.243247	-0.004814
920.423370	-0.005335
920.603475	-0.005283
920.783562	-0.005395
920.963630	-0.005463
921.143680	-0.006082
921.323712	-0.005682
921.503725	-0.006188
921.683721	-0.006684
921.863698	-0.006915
922.043657	-0.006848
922.223598	-0.006856
922.403520	-0.006556
922.583424	-0.006360
922.763311	-0.006832
922.943178	-0.007364
923.123028	-0.007371
923.302859	-0.007611
923.482673	-0.007612
923.662467	-0.007185
923.842244	-0.007983
924.022003	-0.008487
924.201743	-0.009263
924.381465	-0.009282
924.561169	-0.009011
924.740854	-0.009395
924.920522	-0.008837
925.100171	-0.008581
925.279802	-0.008474
925.459414	-0.008027
925.639009	-0.007867
925.818585	-0.007915
925.998143	-0.007567
926.177683	-0.007542
926.357205	-0.007944
926.536708	-0.008563
926.716193	-0.008802
926.895660	-0.009405
927.075109	-0.009408
927.254539	-0.009677
927.433951	-0.009679
927.613345	-0.010524
927.792721	-0.010535
927.972079	-0.010309
928.151418	-0.010315
928.330739	-0.010653
928.510042	-0.010808
928.689327	-0.011180
928.868593	-0.010843
929.047841	-0.010007
929.227071	-0.009592
929.406283	-0.009917
929.585476	-0.009977
929.764652	-0.009484
929.943809	-0.010044
930.122948	-0.009721
930.302068	-0.009502
930.481171	-0.009779
930.660255	-0.010455
930.839321	-0.010335
931.018369	-0.010908
931.197398	-0.011230
931.376409	-0.011310
931.555402	-0.010793
931.734377	-0.011119
931.913334	-0.011377
932.092272	-0.011893
932.271192	-0.011924
932.450094	-0.012199
932.628978	-0.012294
932.807844	-0.011915
932.986691	-0.012568
933.165520	-0.012948
933.344331	-0.013573
933.523123	-0.013439
933.701898	-0.013649
933.880654	-0.014079
934.059392	-0.014157
934.238111	-0.014221
934.416813	-0.014450
934.595496	-0.014405
934.774161	-0.014673
934.952808	-0.014733
935.131437	-0.015792
935.310047	-0.015514
935.488639	-0.015345
935.667213	-0.016191
935.845769	-0.015253
936.024306	-0.015394
936.202825	-0.015375
936.381326	-0.014845
936.559809	-0.015018
936.738274	-0.013707
936.916720	-0.013904
937.095148	-0.014839
937.273558	-0.014332
937.451950	-0.014867
937.630323	-0.015163
937.808678	-0.015275
937.987015	-0.016572
938.165334	-0.016516
938.343635	-0.017831
938.521917	-0.017744
938.700181	-0.017438
938.878427	-0.017005
939.056655	-0.017641
939.234864	-0.017134
939.413055	-0.017080
939.591228	-0.016913
939.769383	-0.017490
939.947519	-0.017763
940.125638	-0.017149
940.303738	-0.017233
940.481820	-0.017586
940.659883	-0.018151
940.837929	-0.018709
941.015956	-0.019129
941.193965	-0.018904
941.371955	-0.018549
941.549928	-0.017618
941.727882	-0.019616
941.905818	-0.020546
942.083736	-0.021204
942.261636	-0.021098
942.439517	-0.021597
942.617380	-0.022129
942.795225	-0.021999
942.973052	-0.021838
943.150860	-0.022971
943.328651	-0.022160
943.506423	-0.021406
943.684176	-0.021214
943.861912	-0.020031
944.039629	-0.019266
944.217328	-0.018559
944.395009	-0.017806
944.572672	-0.017136
944.750317	-0.017662
944.927943	-0.018548
945.105551	-0.018932
945.283141	-0.019198
945.460712	-0.020691
945.638265	-0.021248
945.815801	-0.022394
945.993317	-0.023020
946.170816	-0.023467
946.348297	-0.022734
946.525759	-0.021394
946.703203	-0.020918
946.880629	-0.019543
947.058036	-0.018772
947.235425	-0.018746
947.412797	-0.018100
947.590149	-0.019483
947.767484	-0.019803
947.944800	-0.019104
948.122099	-0.020503
948.299379	-0.020829
948.476640	-0.022249
948.653884	-0.023246
948.831109	-0.023373
949.008316	-0.022280
949.185505	-0.021144
949.362676	-0.019661
949.539828	-0.019977
949.716962	-0.018981
949.894078	-0.018858
950.071176	-0.017905
950.248256	-0.017095
950.425317	-0.016978
950.602360	-0.017125
950.779385	-0.016612
950.956391	-0.017518
951.133380	-0.018369
951.310350	-0.019435
951.487302	-0.018889
951.664235	-0.019593
951.841151	-0.019565
952.018048	-0.018415
952.194927	-0.019598
952.371788	-0.020339
952.548631	-0.021557
952.725455	-0.022451
952.902261	-0.021801
953.079049	-0.022668
953.255819	-0.022904
953.432570	-0.023656
953.609303	-0.024541
953.786018	-0.026045
953.962715	-0.025622
954.139394	-0.024390
954.316054	-0.022344
954.492696	-0.021639
954.669320	-0.020952
954.845926	-0.020910
955.022513	-0.020617
955.199083	-0.020428
955.375634	-0.018389
955.552166	-0.017787
955.728681	-0.017097
955.905177	-0.016962
956.081655	-0.016402
956.258115	-0.016666
956.434557	-0.016405
956.610980	-0.016434
956.787385	-0.016519
956.963772	-0.017347
957.140141	-0.018557
957.316492	-0.019235
957.492824	-0.018682
957.669138	-0.017891
957.845434	-0.016151
958.021712	-0.015060
958.197971	-0.013373
958.374212	-0.012065
958.550435	-0.012268
958.726640	-0.012830
958.902826	-0.013192
959.078995	-0.013687
959.255145	-0.013329
959.431277	-0.016154
959.607390	-0.017022
959.783486	-0.016668
959.959563	-0.017382
960.135622	-0.015072
960.311662	-0.013278
960.487685	-0.012454
960.663689	-0.012379
960.839675	-0.012715
961.015643	-0.012393
961.191593	-0.010566
961.367524	-0.013020
961.543437	-0.011862
961.719332	-0.013889
961.895209	-0.014538
962.071067	-0.014337
962.246907	-0.014204
962.422730	-0.015336
962.598533	-0.013969
962.774319	-0.015475
962.950086	-0.012184
963.125835	-0.012953
963.301566	-0.012500
963.477279	-0.012464
963.652973	-0.011215
963.828650	-0.011313
964.004308	-0.010087
964.179947	-0.008844
964.355569	-0.008968
964.531172	-0.010950
964.706757	-0.010764
964.882324	-0.008753
965.057873	-0.009593
965.233403	-0.012529
965.408916	-0.012873
965.584410	-0.012821
965.759885	-0.010487
965.935343	-0.009667
966.110782	-0.008944
966.286203	-0.008959
966.461606	-0.009425
966.636991	-0.007387
966.812357	-0.006126
966.987705	-0.005125
967.163035	-0.005559
967.338347	-0.006895
967.513641	-0.006198
967.688916	-0.002923
967.864173	-0.000778
968.039412	-0.001279
968.214632	-0.001386
968.389835	0.000117
968.565019	0.000264
968.740185	-0.000429
968.915333	-0.002180
969.090462	-0.003120
969.265573	-0.006748
969.440667	-0.008531
969.615741	-0.008139
969.790798	-0.005925
969.965836	-0.006765
970.140856	-0.007487
970.315858	-0.007305
970.490842	-0.004989
970.665808	-0.006391
970.840755	-0.004285
971.015684	-0.003073
971.190595	-0.002298
971.365487	-0.003465
971.540362	-0.003001
971.715218	-0.001467
971.890056	-0.000388
972.064875	0.000708
972.239677	0.002957
972.414460	0.001225
972.589225	0.002030
972.763972	0.000681
972.938700	-0.000483
973.113411	-0.003450
973.288103	-0.004078
973.462777	-0.003608
973.637432	-0.005816
973.812070	-0.006916
973.986689	-0.005167
974.161290	-0.006582
974.335873	-0.006473
974.510437	-0.004657
974.684984	-0.002684
974.859512	-0.003373
975.034022	-0.003490
975.208513	-0.002416
975.382987	-0.000402
975.557442	-0.001990
975.731879	-0.001722
975.906298	-0.003896
976.080698	-0.004413
976.255080	-0.004577
976.429445	-0.005057
976.603790	-0.006000
976.778118	-0.007754
976.952427	-0.007734
977.126719	-0.006840
977.300992	-0.005316
977.475246	-0.002604
977.649483	-0.000333
977.823701	0.002225
977.997901	0.001761
978.172083	0.003517
978.346247	0.006254
978.520392	0.005563
978.694519	0.004614
978.868628	0.003888
979.042719	0.004772
979.216791	0.001134
979.390845	-0.000294
979.564882	0.000211
979.738899	0.000004
979.912899	0.000163
980.086880	0.000863
980.260843	0.003942
980.434788	0.002853
980.608715	0.002747
980.782623	0.003357
980.956514	0.002483
981.130386	0.002975
981.304240	0.003050
981.478075	0.001595
981.651892	-0.000596
981.825692	-0.002280
981.999472	-0.001495
982.173235	-0.002014
982.346980	-0.001594
982.520706	-0.001174
982.694414	-0.001582
982.868104	-0.003404
983.041775	-0.004972
983.215428	-0.002770
983.389064	-0.001524
983.562680	-0.001048
983.736279	-0.000526
983.909860	-0.000014
984.083422	-0.000893
984.256966	0.001516
984.430491	0.004151
984.603999	0.004915
984.777488	0.005287
984.950959	0.003528
985.124412	0.003342
985.297847	0.003208
985.471263	0.002044
985.644661	0.003572
985.818041	0.002080
985.991403	0.000865
986.164747	0.001447
986.338072	-0.001277
986.511379	-0.000499
986.684668	-0.001989
986.857938	-0.002921
987.031191	-0.002984
987.204425	-0.004041
987.377641	-0.003715
987.550839	-0.004590
987.724018	-0.006027
987.897179	-0.005704
988.070322	-0.007313
988.243447	-0.007538
988.416554	-0.007402
988.589642	-0.007602
988.762712	-0.008418
988.935764	-0.008786
989.108798	-0.006664
989.281813	-0.003973
989.454811	-0.002585
989.627790	-0.001463
989.800751	0.000040
989.973693	0.001568
990.146617	0.002576
990.319524	0.003939
990.492412	0.004329
990.665281	0.002810
990.838133	0.001648
991.010966	0.002233
991.183781	0.002593
991.356578	0.000372
991.529356	-0.000049
991.702117	0.001220
991.874859	0.000979
992.047583	0.000746
992.220288	0.000811
992.392976	0.000344
992.565645	-0.000354
992.738296	-0.000169
992.910929	0.003032
993.083543	0.002455
993.256139	-0.001343
993.428718	-0.001475
993.601277	-0.000475
993.773819	-0.000509
993.946342	-0.000889
994.118848	-0.000783
994.291335	-0.000633
994.463803	-0.003279
994.636254	-0.002689
994.808686	-0.000537
994.981100	-0.000700
995.153496	-0.003752
995.325874	-0.003421
995.498233	-0.002750
995.670574	-0.003900
995.842897	-0.003725
996.015202	-0.000972
996.187488	-0.001236
996.359757	-0.001998
996.532007	-0.000725
996.704239	0.002423
996.876452	0.002608
997.048648	0.002704
997.220825	0.002705
997.392984	0.001780
997.565124	-0.000436
997.737247	-0.001283
997.909351	-0.001507
998.081437	-0.001477
998.253505	-0.004212
998.425554	-0.004984
998.597586	-0.005682
998.769599	-0.005535
998.941594	-0.006164
999.113571	-0.006819
999.285529	-0.008336
999.457469	-0.006909
999.629391	-0.006999
999.801295	-0.005246
999.973181	-0.005440
1000.145048	-0.005294
1000.316897	-0.003711
1000.488728	-0.003414
1000.660541	-0.003250
1000.832335	0.000110
1001.004111	-0.000084
1001.175869	-0.002776
1001.347609	-0.002122
1001.519331	-0.002430
1001.691034	-0.002657
1001.862719	-0.005603
1002.034386	-0.004998
1002.206035	-0.002483
1002.377665	-0.002701
1002.549277	-0.002921
1002.720871	-0.000363
1002.892447	-0.001048
1003.064004	0.000431
1003.235544	0.000355
1003.407065	0.001941
1003.578568	0.002474
1003.750052	0.002156
1003.921519	0.001508
1004.092967	0.002367
1004.264397	0.001642
1004.435809	0.002042
1004.607202	0.000829
1004.778577	0.000104
1004.949934	0.001494
1005.121273	0.001953
1005.292594	0.002094
1005.463896	0.001849
1005.635180	0.001445
1005.806446	-0.000378
1005.977694	-0.001432
1006.148923	0.000497
1006.320135	0.000645
1006.491328	-0.000323
1006.662503	-0.000301
1006.833659	-0.000420
1007.004798	-0.000412
1007.175918	0.000531
1007.347020	0.002610
1007.518103	0.003206
1007.689169	0.001483
1007.860216	0.001681
1008.031245	0.003395
1008.202256	0.002544
1008.373248	0.000403
1008.544223	0.000344
1008.715179	-0.001884
1008.886117	-0.002211
1009.057036	-0.001847
1009.227938	-0.001878
1009.398821	-0.000887
1009.569686	-0.002742
1009.740533	-0.002339
1009.911361	-0.001561
1010.082172	-0.001857
1010.252964	-0.001315
1010.423738	0.000306
1010.594493	0.001612
1010.765231	0.001801
1010.935950	0.001143
1011.106651	0.002944
1011.277334	0.003134
1011.447998	0.001863
1011.618645	0.003470
1011.789273	0.003808
1011.959882	0.002341
1012.130474	0.001829
1012.301048	0.002473
1012.471603	0.002680
1012.642140	0.000645
1012.812658	0.000131
1012.983159	0.001364
1013.153641	-0.002005
1013.324105	-0.001063
1013.494551	-0.001189
1013.664979	-0.001895
1013.835388	-0.003027
1014.005779	-0.003458
1014.176152	-0.002763
1014.346507	-0.002660
1014.516843	-0.002140
1014.687162	-0.000366
1014.857462	-0.000714
1015.027744	-0.000116
1015.198007	-0.000288
1015.368252	0.001036
1015.538480	0.001389
1015.708689	0.000869
1015.878879	0.000632
1016.049052	-0.000120
1016.219206	0.000575
1016.389342	-0.000140
1016.559460	-0.000761
1016.729559	-0.000976
1016.899641	-0.000355
1017.069704	0.000502
1017.239749	0.002178
1017.409775	0.002835
1017.579784	0.004907
1017.749774	0.005512
1017.919746	0.006371
1018.089700	0.006971
1018.259635	0.006372
1018.429553	0.004216
1018.599452	0.002797
1018.769333	0.002020
1018.939195	0.002112
1019.109040	0.001186
1019.278866	0.000459
1019.448674	0.000376
1019.618464	-0.001215
1019.788235	-0.000912
1019.957989	0.000085
1020.127724	0.001335
1020.297441	0.001438
1020.467139	-0.000380
1020.636820	-0.000794
1020.806482	-0.000326
1020.976126	-0.000467
1021.145752	0.000085
1021.315359	0.000286
1021.484948	0.000298
1021.654519	-0.000090
1021.824072	-0.000684
1021.993607	-0.000207
1022.163123	0.000110
1022.332621	-0.000899
1022.502101	-0.002225
1022.671563	-0.001421
1022.841007	-0.001349
1023.010432	-0.000687
1023.179839	-0.001599
1023.349228	-0.000338
1023.518598	0.000498
1023.687951	0.001014
1023.857285	0.003174
1024.026601	0.003242
1024.195899	0.002645
1024.365178	0.003710
1024.534439	0.002538
1024.703682	0.003740
1024.872907	0.004149
1025.042114	0.002248
1025.211302	0.000484
1025.380472	-0.002355
1025.549624	0.000450
1025.718758	0.000933
1025.887873	-0.000624
1026.056970	0.000538
1026.226049	-0.001316
1026.395110	-0.002673
1026.564153	-0.001016
1026.733177	0.000298
1026.902183	0.001367
1027.071171	0.000497
1027.240141	0.000294
1027.409092	0.001409
1027.578026	0.001249
1027.746940	0.001610
1027.915837	0.000618
1028.084716	0.001361
1028.253576	0.001095
1028.422418	0.001341
1028.591242	0.000881
1028.760048	0.002067
1028.928835	0.002475
1029.097604	0.002129
1029.266355	0.002204
1029.435088	0.002258
1029.603803	0.001285
1029.772499	0.002512
1029.941177	0.002890
1030.109837	0.003386
1030.278478	0.001931
1030.447102	0.002239
1030.615707	0.002777
1030.784294	0.004633
1030.952863	0.006363
1031.121413	0.007118
1031.289945	0.004691
1031.458460	0.003686
1031.626955	0.004240
1031.795433	0.004614
1031.963892	0.004119
1032.132334	0.002698
1032.300756	0.001659
1032.469161	0.001463
1032.637548	0.000113
1032.805916	0.001816
1032.974266	0.003130
1033.142598	0.000972
1033.310911	0.001598
1033.479207	-0.000032
1033.647484	0.000938
1033.815743	0.001665
1033.983983	0.001002
1034.152206	0.002071
1034.320410	0.003392
1034.488596	0.001846
1034.656764	0.001521
1034.824914	0.000689
1034.993045	0.001598
1035.161158	0.000875
1035.329253	0.000780
1035.497330	0.001859
1035.665388	0.001787
1035.833428	0.001936
1036.001450	0.003672
1036.169454	0.005570
1036.337440	0.005936
1036.505407	0.006920
1036.673356	0.005983
1036.841287	0.004615
1037.009200	0.004805
1037.177094	0.004785
1037.344970	0.001874
1037.512828	0.000251
1037.680668	-0.001322
1037.848489	-0.001060
1038.016293	-0.002611
1038.184078	-0.000570
1038.351845	-0.000037
1038.519593	-0.000301
1038.687324	-0.001254
1038.855036	-0.002139
1039.022730	-0.000630
1039.190406	-0.000427
1039.358063	0.000611
1039.525702	0.002311
1039.693323	0.001872
1039.860926	0.001716
1040.028511	0.001431
1040.196077	0.001576
1040.363625	0.003598
1040.531155	0.002832
1040.698667	0.003675
1040.866161	0.003582
1041.033636	0.003984
1041.201093	0.001860
1041.368532	0.002175
1041.535952	0.003639
1041.703355	0.004050
1041.870739	0.003916
1042.038105	0.003234
1042.205452	0.001599
1042.372782	0.001138
1042.540093	-0.000198
1042.707386	0.001187
1042.874661	0.000560
1043.041918	-0.002316
1043.209156	-0.002759
1043.376376	-0.003558
1043.543578	-0.004672
1043.710762	-0.002704
1043.877927	-0.002628
1044.045074	-0.002286
1044.212203	-0.001852
1044.379314	-0.000819
1044.546407	-0.001381
1044.713481	-0.000823
1044.880537	-0.001202
1045.047575	0.001163
1045.214595	0.000267
1045.381596	-0.000344
1045.548579	-0.000625
1045.715544	-0.001087
1045.882491	-0.000573
1046.049420	-0.000780
1046.216330	-0.000393
1046.383222	0.000562
1046.550096	-0.000033
1046.716951	0.000119
1046.883789	0.000003
1047.050608	0.001242
1047.217409	0.000089
1047.384192	0.000049
1047.550956	0.001170
1047.717703	0.000969
1047.884431	-0.001176
1048.051140	0.000379
1048.217832	0.000909
1048.384505	0.000077
1048.551161	-0.001943
1048.717798	0.000032
1048.884416	-0.000629
1049.051017	0.000435
1049.217599	0.001106
1049.384163	0.004833
1049.550709	0.002850
1049.717237	0.002180
1049.883746	0.001994
1050.050237	0.001913
1050.216710	0.001957
1050.383165	-0.000497
1050.549601	-0.000774
1050.716019	-0.000912
1050.882420	-0.002974
1051.048801	-0.002704
1051.215165	-0.003301
1051.381510	-0.001260
1051.547837	-0.002153
1051.714146	-0.001636
1051.880437	0.002856
1052.046709	0.002994
1052.212964	0.004365
1052.379200	0.006035
1052.545417	0.007805
1052.711617	0.008088
1052.877798	0.006109
1053.043961	0.008163
1053.210106	0.007133
1053.376233	0.005540
1053.542341	0.004771
1053.708432	0.002805
1053.874504	0.001849
1054.040557	0.000081
1054.206593	0.000121
1054.372610	0.001799
1054.538609	0.003163
1054.704590	0.002122
1054.870553	0.002199
1055.036497	0.002001
1055.202424	0.002051
1055.368331	0.000035
1055.534221	-0.000680
1055.700093	0.000008
1055.865946	-0.001241
1056.031781	-0.002888
1056.197598	-0.001342
1056.363397	0.001039
1056.529177	0.001852
1056.694939	0.003699
1056.860683	0.004154
1057.026409	0.004752
1057.192116	0.004317
1057.357806	0.005778
1057.523477	0.004798
1057.689130	0.003332
1057.854764	0.001521
1058.020381	-0.000852
1058.185979	-0.002761
1058.351559	-0.002335
1058.517120	-0.002103
1058.682664	-0.003176
1058.848189	-0.003249
1059.013696	-0.001594
1059.179185	0.000067
1059.344656	-0.001698
1059.510108	0.000740
1059.675542	-0.000968
1059.840958	0.000509
1060.006356	0.002598
1060.171735	0.003639
1060.337096	0.000677
1060.502439	0.000354
1060.667764	-0.000292
1060.833071	0.001395
1060.998359	0.001930
1061.163629	0.004078
1061.328881	0.003828
1061.494115	0.000456
1061.659330	0.001781
1061.824527	0.002554
1061.989706	0.000521
1062.154867	0.000508
1062.320010	0.001568
1062.485134	0.002184
1062.650240	0.001637
1062.815328	0.001807
1062.980398	0.003436
1063.145449	0.002880
1063.310482	0.004359
1063.475497	0.005582
1063.640494	0.003278
1063.805473	0.000102
1063.970433	-0.002109
1064.135375	-0.002593
1064.300299	-0.002498
1064.465204	-0.004025
1064.630092	-0.003085
1064.794961	-0.005068
1064.959812	-0.004869
1065.124645	-0.002755
1065.289459	0.000288
1065.454256	0.001192
1065.619034	-0.000915
1065.783793	-0.001984
1065.948535	-0.000630
1066.113258	-0.003645
1066.277964	-0.003020
1066.442651	-0.002914
1066.607319	-0.003565
1066.771970	-0.006515
1066.936602	-0.007708
1067.101216	-0.006026
1067.265812	-0.003261
1067.430389	-0.004777
1067.594949	-0.004236
1067.759490	-0.003707
1067.924013	-0.002324
1068.088518	-0.001381
1068.253004	0.000458
1068.417472	0.001196
1068.581922	0.000812
1068.746354	-0.002765
1068.910768	-0.001574
1069.075163	0.000105
1069.239540	0.000956
1069.403899	0.000701
1069.568240	0.000353
1069.732562	-0.000617
1069.896866	-0.001050
1070.061152	-0.000446
1070.225420	-0.001906
1070.389670	-0.001856
1070.553901	-0.004502
1070.718114	-0.004658
1070.882309	-0.005384
1071.046486	-0.005205
1071.210644	-0.006374
1071.374784	-0.005825
1071.538906	-0.006121
1071.703010	-0.001084
1071.867096	-0.001087
1072.031163	-0.001082
1072.195212	-0.002061
1072.359243	-0.001307
1072.523256	-0.001255
1072.687250	-0.000266
1072.851226	-0.000569
1073.015184	0.000717
1073.179124	-0.003091
1073.343045	-0.002867
1073.506949	-0.000540
1073.670834	0.002507
1073.834701	0.002945
1073.998549	0.002579
1074.162380	0.005073
1074.326192	0.003054
1074.489986	0.004424
1074.653761	0.005378
1074.817519	0.004681
1074.981258	0.001996
1075.144979	-0.000419
1075.308682	-0.003713
1075.472367	-0.002333
1075.636033	-0.004959
1075.799681	-0.003604
1075.963311	-0.005089
1076.126923	-0.003085
1076.290516	-0.001043
1076.454092	-0.000887
1076.617649	0.000371
1076.781187	0.002181
1076.944708	0.001572
1077.108210	-0.000692
1077.271695	0.002769
1077.435160	0.001254
1077.598608	-0.001137
1077.762038	-0.002662
1077.925449	-0.001509
1078.088842	-0.004458
1078.252217	-0.004904
1078.415573	-0.006831
1078.578912	-0.005851
1078.742232	-0.008937
1078.905534	-0.008731
1079.068817	-0.010297
1079.232083	-0.010092
1079.395330	-0.007259
1079.558559	-0.006160
1079.721770	-0.004110
1079.884962	-0.002314
1080.048136	-0.000610
1080.211293	0.001130
1080.374430	0.003015
1080.537550	0.006711
1080.700651	0.004952
1080.863735	0.004420
1081.026800	0.006129
1081.189846	0.003613
1081.352875	0.005047
1081.515885	0.004487
1081.678877	0.003640
1081.841851	0.001638
1082.004807	0.001421
1082.167744	0.003668
1082.330663	0.003045
1082.493564	0.004300
1082.656447	0.003036
1082.819312	-0.000206
1082.982158	0.000169
1083.144986	-0.001243
1083.307796	-0.000882
1083.470587	-0.003248
1083.633361	-0.002751
1083.796116	-0.004202
1083.958853	-0.006720
1084.121571	-0.002805
1084.284272	-0.002297
1084.446954	-0.002449
1084.609618	-0.001432
1084.772264	-0.003148
1084.934892	-0.001934
1085.097501	-0.004068
1085.260092	-0.004717
1085.422665	-0.006245
1085.585220	-0.009002
1085.747756	-0.006742
1085.910274	-0.006970
1086.072774	-0.006825
1086.235256	-0.005321
1086.397720	-0.007471
1086.560165	-0.006412
1086.722592	-0.005903
1086.885001	-0.004886
1087.047392	-0.002824
1087.209764	-0.005627
1087.372119	-0.005233
1087.534455	-0.005371
1087.696772	-0.004731
1087.859072	-0.001544
1088.021353	-0.001840
1088.183616	-0.001082
1088.345861	-0.001024
1088.508088	-0.001675
1088.670296	-0.002159
1088.832486	-0.000634
1088.994658	-0.000726
1089.156812	-0.002243
1089.318948	-0.003282
1089.481065	-0.002431
1089.643164	-0.002543
1089.805245	-0.001309
1089.967308	-0.002485
1090.129352	-0.002623
1090.291378	-0.002309
1090.453386	-0.002188
1090.615376	0.000597
1090.777347	0.000110
1090.939301	-0.002012
1091.101236	-0.001935
1091.263153	-0.004758
1091.425051	-0.004748
1091.586932	-0.002779
1091.748794	-0.005431
1091.910638	-0.005124
1092.072463	-0.007819
1092.234271	-0.008197
1092.396060	-0.007126
1092.557831	-0.009483
1092.719584	-0.005679
1092.881319	-0.004427
1093.043035	-0.005069
1093.204733	-0.004127
1093.366413	-0.004916
1093.528075	-0.007524
1093.689718	-0.006044
1093.851343	-0.006005
1094.012950	-0.003948
1094.174539	-0.005514
1094.336110	-0.006043
1094.497662	-0.009597
1094.659196	-0.012131
1094.820712	-0.011399
1094.982210	-0.006917
1095.143689	-0.007603
1095.305151	-0.006513
1095.466594	-0.008690
1095.628018	-0.008489
1095.789425	-0.009372
1095.950813	-0.005525
1096.112183	-0.003625
1096.273535	-0.006446
1096.434869	-0.008556
1096.596184	-0.007547
1096.757482	-0.007884
1096.918761	-0.003948
1097.080021	-0.005989
1097.241264	-0.007052
1097.402488	-0.007799
1097.563694	-0.008607
1097.724882	-0.005622
1097.886052	-0.005406
1098.047203	-0.007374
1098.208336	-0.007603
1098.369451	-0.011656
1098.530548	-0.010493
1098.691627	-0.006892
1098.852687	-0.006724
1099.013729	-0.005998
1099.174753	-0.007339
1099.335758	-0.005630
1099.496746	-0.004960
1099.657715	-0.005347
1099.818666	-0.003375
1099.979599	-0.006055
1100.140513	-0.007588
1100.301409	-0.008228
1100.462287	-0.006988
1100.623147	-0.006889
1100.783989	-0.005612
1100.944812	-0.005106
1101.105617	-0.008477
1101.266404	-0.006372
1101.427173	-0.003987
1101.587923	-0.004669
1101.748656	-0.005219
1101.909370	-0.007437
1102.070066	-0.008095
1102.230743	-0.011539
1102.391403	-0.012270
1102.552044	-0.007443
1102.712667	-0.008921
1102.873271	-0.006078
1103.033858	-0.006680
1103.194426	-0.005559
1103.354976	-0.003900
1103.515508	-0.002037
1103.676021	0.000185
1103.836517	-0.002065
1103.996994	-0.004068
1104.157453	-0.003778
1104.317893	-0.005591
1104.478316	-0.005020
1104.638720	-0.004663
1104.799106	-0.004960
1104.959474	-0.006215
1105.119823	-0.007913
1105.280155	-0.005159
1105.440468	-0.005491
1105.600763	-0.004213
1105.761039	-0.004863
1105.921298	-0.007478
1106.081538	-0.007543
1106.241760	-0.007721
1106.401964	-0.008095
1106.562149	-0.006096
1106.722316	-0.008597
1106.882465	-0.009114
1107.042596	-0.011840
1107.202709	-0.008112
1107.362803	-0.005898
1107.522879	-0.007424
1107.682937	-0.007657
1107.842977	-0.006453
1108.002999	-0.004276
1108.163002	-0.004515
1108.322987	-0.003236
1108.482954	-0.004226
1108.642902	-0.005809
1108.802833	-0.007138
1108.962745	-0.008681
1109.122639	-0.009601
1109.282515	-0.012641
1109.442372	-0.014340
1109.602211	-0.010712
1109.762032	-0.013630
1109.921835	-0.011346
1110.081620	-0.013274
1110.241386	-0.013025
1110.401134	-0.008535
1110.560864	-0.009366
1110.720576	-0.009912
1110.880269	-0.013258
1111.039945	-0.014001
1111.199602	-0.006792
1111.359240	-0.007703
1111.518861	-0.009118
1111.678463	-0.007034
1111.838047	-0.007965
1111.997613	-0.004159
1112.157161	-0.000848
1112.316690	0.000083
1112.476202	0.002821
1112.635695	-0.004265
1112.795169	-0.000504
1112.954626	0.000727
1113.114064	-0.000624
1113.273484	-0.000272
1113.432886	-0.000572
1113.592270	-0.002574
1113.751635	0.002166
1113.910983	-0.001933
1114.070312	-0.002078
1114.229622	-0.002416
1114.388915	0.000374
1114.548189	0.001363
1114.707445	0.002563
1114.866683	-0.001238
1115.025903	0.003137
1115.185104	0.000274
1115.344287	-0.001422
1115.503452	-0.002563
1115.662599	-0.004660
1115.821727	-0.006929
1115.980838	-0.006763
1116.139930	-0.009205
1116.299004	-0.006800
1116.458059	-0.007384
1116.617097	-0.009949
1116.776116	-0.009846
1116.935117	-0.003109
1117.094099	-0.006765
1117.253064	-0.005087
1117.412010	-0.006224
1117.570938	-0.004139
1117.729848	-0.004308
1117.888740	-0.007731
1118.047613	-0.006823
1118.206468	-0.000651
1118.365305	-0.003053
1118.524124	-0.002513
1118.682924	-0.003043
1118.841707	-0.001847
1119.000471	-0.004923
1119.159216	-0.006687
1119.317944	-0.003104
1119.476653	-0.000207
1119.635344	-0.005075
1119.794017	-0.003559
1119.952672	-0.001502
1120.111308	-0.006826
1120.269927	-0.008722
1120.428527	-0.005805
1120.587108	-0.004247
1120.745672	-0.005250
1120.904217	-0.005095
1121.062744	-0.002956
1121.221253	-0.006878
1121.379744	-0.002549
1121.538216	0.004441
1121.696671	0.003097
1121.855107	0.002255
1122.013524	0.002656
1122.171924	0.001741
1122.330305	-0.003740
1122.488668	-0.003454
1122.647013	-0.002119
1122.805340	-0.005511
1122.963648	-0.007750
1123.121938	-0.005595
1123.280210	-0.006095
1123.438464	-0.002930
1123.596700	-0.003681
1123.754917	-0.000056
1123.913116	-0.001805
1124.071297	0.000462
1124.229459	0.000719
1124.387604	0.002827
1124.545730	0.003462
1124.703838	0.002251
1124.861928	0.003385
1125.019999	0.006756
1125.178052	0.004051
1125.336088	0.001865
1125.494104	0.001379
1125.652103	0.000767
1125.810083	-0.003874
1125.968045	-0.003861
1126.125989	-0.002790
1126.283915	-0.008103
1126.441823	-0.009219
1126.599712	-0.005601
1126.757583	-0.003689
1126.915436	-0.002123
1127.073270	-0.004657
1127.231087	-0.004185
1127.388885	-0.007206
1127.546665	-0.007703
1127.704426	-0.006887
1127.862170	-0.009707
1128.019895	-0.006470
1128.177602	-0.003030
1128.335291	-0.007427
1128.492961	-0.005490
1128.650614	-0.003097
1128.808248	0.001047
1128.965864	0.001518
1129.123461	0.007087
1129.281041	0.011623
1129.438602	0.007906
1129.596145	0.006744
1129.753670	0.008465
1129.911176	0.009512
1130.068665	0.012940
1130.226135	0.013990
1130.383587	0.016166
1130.541020	0.007958
1130.698436	0.002374
1130.855833	0.002784
1131.013212	0.002214
1131.170573	0.002636
1131.327915	-0.000094
1131.485239	-0.003807
1131.642545	-0.002342
1131.799833	-0.004497
1131.957103	-0.004585
1132.114354	-0.002234
1132.271588	-0.003354
1132.428803	-0.008849
1132.585999	-0.008957
1132.743178	-0.007453
1132.900338	-0.007793
1133.057480	-0.014040
1133.214604	-0.012355
1133.371710	-0.012863
1133.528797	-0.017485
1133.685866	-0.022230
1133.842917	-0.019095
1133.999950	-0.020723
1134.156964	-0.020845
1134.313960	-0.024329
1134.470938	-0.021884
1134.627898	-0.023701
1134.784840	-0.020063
1134.941763	-0.017655
1135.098668	-0.013651
1135.255555	-0.011077
1135.412424	-0.009649
1135.569274	-0.009767
1135.726107	-0.007309
1135.882921	-0.004905
1136.039716	-0.006705
1136.196494	-0.011512
1136.353253	-0.007441
1136.509995	-0.008082
1136.666717	-0.010361
1136.823422	-0.013981
1136.980109	-0.012985
1137.136777	-0.014825
1137.293427	-0.018126
1137.450059	-0.013866
1137.606672	-0.007886
1137.763267	-0.009890
1137.919844	-0.009319
1138.076403	-0.009980
1138.232944	-0.007787
1138.389466	-0.006339
1138.545971	-0.003101
1138.702457	-0.003923
1138.858924	-0.004669
1139.015374	-0.006360
1139.171805	-0.005332
1139.328218	-0.003823
1139.484613	-0.003635
1139.640990	-0.003236
1139.797348	-0.006312
1139.953688	-0.006148
1140.110010	-0.000993
1140.266314	-0.003852
1140.422600	-0.003676
1140.578867	-0.004304
1140.735116	-0.006899
1140.891347	-0.006542
1141.047559	-0.003053
1141.203754	-0.004212
1141.359930	-0.004738
1141.516088	-0.004950
1141.672228	-0.004121
1141.828349	-0.010198
1141.984452	-0.010419
1142.140537	-0.010958
1142.296604	-0.008808
1142.452653	-0.013093
1142.608683	-0.007333
1142.764695	-0.006950
1142.920689	-0.013867
1143.076665	-0.013532
1143.232622	-0.010395
1143.388562	-0.010235
1143.544483	-0.009088
1143.700385	-0.007509
1143.856270	-0.005946
1144.012136	-0.006432
1144.167985	-0.010126
1144.323814	-0.012285
1144.479626	-0.010864
1144.635420	-0.008171
1144.791195	-0.008603
1144.946952	-0.009413
1145.102691	-0.013348
1145.258411	-0.013742
1145.414113	-0.016341
1145.569798	-0.004067
1145.725463	0.003566
1145.881111	0.001406
1146.036741	-0.000598
1146.192352	0.000730
1146.347945	0.001917
1146.503519	0.003375
1146.659076	0.006702
1146.814614	0.007168
1146.970134	-0.002663
1147.125636	-0.004741
1147.281120	0.000594
1147.436585	-0.003023
1147.592032	-0.001943
1147.747461	-0.002951
1147.902872	-0.003086
1148.058265	-0.007269
1148.213639	-0.009313
1148.368995	-0.005596
1148.524333	-0.001550
1148.679653	-0.003227
1148.834954	-0.000163
1148.990237	-0.001970
1149.145502	0.001221
1149.300749	-0.000816
1149.455977	-0.001063
1149.611188	0.000010
1149.766380	-0.003831
1149.921553	-0.005298
1150.076709	-0.005989
1150.231846	0.002335
1150.386966	-0.000093
1150.542066	0.000371
1150.697149	0.001289
1150.852214	0.003223
1151.007260	0.001575
1151.162288	-0.003885
1151.317298	-0.001613
1151.472289	-0.002427
1151.627263	-0.004028
1151.782218	-0.001313
1151.937155	-0.004678
1152.092073	-0.003495
1152.246974	-0.002948
1152.401856	-0.002272
1152.556720	0.006327
1152.711566	-0.001390
1152.866393	-0.005310
1153.021203	-0.011420
1153.175994	-0.010012
1153.330767	-0.008887
1153.485521	-0.011549
1153.640258	-0.012748
1153.794976	-0.010230
1153.949676	-0.013490
1154.104358	-0.009272
1154.259021	-0.003642
1154.413667	-0.001253
1154.568294	-0.008733
1154.722903	-0.008497
1154.877493	-0.007721
1155.032066	-0.004165
1155.186620	-0.013731
1155.341156	-0.013560
1155.495674	-0.018107
1155.650173	-0.022907
1155.804654	-0.024437
1155.959118	-0.019614
1156.113562	-0.018323
1156.267989	-0.014302
1156.422397	-0.018521
1156.576788	-0.009953
1156.731160	-0.013365
1156.885513	-0.011497
1157.039849	-0.007257
1157.194166	0.002196
1157.348465	-0.002671
1157.502746	-0.006199
1157.657009	-0.011333
1157.811253	-0.013040
1157.965479	-0.014817
1158.119687	-0.008191
1158.273877	-0.006523
1158.428048	-0.008245
1158.582201	-0.017675
1158.736337	-0.010963
1158.890453	-0.010849
1159.044552	-0.006684
1159.198632	-0.003488
1159.352694	-0.001520
1159.506738	-0.002286
1159.660764	-0.003517
1159.814771	-0.001972
1159.968761	-0.004308
1160.122732	-0.007970
1160.276685	-0.002321
1160.430619	-0.003546
1160.584535	-0.000839
1160.738434	-0.006074
1160.892313	-0.012712
1161.046175	-0.005290
1161.200019	-0.006857
1161.353844	-0.002333
1161.507651	-0.002176
1161.661440	-0.009304
1161.815210	-0.013339
1161.968962	-0.016764
1162.122697	-0.012345
1162.276412	-0.007910
1162.430110	-0.014327
1162.583789	-0.021788
1162.737451	-0.023878
1162.891094	-0.029567
1163.044718	-0.026419
1163.198325	-0.020816
1163.351913	-0.019553
1163.505483	-0.022178
1163.659035	-0.021153
1163.812569	-0.015492
1163.966084	-0.011432
1164.119581	-0.006923
1164.273060	0.001863
1164.426521	0.005622
1164.579964	-0.000200
1164.733388	-0.000026
1164.886794	-0.000860
1165.040182	0.000141
1165.193551	-0.006949
1165.346903	-0.011464
1165.500236	-0.019584
1165.653551	-0.017985
1165.806848	-0.020079
1165.960126	-0.018592
1166.113386	-0.022142
1166.266628	-0.023476
1166.419852	-0.024383
1166.573058	-0.027026
1166.726245	-0.022582
1166.879414	-0.016540
1167.032565	-0.020740
1167.185698	-0.022808
1167.338812	-0.020497
1167.491909	-0.015878
1167.644987	-0.008792
1167.798046	-0.014064
1167.951088	-0.008439
1168.104111	-0.003248
1168.257117	-0.001941
1168.410103	0.001661
1168.563072	-0.000577
1168.716023	-0.007662
1168.868955	-0.010150
1169.021869	-0.006870
1169.174765	-0.009424
1169.327642	-0.013792
1169.480501	-0.017559
1169.633343	-0.021161
1169.786165	-0.023088
1169.938970	-0.020827
1170.091757	-0.015278
1170.244525	-0.018480
1170.397275	-0.023537
1170.550007	-0.010213
1170.702720	-0.004226
1170.855415	0.001316
1171.008092	0.009460
1171.160751	0.016572
1171.313392	0.025022
1171.466014	0.030409
1171.618619	0.057204
1171.771205	0.057204
1171.923772	0.057204
