sample name	sample
index	673
start time	 03-22-2021  11:18:55 AM
880	0.138623
Peak Time (s)	180.037
Peak Height 	0.1386
calc peak height	180,183
Baseline Time (s)	11.037
Baseline Value 	7.7781E-4
subtract baseline	10,4
Abs	0.070616
Peak Time (s)	182.036
Peak Height 	0.07062
calc peak height	180,183
Baseline Time (s)	11.534
Baseline Value 	0.003905
subtract baseline	10,3
PK_550	0.045039
Peak Time (s)	182.536
Peak Height 	0.04504
calc peak height	180,183
Baseline Time (s)	9.537
Baseline Value 	9.4205E-4
subtract baseline	10,2
PK_880	0.068191
Peak Time (s)	181.036
Peak Height 	0.06819
calc peak height	180,183
Baseline Time (s)	8.536
Baseline Value 	0.002158
subtract baseline	10,1


Time (s)	A880-A510	A880-A775	A880-A975	A880	I510	I775	I975	I880	
0.035500	-0.003763	-0.001270	-0.006361	0.003372	7301.860396	45303.764072	3926.151996	23918.624750
0.536000	-0.003518	-0.000717	-0.008461	0.002173	7316.811097	45475.370614	3923.780438	23976.986012
1.039500	-0.002899	-0.000814	0.000582	0.001245	7332.870227	45557.007053	3950.286235	24022.249597
1.537000	0.000439	0.000181	-0.002878	-0.001589	7397.546335	45935.125931	3948.602590	24161.125959
2.037000	-0.003604	-0.001165	-0.004374	0.002565	7311.850043	45393.018265	3933.531590	23957.875335
2.537000	0.001554	-0.000048	-0.003690	-0.001489	7408.275776	45902.652327	3946.158528	24156.248085
3.037500	0.001467	0.000118	0.005362	-0.002889	7422.182180	46058.104659	3974.502893	24225.172185
3.535000	-0.000674	-0.000677	0.000076	-0.001037	7380.001987	45795.488002	3955.068719	24134.000840
4.035500	-0.003502	0.000100	-0.000524	0.002128	7317.432358	45560.010681	3944.949260	23979.144177
4.538500	-0.000493	-0.000445	-0.003126	-0.000718	7378.563855	45786.979268	3945.604347	24118.363789
5.036000	0.000839	0.000028	0.003820	-0.000382	7389.030690	45800.438202	3963.440291	24101.863510
5.536000	-0.001935	-0.000641	-0.001966	-0.001093	7367.368443	45804.683075	3949.721537	24136.787690
6.036500	0.001146	0.000133	-0.000884	-0.000470	7393.197552	45819.551328	3950.954766	24106.174670
6.536500	-0.001125	-0.000773	-0.002265	-0.000904	7373.871090	45772.853587	3948.409572	24127.477073
7.037500	0.001378	-0.000283	0.002118	-0.000452	7395.452603	45776.640399	3959.009725	24105.288552
7.535000	0.000688	0.000152	0.002626	-0.000140	7384.902317	45788.779372	3959.542492	24090.010661
8.036000	0.000729	-0.000096	-0.000817	0.000059	7383.236857	45744.602242	3949.712224	24080.244146
8.535500	0.000000	-0.000272	0.003859	-0.000224	7378.548094	45755.191564	3963.117447	24094.129781
9.038500	0.000531	0.001129	0.002262	0.000509	7376.425359	45821.259128	3956.801199	24058.246750
9.536500	0.002402	0.000000	-0.002033	0.000367	7397.624351	45723.757787	3945.625227	24065.206718
10.035500	-0.001028	0.000316	0.002282	-0.000112	7366.584578	45802.278334	3958.535039	24088.661275
10.536500	-0.000710	-0.000183	-0.003079	-0.000022	7368.970760	45744.002128	3943.866376	24084.227569
11.037000	0.001368	-0.000168	-0.004005	0.000000	7390.587501	45743.327013	3941.334489	24083.156819
11.534500	-0.000626	0.000278	0.000000	0.000228	7367.236078	45764.864106	3951.456272	24071.994259
12.037500	-0.000462	-0.000066	0.002299	-0.000122	7372.630147	45765.581721	3958.608214	24089.158179
12.534500	-0.000241	-0.000118	0.002108	0.000636	7366.995607	45685.520440	3956.042743	24052.039256
13.035000	0.001966	0.000041	0.002745	-0.001945	7417.470195	45956.725610	3964.768868	24178.677886
13.535500	0.001499	0.000550	-0.001581	-0.000261	7394.715132	45840.153240	3948.520910	24095.940756
14.035500	0.001542	0.000521	0.007243	0.000098	7391.389598	45801.773216	3971.470687	24078.342956
14.535500	0.000183	0.000836	0.002218	0.003639	7340.037467	45483.937961	3948.249536	23905.648932
15.036500	0.001383	0.000560	0.000403	0.000639	7384.011335	45752.111396	3951.435237	24051.872001
15.536000	0.001210	0.000460	0.005262	-0.000757	7396.898097	45880.335017	3968.391901	24120.264345
16.036500	0.001197	0.000431	-0.006693	-0.000182	7390.699954	45820.581029	3934.667596	24092.076388
16.537500	0.002522	0.000556	0.001478	0.001260	7389.472451	45690.464323	3952.658843	24021.527780
17.037500	0.002473	0.000399	-0.000739	-0.000281	7405.214527	45827.136343	3950.835905	24096.912239
17.538000	0.003602	0.000942	0.005876	-0.001892	7434.275146	46040.986811	3973.179877	24176.069834
18.038500	0.001469	0.000433	0.004965	0.000415	7387.281235	45761.760611	3964.389820	24062.857061
18.535500	0.001519	0.000465	0.002877	0.002432	7366.621931	45566.132216	3953.270723	23964.369865
19.036000	0.001040	0.000459	0.003274	0.002279	7363.200198	45580.530470	3954.752485	23971.798998
19.536500	0.000651	0.000331	0.001923	0.002387	7357.998773	45557.339758	3950.822374	23966.543551
20.036500	0.001160	0.001036	0.000404	0.002727	7359.771202	45593.196699	3945.832068	23949.991657
20.537000	0.000806	0.001343	0.000713	0.003099	7352.168230	45586.860014	3945.662719	23931.882396
21.037000	0.001681	0.000486	0.001403	0.002658	7365.939848	45545.899649	3948.695149	23953.323658
21.534500	0.001704	0.000275	0.002602	0.002407	7368.819916	45549.900605	3952.595359	23965.581935
22.035000	0.000919	0.001356	0.000648	0.003411	7350.090851	45557.384656	3944.652874	23916.697637
22.541000	0.001853	0.000605	-0.000411	0.002991	7364.251758	45524.813291	3942.943150	23937.126142
23.035500	0.001295	0.000274	-0.003992	0.003014	7358.179361	45490.074492	3933.355184	23936.021702
23.535500	0.000752	0.000873	-0.001248	0.003264	7349.877110	45524.282611	3939.980678	23923.831285
24.036000	0.000665	0.000863	0.002657	0.003155	7350.113283	45534.059104	3950.729816	23929.147107
24.536500	0.000907	0.000787	0.004583	0.003667	7347.305845	45476.437834	3954.541668	23904.293077
25.036500	0.002218	0.000204	0.001347	0.002967	7368.325782	45487.815631	3947.714446	23938.284159
25.537000	0.000077	0.001131	-0.001530	0.003584	7339.507462	45518.258197	3938.379745	23908.304026
26.037500	0.002096	0.000728	0.002575	0.003585	7360.575770	45478.573738	3949.351286	23908.241878
26.537500	0.001647	0.000481	0.005339	0.003468	7357.105122	45465.852669	3957.118414	23913.935602
27.038000	0.001708	0.000719	0.000529	0.003542	7356.975573	45481.899763	3943.984945	23910.346351
27.535000	-0.000226	0.000799	0.000006	0.003691	7335.239511	45475.157899	3942.188895	23903.106334
28.035500	0.000637	0.000977	0.004073	0.003242	7348.912262	45536.720267	3954.309729	23924.904831
28.536000	0.005572	0.001014	0.002680	0.001986	7414.016297	45664.039340	3953.940460	23986.073701
29.044000	0.004938	0.000910	0.006024	0.002006	7407.096495	45651.761573	3962.941109	23985.103868
29.536500	0.002554	0.001514	0.005019	0.002153	7380.408816	45696.860645	3959.813867	23977.941884
30.036500	0.000975	0.001171	0.000159	0.005482	7329.094828	45336.051089	3937.820608	23816.266901
30.536500	0.002880	0.001244	0.005297	0.002911	7375.870156	45595.594922	3958.512575	23941.032141
31.037500	0.003839	0.002169	0.003552	0.002780	7387.330496	45699.665017	3954.149779	23947.399727
31.537500	0.000315	0.001119	-0.002928	0.006032	7316.538708	45277.237868	3928.186664	23789.694426
32.035000	0.001214	0.001804	0.002171	0.006759	7318.317116	45273.187655	3939.780671	23754.608924
32.568500	0.003686	0.001433	0.005154	0.003006	7383.338688	45604.758867	3957.868986	23936.384773
33.035500	0.004239	0.001408	0.003618	0.002238	7397.264658	45678.084290	3955.794279	23973.822100
33.536000	0.001467	0.000921	0.000377	0.002155	7368.970710	45638.155365	3947.290247	23977.842228
34.036500	-0.001136	0.001046	-0.002170	0.007951	7281.738804	45083.130449	3925.130341	23697.195202
34.536500	0.002936	0.001312	0.004746	0.003614	7369.085684	45533.125479	3955.122667	23906.867257
35.037000	0.000945	0.000943	0.000953	0.005626	7327.288307	45299.704356	3939.552416	23809.315297
35.534500	0.002580	0.001925	0.005572	0.006310	7337.187982	45328.956379	3950.086606	23776.292696
36.037000	0.002573	0.000834	0.003862	0.005855	7341.851152	45266.666747	3946.715255	23798.243159
36.534500	-0.000811	0.000640	0.000484	0.005279	7312.665925	45304.007494	3939.228075	23826.098092
37.035500	0.002982	0.002297	-0.001693	0.007082	7333.334172	45289.785864	3928.676602	23739.020449
37.535500	0.000019	0.001803	-0.000030	0.006701	7306.542143	45278.672290	3934.082466	23757.395140
38.035500	0.001297	0.002484	0.003990	0.007074	7315.920163	45308.861343	3943.792977	23739.416552
38.536000	0.001354	0.001926	0.006658	0.006436	7323.124953	45316.741179	3952.669360	23770.208168
39.036500	0.001281	0.002284	-0.000932	0.006412	7322.608487	45353.968747	3932.458398	23771.334895
39.536500	0.002494	0.001735	0.000902	0.006615	7333.113910	45280.550746	3936.787162	23761.555893
40.037000	0.002470	0.001924	0.001646	0.006269	7336.461678	45332.768845	3939.686753	23778.237917
40.539000	0.002682	0.002625	0.000462	0.006842	7332.707575	45345.358517	3935.015985	23750.620354
41.037500	0.001295	0.002020	0.003945	0.006881	7317.895316	45282.362349	3944.189599	23748.707494
41.535000	0.003707	0.002081	0.003146	0.007169	7339.978176	45260.191450	3941.287306	23734.852058
42.035500	0.002509	0.002250	0.005875	0.006624	7333.179672	45329.987673	3950.053694	23761.113498
42.536000	0.001682	0.001635	0.004425	0.006297	7327.971972	45301.810230	3947.040354	23776.898819
43.036000	0.003180	0.002642	0.006942	0.007080	7335.420049	45323.743201	3951.700535	23739.142063
43.536000	0.003762	0.002938	0.004303	0.007453	7337.597430	45316.205463	3943.618963	23721.171898
44.036500	0.003448	0.001868	0.000013	0.006707	7342.085200	45284.438597	3934.181186	23757.104261
44.537000	0.005236	0.002034	0.005058	0.004311	7385.923343	45535.558913	3954.083506	23873.027002
45.039500	0.004782	0.003056	0.007580	0.003272	7392.082107	45738.627779	3963.728725	23923.453895
45.537500	0.005425	0.001986	0.007328	0.004091	7390.229092	45552.552083	3960.820046	23883.703037
46.034500	0.002871	0.001786	0.007770	0.005338	7350.353704	45410.433991	3958.635412	23823.236462
46.535000	0.001377	0.001565	0.000872	0.004532	7343.169271	45467.817551	3942.253136	23862.278654
47.035500	0.004099	0.002217	0.006398	0.004240	7374.708563	45560.534623	3957.895581	23876.431407
47.536000	0.005740	0.002331	0.008119	0.004681	7387.327531	45528.373290	3961.363553	23855.062940
48.059000	0.002289	0.001986	0.003109	0.004805	7349.841289	45482.306186	3947.509792	23849.041973
48.536500	0.003597	0.002496	0.004583	0.008328	7326.768234	45187.575896	3942.027808	23679.070239
49.036500	0.003358	0.002411	0.006732	0.007734	7330.458304	45237.185126	3949.372321	23707.608633
49.588000	0.004994	0.002217	0.006927	0.004359	7382.874248	45548.824450	3959.006420	23870.692652
50.036500	0.003026	0.002561	0.003770	0.006589	7338.927555	45363.852705	3944.503044	23762.805532
50.536500	0.003904	0.002389	0.008965	0.007382	7339.800207	45269.422321	3956.340266	23724.561625
51.035000	0.006307	0.003099	0.008653	0.003827	7402.314745	45688.066283	3965.138740	23896.481376
51.535500	0.006645	0.002831	0.005389	0.006166	7381.231022	45431.683698	3949.981121	23783.233318
52.035500	0.002270	-0.001076	0.009988	0.014967	7244.754897	44203.748967	3938.736174	23362.411594
52.535000	-0.048927	-0.013964	0.009542	0.180678	5502.988383	30260.126244	3571.165369	16842.222239
53.036000	-0.051143	-0.010315	-0.015854	0.032007	6581.292818	41775.560271	3830.026398	22571.522220
53.536500	-0.041561	-0.135675	-0.020445	-0.300277	11091.076056	65535.000000	5010.195097	45285.270126
54.039500	-0.039313	-0.157985	-0.010440	-0.322587	11572.583655	65535.000000	5182.271013	47524.356315
54.537000	-0.051331	-0.156120	-0.018174	-0.320722	11297.032718	65535.000000	5129.814873	47332.735583
55.040000	-0.048980	-0.145450	-0.011623	-0.310052	11136.088737	65535.000000	5107.659770	46252.146877
55.534500	-0.027232	-0.121585	-0.015536	-0.286187	11095.645597	65535.000000	4963.598317	43929.239219
56.035500	-0.016886	-0.119808	-0.019133	-0.284411	11260.663650	65535.000000	4936.775770	43761.370392
56.535500	-0.011170	-0.120660	-0.014901	-0.285262	11389.366393	65535.000000	4962.141809	43841.767673
57.035500	-0.011274	-0.091181	-0.012590	-0.255783	10824.718006	65535.000000	4829.968874	41148.869734
57.536000	-0.015521	-0.056087	-0.010938	-0.212581	9995.649171	64375.497328	4643.160518	37518.363801
58.036000	-0.013247	-0.037982	-0.007706	-0.183911	9572.150010	62896.717473	4537.304114	35300.852494
58.539500	-0.014058	-0.021946	-0.011514	-0.144995	8981.424188	59815.168083	4372.900220	32515.879830
59.037000	-0.013340	-0.013926	-0.009534	-0.109792	8510.667177	56358.913914	4255.774013	30202.797765
59.539500	-0.006765	-0.009548	-0.006128	-0.093337	8382.530013	54891.347242	4212.163840	29184.197532
60.035000	-0.003056	-0.004926	-0.009284	-0.060771	8024.569780	51648.247370	4099.279088	27278.650430
60.535000	-0.009787	-0.004212	-0.011143	-0.040461	7710.057907	49495.291681	4033.750261	26160.593893
61.035500	-0.009927	-0.003962	-0.007157	-0.029665	7588.311035	48376.196795	4014.282434	25587.191010
61.535500	-0.010641	-0.003424	-0.006376	-0.017030	7443.805097	47125.591924	3981.114633	24934.013488
62.036000	-0.012793	-0.001784	-0.004876	0.007827	7164.654705	44820.740899	3918.354365	23703.142772
62.539000	-0.009203	-0.000314	-0.002661	0.022003	7059.905625	43610.643699	3887.501316	23032.107679
63.039500	-0.002481	0.003256	0.003990	0.027162	7075.215081	43461.770467	3891.303321	22793.279407
63.537000	0.003808	0.004976	-0.003940	0.022309	7185.942238	44081.093734	3883.474809	23017.853673
64.037000	0.005389	0.005891	0.000760	0.020874	7216.403833	44304.827684	3899.138686	23084.735752
64.543000	0.006895	0.005478	0.002904	0.019641	7244.261356	44383.215954	3907.856082	23142.406213
65.122500	0.007474	0.005585	0.006187	0.016160	7285.865051	44727.711117	3925.520061	23306.045519
65.540000	0.008033	0.005981	0.007624	0.016031	7292.957240	44778.395881	3929.647389	23312.146620
66.035500	0.006158	0.005476	0.004341	0.014605	7288.331620	44867.400536	3924.752654	23379.578273
66.536000	0.008295	0.006704	0.011485	0.015174	7304.510270	44931.257910	3942.177930	23352.646607
67.036000	0.009176	0.005984	0.001473	0.013901	7326.825103	44984.756402	3919.074589	23412.917086
67.539000	0.007663	0.006705	0.011759	0.013294	7317.428208	45113.855804	3947.943974	23441.769822
68.037000	0.010077	0.006393	0.006547	0.013351	7341.931688	45077.988005	3933.888776	23439.058958
68.537000	0.011013	0.006291	0.003312	0.013796	7347.053664	45024.788545	3924.174736	23417.920697
69.037000	0.013745	0.007473	0.007159	0.014662	7366.576031	45055.491670	3932.038262	23376.860971
69.537500	0.011749	0.008000	0.007636	0.015601	7335.904795	45015.429719	3930.813674	23332.424273
70.035000	0.011275	0.008351	0.005785	0.016845	7318.059105	44928.858003	3922.662988	23273.738053
70.535500	0.012197	0.009255	0.007001	0.018294	7312.591318	44876.010309	3922.048026	23205.538230
71.035500	0.014290	0.008930	0.005952	0.018736	7329.730172	44801.878703	3918.144064	23184.804136
71.536000	0.015291	0.009984	0.012693	0.020151	7325.430648	44767.040385	3932.156813	23118.517709
72.039000	0.013158	0.010414	0.006873	0.021487	7289.535012	44679.704821	3913.369464	23056.123120
72.536500	0.014202	0.010394	0.006093	0.022618	7288.646105	44569.027867	3908.403653	23003.486531
73.036500	0.017671	0.011196	0.013109	0.023409	7316.311330	44570.048193	3924.657083	22966.704452
73.537000	0.014939	0.011446	0.011137	0.024493	7276.932942	44490.042430	3916.649151	22916.469714
74.034500	0.019050	0.012411	0.014894	0.025511	7308.835189	44484.970793	3923.825366	22869.390099
74.535000	0.017332	0.011515	0.012581	0.025126	7295.053937	44435.893414	3918.769767	22887.165617
75.035000	0.018281	0.012343	0.012198	0.026317	7292.557575	44401.203596	3914.659877	22832.194380
75.535500	0.018971	0.012204	0.013399	0.027484	7287.645633	44276.462703	3914.747323	22778.467885
76.035500	0.019516	0.012866	0.010276	0.027857	7289.421719	44304.047612	3905.669125	22761.314015
76.538500	0.017206	0.012792	0.017280	0.028857	7255.436955	44201.630367	3921.302859	22715.393227
77.036500	0.019928	0.012834	0.013273	0.028108	7291.080311	44277.075580	3912.793353	22749.784925
77.536500	0.018497	0.013170	0.012854	0.030429	7252.573389	44088.149827	3905.685357	22643.501793
78.037000	0.019959	0.013374	0.018998	0.029889	7273.072956	44158.800975	3923.104539	22668.157680
78.534000	0.020790	0.013822	0.014773	0.030618	7274.114289	44132.041366	3910.167238	22634.850273
79.034500	0.021556	0.013735	0.016678	0.031173	7276.295277	44071.170921	3913.680964	22609.554244
79.537000	0.020006	0.014360	0.015231	0.033753	7234.051297	43885.969761	3903.238369	22492.234168
80.035000	0.019915	0.014703	0.016247	0.032935	7241.466814	43995.821307	3907.981553	22529.359979
80.535500	0.020625	0.014162	0.014595	0.032976	7248.291455	43940.711329	3903.602457	22527.500093
81.038500	0.022050	0.015229	0.017835	0.034463	7247.656507	43900.980947	3908.137080	22460.096204
81.535500	0.020379	0.014494	0.018366	0.036771	7207.224781	43614.420350	3903.542949	22355.943626
82.036000	0.021766	0.015008	0.018573	0.035537	7233.809295	43778.775150	3907.265392	22411.534398
82.536000	0.020656	0.014467	0.021252	0.036338	7214.404125	43652.530182	3912.141347	22375.429342
83.036000	0.020633	0.015183	0.016735	0.036486	7212.674236	43705.806108	3900.070621	22368.740043
83.537500	0.020394	0.015273	0.023312	0.039907	7175.762467	43393.681313	3908.222357	22215.270458
84.037500	0.021476	0.015892	0.022552	0.038310	7202.743137	43601.111819	3910.392566	22286.749789
84.535000	0.021747	0.016733	0.022355	0.039741	7191.048898	43545.857131	3906.175743	22222.705663
85.035500	0.022765	0.016088	0.019452	0.038692	7211.932023	43583.710174	3901.388749	22269.665857
85.538500	0.022879	0.015645	0.020617	0.042525	7174.430513	43184.620863	3894.535447	22098.631949
86.036000	0.021828	0.015929	0.023547	0.040329	7185.937347	43415.564075	3907.739408	22196.435714
86.536500	0.022343	0.015735	0.018857	0.041084	7183.520483	43326.985582	3893.718086	22162.725674
87.036500	0.025337	0.016621	0.023168	0.041209	7212.484063	43398.058059	3904.481581	22157.188734
87.537000	0.022120	0.016665	0.026659	0.045431	7137.790638	43009.869113	3902.594246	21969.994368
88.034000	0.023633	0.017354	0.023547	0.043023	7177.008301	43297.282769	3900.781154	22076.542359
88.537500	0.023884	0.017265	0.019119	0.043395	7175.783761	43254.258808	3888.486082	22060.009414
89.037500	0.024849	0.017096	0.021376	0.043672	7182.705392	43212.820974	3893.542730	22047.757758
89.535000	0.024641	0.017204	0.022549	0.044351	7173.789982	43159.824964	3894.808114	22017.707961
90.038500	0.024364	0.017437	0.024984	0.044510	7169.408737	43166.585742	3900.649744	22010.649063
90.535500	0.024849	0.016895	0.027661	0.045035	7169.012679	43067.769108	3906.204972	21987.473562
91.036000	0.024221	0.018153	0.029853	0.046763	7145.451369	43024.184731	3907.406872	21911.285617
91.536500	0.023533	0.017417	0.021380	0.046833	7137.894890	42949.716978	3885.494828	21908.208881
92.039000	0.025176	0.017945	0.024358	0.047665	7145.975741	42921.638926	3890.957945	21871.641938
92.537000	0.025503	0.019095	0.025385	0.049077	7135.164085	42897.485841	3889.976863	21809.765273
93.040000	0.027535	0.019208	0.025153	0.049743	7148.785798	42846.521510	3887.689377	21780.670179
93.537500	0.027013	0.019094	0.024519	0.050026	7140.756183	42809.987202	3885.355981	21768.284903
94.034500	0.027331	0.019956	0.027500	0.051239	7131.843886	42777.717415	3889.854852	21715.406889
94.538000	0.025841	0.018685	0.026088	0.051417	7115.297391	42644.662632	3885.809186	21707.660192
95.035500	0.026346	0.019910	0.026058	0.052746	7107.141884	42635.141684	3882.364056	21649.919251
95.536000	0.026161	0.019738	0.032274	0.053358	7099.277639	42563.394202	3896.648335	21623.390608
96.039000	0.026973	0.019936	0.031242	0.053837	7102.557916	42537.709557	3892.777062	21602.634342
96.536000	0.029538	0.020300	0.026506	0.055097	7115.468394	42455.936575	3877.555045	21548.212197
97.037000	0.028337	0.020782	0.029355	0.055818	7096.468275	42434.091625	3882.931078	21517.093368
97.537000	0.024173	0.020309	0.027147	0.061480	7000.675860	41878.880562	3863.170531	21274.764433
98.039500	0.027630	0.020889	0.030822	0.057189	7076.038769	42319.107541	3883.175789	21458.143970
98.537500	0.028918	0.020390	0.029948	0.058267	7078.101028	42176.091474	3878.241754	21411.917173
99.040500	0.028353	0.021163	0.036435	0.058797	7067.365115	42198.037372	3893.373381	21389.219207
99.535500	0.024387	0.020526	0.027835	0.064307	6975.568065	41645.040455	3857.861666	21154.944269
100.041500	0.029466	0.021780	0.031040	0.060609	7060.517647	42089.865830	3875.090240	21311.830053
100.536000	0.028316	0.021870	0.034925	0.061521	7040.403318	42015.685409	3882.594187	21273.003570
101.039000	0.029228	0.021879	0.033666	0.061578	7048.737882	42011.407906	3879.268211	21270.608492
101.536500	0.027797	0.021937	0.029993	0.067033	6982.125209	41527.812635	3856.457591	21040.157343
102.039500	0.031634	0.022105	0.032754	0.063530	7053.162458	41856.041616	3872.057518	21187.778839
102.537000	0.031177	0.022893	0.036686	0.065084	7033.584754	41787.394810	3878.041076	21122.161827
103.037000	0.032094	0.023345	0.038561	0.065306	7040.334789	41807.907896	3882.217842	21112.782838
103.537500	0.027003	0.022094	0.038107	0.071299	6933.847124	41163.570797	3866.015123	20861.927366
104.038000	0.030119	0.022244	0.035167	0.066287	7011.674280	41621.616794	3871.194471	21071.479310
104.535500	0.030859	0.023433	0.033426	0.067555	7006.565594	41614.565132	3863.677304	21018.215779
105.038500	0.031771	0.024019	0.039713	0.068385	7007.363540	41592.800821	3877.349031	20983.460298
105.536000	0.028150	0.022968	0.030844	0.074211	6917.133529	40984.053345	3840.922645	20741.248671
106.039000	0.032187	0.024545	0.036647	0.070347	6992.468276	41464.918714	3864.748465	20901.554112
106.536500	0.032529	0.023995	0.036305	0.070421	6995.040381	41409.466527	3863.712093	20898.453401
107.039500	0.032465	0.024580	0.039813	0.071515	6983.903864	41364.315818	3869.738703	20852.935245
107.537000	0.029540	0.023939	0.033040	0.077530	6898.959025	40778.551301	3838.192938	20604.745490
108.038000	0.033806	0.024876	0.033427	0.072552	6986.830920	41298.685531	3851.312447	20809.913602
108.535000	0.032212	0.023568	0.037265	0.072912	6968.099237	41151.242052	3859.908796	20795.003569
109.035000	0.033154	0.024981	0.030730	0.073839	6968.239804	41194.133279	3841.553461	20756.624835
109.535500	0.032740	0.025308	0.039145	0.074928	6953.892429	41126.970333	3859.569582	20711.699268
110.036000	0.032310	0.024730	0.037741	0.074763	6951.365434	41090.492055	3856.501693	20718.484884
110.536000	0.031236	0.024473	0.036838	0.075720	6932.059921	40983.720311	3851.911469	20679.051378
111.036500	0.033161	0.025859	0.043916	0.076826	6939.835774	41008.297196	3866.717996	20633.587457
111.539500	0.033731	0.024824	0.037371	0.076775	6945.736675	40921.947790	3850.625428	20635.679656
112.037500	0.033523	0.024758	0.039933	0.076922	6942.371465	40903.386036	3856.584112	20629.680647
112.537000	0.034882	0.025723	0.040424	0.078656	6938.802989	40835.968425	3853.511420	20558.642207
113.035000	0.034513	0.025651	0.038867	0.079216	6929.985162	40780.801061	3848.304203	20535.775274
113.535500	0.034297	0.025260	0.038620	0.079902	6921.450840	40686.891414	3846.018593	20507.802485
114.035500	0.034406	0.026283	0.045567	0.081220	6910.027309	40661.088757	3859.890998	20454.149205
114.536000	0.035092	0.026597	0.042904	0.082022	6908.927180	40618.599231	3851.328817	20421.577928
115.036000	0.035604	0.025575	0.041021	0.081645	6917.326617	40562.588056	3847.630335	20436.885690
115.536000	0.033045	0.027676	0.037779	0.089852	6816.860212	40036.102639	3819.916941	20106.863122
116.037000	0.036998	0.026435	0.043623	0.083613	6911.906263	40466.467596	3849.184687	20357.177261
116.536500	0.035871	0.026980	0.042445	0.084316	6894.673534	40452.827111	3844.574547	20328.791254
117.040000	0.037024	0.026914	0.043762	0.084798	6900.983487	40405.410822	3846.620111	20309.368374
117.537500	0.033576	0.026626	0.044402	0.091126	6810.025245	39837.608989	3832.774301	20056.196033
118.037500	0.035116	0.027729	0.040204	0.086169	6870.248218	40357.429868	3834.611372	20254.212084
118.535500	0.035542	0.027351	0.042473	0.087246	6864.176364	40231.900408	3837.502993	20210.996178
119.036000	0.035874	0.027807	0.041457	0.087992	6860.313117	40206.967801	3833.231172	20181.111735
119.536000	0.034425	0.027444	0.041342	0.094383	6787.930921	39630.490240	3817.608712	19927.319616
120.036000	0.037719	0.027635	0.044563	0.088959	6868.500444	40109.056648	3838.418559	20142.463904
120.536500	0.036896	0.028196	0.046285	0.090501	6846.491350	40025.082613	3838.858233	20081.052409
121.036500	0.038399	0.027691	0.045892	0.089952	6865.579416	40028.799113	3839.234801	20102.876659
121.540000	0.033862	0.027779	0.041546	0.095614	6771.551822	39554.710618	3815.165476	19878.879364
122.037000	0.038407	0.028529	0.043632	0.091666	6849.698749	39953.906333	3829.612717	20034.771979
122.538000	0.036877	0.028283	0.049777	0.091883	6833.498261	39914.382184	3844.002860	20026.166002
123.037500	0.038592	0.028648	0.044280	0.092988	6839.147673	39851.265660	3827.986326	19982.396192
123.535500	0.035157	0.028973	0.041686	0.099135	6751.314564	39358.535393	3807.155444	19741.005350
124.035500	0.037465	0.029315	0.047532	0.094035	6819.045647	39818.834318	3833.307447	19941.029372
124.536000	0.038450	0.028539	0.044034	0.094547	6823.414589	39709.401335	3823.651554	19920.872974
125.035500	0.041219	0.029419	0.045946	0.095664	6838.690200	39689.288941	3825.557738	19876.883215
125.536500	0.037665	0.028871	0.043787	0.099533	6770.495420	39316.540127	3811.182778	19725.528834
126.039500	0.038026	0.029087	0.048580	0.096799	6798.788824	39565.151679	3829.165383	19832.367918
126.537000	0.038156	0.029914	0.046270	0.097929	6789.627262	39539.492192	3820.907404	19788.116334
127.037000	0.040015	0.029188	0.048476	0.097511	6810.522392	39513.475062	3827.201412	19804.468374
127.535000	0.034926	0.029297	0.042475	0.102839	6715.806242	39075.477079	3800.300198	19597.208971
128.035500	0.038995	0.030294	0.048778	0.099326	6784.524554	39453.676415	3823.569582	19733.592608
128.535500	0.039777	0.030019	0.051303	0.099627	6788.918991	39405.200999	3828.913459	19721.864955
129.036000	0.040086	0.030331	0.047705	0.100084	6787.557492	39392.861909	3819.187852	19704.045039
129.536500	0.036118	0.029924	0.048129	0.106139	6696.918626	38853.247974	3805.833788	19470.135493
130.036500	0.040191	0.029294	0.046525	0.100699	6782.897188	39254.212097	3814.911383	19680.149774
130.539500	0.040638	0.030383	0.049085	0.101677	6778.054221	39263.522363	3818.679133	19642.199030
131.037000	0.040496	0.030264	0.047348	0.102477	6769.459374	39186.472548	3812.643504	19611.205306
131.534500	0.036648	0.031418	0.048038	0.109401	6672.568016	38706.926922	3797.964255	19345.437212
132.036500	0.039941	0.031013	0.050145	0.104072	6749.927768	39115.819166	3815.499595	19549.603519
132.537500	0.040292	0.030814	0.051130	0.104275	6751.275581	39082.283085	3817.360248	19541.792421
133.035500	0.041008	0.031042	0.047491	0.104690	6754.001791	39066.600081	3807.745755	19525.800656
133.538500	0.041084	0.031806	0.050094	0.110433	6702.920912	38653.743044	3800.358122	19306.167105
134.036000	0.043203	0.032320	0.048715	0.107077	6752.258414	38974.329716	3805.004394	19434.176208
134.536000	0.041771	0.032068	0.052224	0.107524	6735.260424	38916.162842	3812.239135	19417.063100
135.039500	0.043080	0.031808	0.048682	0.107565	6746.728966	38891.241698	3803.777483	19415.505825
135.536500	0.039550	0.031355	0.046434	0.111639	6678.472029	38517.417442	3789.019636	19260.418200
136.037000	0.041879	0.031008	0.048478	0.107390	6737.440572	38839.358720	3803.709867	19422.188776
136.537500	0.042620	0.031548	0.051343	0.108015	6738.495097	38832.331320	3808.991689	19398.309964
137.035000	0.043591	0.031958	0.053827	0.108590	6742.072960	38818.689242	3813.511731	19376.349328
137.538000	0.042381	0.032253	0.049757	0.109295	6724.791267	38784.715664	3802.237797	19349.453369
138.035500	0.043491	0.032936	0.053692	0.109997	6728.462315	38783.124411	3809.856835	19322.735481
138.536000	0.044356	0.032479	0.057182	0.110130	6735.072524	38734.317426	3817.830959	19317.691955
139.036000	0.043484	0.031859	0.047811	0.110118	6727.318905	38684.147138	3795.758586	19318.158233
139.539000	0.041620	0.032441	0.051876	0.115706	6660.744573	38273.474968	3792.212549	19107.083611
140.036500	0.043958	0.033145	0.053008	0.112197	6712.883880	38618.836903	3803.059445	19239.319196
140.534000	0.044192	0.032634	0.058879	0.112143	6715.461568	38581.150524	3817.076996	19241.328612
141.037500	0.042982	0.032347	0.051378	0.112062	6705.337035	38564.238745	3799.551502	19244.426435
141.540500	0.042778	0.032933	0.054307	0.116288	6665.845798	38266.108911	3796.517197	19085.225885
142.035000	0.046025	0.034000	0.053742	0.113933	6715.856737	38546.297026	3800.708319	19173.767280
142.535000	0.044736	0.034091	0.052437	0.115034	6694.443114	38463.370289	3795.081861	19132.320478
143.036000	0.044292	0.033263	0.059150	0.114017	6699.557086	38478.813754	3813.265747	19170.571695
143.535500	0.043706	0.033164	0.051694	0.116396	6673.124059	38276.182128	3790.184423	19081.190809
144.039000	0.044912	0.034005	0.057789	0.115758	6689.549701	38397.015394	3805.930701	19105.134327
144.536500	0.045373	0.033154	0.055827	0.115583	6695.220902	38341.647399	3801.726806	19111.672682
145.037000	0.044543	0.033647	0.053824	0.115993	6684.157608	38348.467486	3796.078796	19096.291797
145.536500	0.045451	0.034118	0.057000	0.119026	6665.277255	38139.724708	3796.413432	18982.949644
146.034500	0.045058	0.033895	0.059979	0.116847	6681.144137	38298.982347	3808.526538	19064.298192
146.537500	0.044674	0.033889	0.053897	0.117499	6671.931042	38245.361411	3792.742010	19039.928853
147.035500	0.047111	0.034805	0.061756	0.118372	6685.842733	38248.854521	3809.124441	19007.323917
147.535500	0.045870	0.035722	0.057333	0.122486	6638.397773	37989.188868	3789.138807	18854.582672
148.036000	0.048484	0.034509	0.058721	0.119619	6686.966874	38123.261633	3799.049910	18960.868807
148.539000	0.049045	0.036000	0.055057	0.120710	6682.243673	38155.800331	3787.983040	18920.348610
149.036000	0.048998	0.035623	0.057540	0.120646	6682.394715	38130.297364	3793.894765	18922.699893
149.536000	0.047894	0.035003	0.051042	0.122961	6652.067955	37892.768369	3773.578919	18837.045997
150.037000	0.049698	0.035267	0.056574	0.121695	6679.293741	38016.435908	3789.213256	18883.835719
150.537500	0.047857	0.035670	0.057715	0.122413	6656.585320	37990.950501	3790.195767	18857.285897
151.035000	0.049388	0.035663	0.058966	0.122316	6671.017282	37998.191276	3793.328191	18860.871056
151.537500	0.048550	0.036119	0.055426	0.123409	6653.903825	37946.646057	3782.601516	18820.502435
152.035500	0.050159	0.035764	0.058166	0.124002	6662.894780	37870.178302	3787.559736	18798.675206
152.535500	0.050059	0.036033	0.060102	0.124276	6659.577892	37869.753275	3791.410594	18788.571574
153.038500	0.050293	0.037161	0.058605	0.124982	6655.404261	37903.748019	3786.306385	18762.618671
153.536000	0.050510	0.036099	0.057365	0.125634	6651.560777	37765.722931	3781.943055	18738.689138
154.036500	0.052138	0.037017	0.060694	0.125843	6664.118034	37822.757197	3789.149772	18731.032479
154.536500	0.052024	0.037439	0.055510	0.126397	6658.196234	37812.092893	3775.934555	18710.701974
155.037000	0.052226	0.036347	0.061657	0.125992	6663.575381	37756.836631	3791.037176	18725.540930
155.538500	0.052363	0.036842	0.061853	0.128182	6645.419158	37620.901340	3786.417431	18645.479415
156.034500	0.054901	0.038362	0.063362	0.128293	6666.899730	37733.945793	3789.655943	18641.454054
156.535500	0.054771	0.037716	0.057271	0.127762	6670.451753	37724.639225	3776.842305	18660.813703
157.035500	0.054853	0.037369	0.060130	0.128420	6665.340844	37644.018297	3781.895941	18636.817065
157.538500	0.053391	0.038503	0.056171	0.130740	6631.950711	37549.135932	3767.550502	18552.486686
158.036000	0.054146	0.037660	0.056828	0.128802	6655.699970	37636.798763	3773.454945	18622.903873
158.536000	0.055908	0.038365	0.058077	0.129699	6663.365296	37621.367072	3774.257744	18590.279117
159.036500	0.055275	0.039250	0.060403	0.130735	6648.599185	37609.346094	3777.208649	18552.671349
159.536500	0.055355	0.039801	0.059018	0.132571	6633.117640	37506.533868	3769.856476	18486.216473
160.037000	0.055389	0.038286	0.059080	0.130340	6653.088882	37563.796889	3775.082473	18566.981429
160.537500	0.055462	0.037788	0.061072	0.130384	6653.350006	37520.499111	3779.547673	18565.405954
161.034500	0.057733	0.039453	0.064276	0.131750	6661.354718	37544.317331	3783.774858	18515.895196
161.535500	0.056912	0.040720	0.060173	0.134088	6633.474220	37458.885601	3769.033468	18431.561211
162.038500	0.058206	0.039647	0.060823	0.131700	6665.988045	37563.801852	3775.959634	18517.708637
162.536000	0.058372	0.040078	0.065702	0.132357	6661.640991	37545.794270	3785.665430	18493.977399
163.036000	0.059757	0.040742	0.061255	0.132370	6673.815233	37597.843509	3775.415766	18493.500139
163.536500	0.056943	0.039440	0.063300	0.133324	6640.471841	37417.794791	3777.911367	18459.066936
164.036500	0.059363	0.041139	0.064788	0.134210	6654.005409	37482.533275	3779.293047	18427.167572
164.537000	0.059051	0.040162	0.064247	0.133138	6660.732320	37490.177031	3780.512832	18465.781981
165.037500	0.059137	0.040333	0.057466	0.132988	6662.818493	37515.766881	3765.389176	18471.174989
165.535000	0.060443	0.040312	0.059031	0.134572	6660.359484	37387.843062	3765.347019	18414.157790
166.035000	0.060198	0.040846	0.061750	0.134518	6658.672284	37434.647958	3771.642077	18416.087552
166.538000	0.060303	0.040722	0.065752	0.133899	6665.082734	37474.138781	3782.223382	18438.357688
167.035500	0.060830	0.041586	0.066237	0.134066	6668.276151	37529.685396	3782.956292	18432.349895
167.536000	0.061306	0.041796	0.060884	0.135402	6660.654749	37439.929032	3767.663803	18384.348853
168.036500	0.061842	0.041962	0.063164	0.134227	6675.837867	37546.889615	3775.534764	18426.563313
168.536500	0.061868	0.042443	0.063406	0.134853	6670.509215	37535.303405	3774.657379	18404.070433
169.036500	0.062201	0.042110	0.062067	0.134715	6674.693222	37519.719461	3771.916086	18409.026126
169.537000	0.061855	0.041521	0.062656	0.135021	6668.902403	37448.390451	3772.562308	18398.041462
170.034500	0.059954	0.041845	0.060314	0.134417	6657.399670	37522.342521	3768.606945	18419.723790
170.535000	0.064697	0.042526	0.064882	0.135249	6692.166471	37510.284426	3777.127056	18389.846054
171.038000	0.061340	0.041868	0.058485	0.134596	6668.101294	37509.887872	3764.057294	18413.287978
171.535500	0.063411	0.043139	0.058676	0.136383	6670.630562	37468.848807	3760.459496	18349.231616
172.035500	0.065422	0.043102	0.064065	0.136177	6690.360741	37482.311660	3773.138263	18356.604436
172.538500	0.062587	0.042818	0.070315	0.135853	6668.011964	37485.422462	3788.247426	18368.187914
173.036500	0.065953	0.042982	0.064960	0.135110	6704.647837	37557.793532	3777.622485	18394.828012
173.536000	0.063456	0.043304	0.064186	0.136381	6671.041443	37482.048811	3772.949911	18349.282361
174.037000	0.064842	0.043184	0.065772	0.136896	6678.781129	37431.484641	3775.393526	18330.856650
174.537500	0.064142	0.042419	0.064793	0.135584	6684.230090	37475.037267	3776.155218	18377.826078
175.035000	0.064501	0.044050	0.059715	0.136433	6679.871129	37537.542984	3762.687629	18347.442326
175.538000	0.065290	0.043774	0.069118	0.136720	6684.341012	37492.559012	3783.479591	18337.152617
176.035000	0.064719	0.042154	0.066967	0.135524	6689.907665	37458.668858	3781.278655	18379.969114
176.535000	0.066717	0.044355	0.067473	0.137369	6691.278009	37487.142384	3778.204982	18313.965806
177.035500	0.067015	0.044589	0.065155	0.138283	6685.778996	37432.910878	3770.823132	18281.357051
177.536000	0.065305	0.044071	0.059699	0.137602	6676.624203	37445.951158	3760.016741	18305.669359
178.036500	0.066987	0.044060	0.065330	0.137183	6695.353662	37478.453711	3773.730693	18320.617778
178.537000	0.066854	0.044639	0.064294	0.137648	6690.008162	37487.508616	3770.307872	18304.000758
179.037000	0.066077	0.043865	0.062587	0.137818	6681.566333	37412.320319	3766.049134	18297.940832
179.537000	0.066835	0.044139	0.063996	0.137678	6689.575788	37445.270513	3769.563084	18302.935002
180.037500	0.065591	0.043644	0.063134	0.138623	6670.086872	37330.743885	3765.464004	18269.251708
180.535000	0.066977	0.043902	0.064519	0.137855	6689.263576	37412.320649	3770.350993	18296.625074
181.035500	0.068191	0.044785	0.057863	0.138564	6693.769479	37426.115877	3753.737915	18271.350072
181.536000	0.066896	0.044363	0.064946	0.138228	6685.210255	37419.323311	3770.473314	18283.323725
182.036000	0.067287	0.044110	0.070616	0.138230	6688.681693	37399.049051	3783.451412	18283.262479
182.536000	0.066180	0.045039	0.068363	0.138565	6675.837719	37446.318104	3777.505500	18271.339272
183.037000	0.068346	0.044642	0.063516	0.138122	6699.109199	37449.959347	3767.466206	18287.118337
183.536500	0.068218	0.044909	0.064621	0.139015	6689.983161	37400.133189	3767.946005	18255.303109
184.037000	0.067090	0.045300	0.062616	0.140107	6670.218249	37344.402900	3760.945458	18216.516335
184.540000	0.066842	0.044130	0.067161	0.138841	6679.269778	37352.023328	3774.123253	18261.491776
185.034500	0.068723	0.046201	0.073517	0.140607	6680.292484	37376.211588	3784.659990	18198.778331
185.573500	0.066845	0.044879	0.065233	0.139241	6675.744090	37379.763677	3768.824459	18247.284306
186.035500	0.068403	0.045383	0.061324	0.140377	6679.489498	37329.518076	3757.430148	18206.929219
186.535500	0.069167	0.046038	0.061339	0.140470	6685.470391	37374.251155	3757.258475	18203.656625
187.035500	0.065420	0.044888	0.067481	0.140267	6654.015686	37299.004796	3771.602778	18210.852786
187.536500	0.068577	0.045489	0.065929	0.140124	6683.297061	37358.093959	3768.397471	18215.909066
188.037000	0.068061	0.045464	0.065108	0.141011	6670.820933	37285.700293	3764.529055	18184.491866
188.567000	0.067151	0.044821	0.065121	0.139900	6672.601465	37322.786192	3767.072286	18223.851646
189.037500	0.067997	0.046030	0.066812	0.140342	6676.199833	37383.767196	3769.909890	18208.187672
