sample name	sample
index	574
start time	 03-16-2021  03:16:53 PM


Wavelength (nm)	Absorbance
494.344910	0.154290
494.563924	0.154290
494.782919	0.154290
495.001897	-0.388213
495.220856	0.068661
495.439797	0.092142
495.658719	0.170864
495.877624	0.175890
496.096510	0.354496
496.315378	0.389454
496.534227	0.186877
496.753059	0.107153
496.971872	0.048872
497.190667	-0.001193
497.409444	-0.002747
497.628203	-0.005392
497.846943	-0.004703
498.065665	-0.006385
498.284369	-0.005458
498.503055	-0.005334
498.721723	-0.004754
498.940372	-0.005226
499.159003	-0.004547
499.377616	-0.005768
499.596210	-0.006902
499.814787	-0.006365
500.033345	-0.005867
500.251885	-0.007360
500.470406	-0.007327
500.688910	-0.006933
500.907395	-0.007063
501.125862	-0.008404
501.344311	-0.008147
501.562742	-0.007130
501.781154	-0.009145
501.999548	-0.009780
502.217924	-0.008980
502.436282	-0.008507
502.654621	-0.009802
502.872942	-0.009065
503.091245	-0.008446
503.309530	-0.009007
503.527797	-0.009744
503.746045	-0.008562
503.964275	-0.008616
504.182487	-0.008740
504.400681	-0.009105
504.618856	-0.008502
504.837013	-0.008948
505.055152	-0.008537
505.273273	-0.007648
505.491376	-0.009017
505.709460	-0.008940
505.927526	-0.007935
506.145574	-0.007896
506.363604	-0.007621
506.581615	-0.007435
506.799608	-0.007365
507.017583	-0.007437
507.235540	-0.008127
507.453478	-0.006898
507.671399	-0.007055
507.889301	-0.007945
508.107185	-0.007800
508.325050	-0.007967
508.542898	-0.007993
508.760727	-0.007640
508.978538	-0.008198
509.196330	-0.008496
509.414105	-0.007596
509.631861	-0.007554
509.849599	-0.006774
510.067319	-0.006519
510.285021	-0.007023
510.502704	-0.008152
510.720369	-0.007980
510.938016	-0.007873
511.155645	-0.006579
511.373255	-0.007130
511.590848	-0.007311
511.808422	-0.008451
512.025977	-0.009096
512.243515	-0.008630
512.461034	-0.007879
512.678536	-0.008651
512.896018	-0.007979
513.113483	-0.009230
513.330930	-0.008504
513.548358	-0.008553
513.765768	-0.007853
513.983160	-0.008088
514.200533	-0.007566
514.417889	-0.007062
514.635226	-0.006823
514.852545	-0.007545
515.069845	-0.007069
515.287128	-0.007647
515.504392	-0.007638
515.721638	-0.007847
515.938866	-0.007574
516.156075	-0.008229
516.373267	-0.009148
516.590440	-0.008749
516.807594	-0.009137
517.024731	-0.009078
517.241850	-0.008910
517.458950	-0.009063
517.676032	-0.008414
517.893095	-0.008114
518.110141	-0.008587
518.327168	-0.007870
518.544177	-0.008686
518.761168	-0.007510
518.978141	-0.007593
519.195095	-0.007352
519.412031	-0.007471
519.628949	-0.008017
519.845849	-0.008228
520.062731	-0.007840
520.279594	-0.008266
520.496439	-0.007479
520.713266	-0.008025
520.930074	-0.007742
521.146865	-0.007966
521.363637	-0.007126
521.580391	-0.006879
521.797127	-0.007309
522.013844	-0.006266
522.230543	-0.005985
522.447224	-0.006437
522.663887	-0.006529
522.880532	-0.006791
523.097158	-0.006473
523.313766	-0.007301
523.530356	-0.007655
523.746928	-0.006749
523.963481	-0.007226
524.180017	-0.007504
524.396534	-0.007436
524.613032	-0.006622
524.829513	-0.006323
525.045975	-0.006467
525.262420	-0.005810
525.478845	-0.005592
525.695253	-0.005904
525.911643	-0.006491
526.128014	-0.006375
526.344367	-0.006182
526.560702	-0.006258
526.777018	-0.005959
526.993316	-0.006778
527.209597	-0.007160
527.425858	-0.007414
527.642102	-0.006610
527.858328	-0.005748
528.074535	-0.005294
528.290724	-0.005823
528.506894	-0.006637
528.723047	-0.007620
528.939181	-0.006854
529.155297	-0.007033
529.371395	-0.006240
529.587475	-0.006698
529.803536	-0.007522
530.019579	-0.007635
530.235604	-0.006953
530.451611	-0.006208
530.667600	-0.005200
530.883570	-0.005221
531.099522	-0.004856
531.315456	-0.005374
531.531372	-0.005513
531.747269	-0.005181
531.963148	-0.005043
532.179009	-0.004976
532.394852	-0.005084
532.610676	-0.004963
532.826482	-0.005258
533.042271	-0.004630
533.258040	-0.004528
533.473792	-0.004281
533.689525	-0.004180
533.905240	-0.005006
534.120937	-0.005108
534.336616	-0.005581
534.552277	-0.005853
534.767919	-0.005591
534.983543	-0.005442
535.199149	-0.004929
535.414736	-0.005216
535.630306	-0.005247
535.845857	-0.004505
536.061390	-0.004689
536.276904	-0.004599
536.492401	-0.004207
536.707879	-0.004239
536.923339	-0.004716
537.138781	-0.005428
537.354204	-0.004419
537.569610	-0.004097
537.784997	-0.004067
538.000366	-0.004004
538.215716	-0.003733
538.431049	-0.004468
538.646363	-0.004993
538.861659	-0.005238
539.076937	-0.004411
539.292196	-0.005543
539.507438	-0.005423
539.722661	-0.005084
539.937866	-0.004487
540.153052	-0.004081
540.368221	-0.003356
540.583371	-0.002371
540.798503	-0.002457
541.013617	-0.002990
541.228712	-0.002428
541.443789	-0.003283
541.658848	-0.003652
541.873889	-0.003916
542.088912	-0.004272
542.303916	-0.004874
542.518902	-0.004845
542.733870	-0.004205
542.948820	-0.004448
543.163752	-0.004614
543.378665	-0.003498
543.593560	-0.003364
543.808437	-0.003607
544.023295	-0.003381
544.238136	-0.003111
544.452958	-0.003044
544.667762	-0.003646
544.882548	-0.003190
545.097315	-0.003042
545.312064	-0.003339
545.526795	-0.003559
545.741508	-0.003057
545.956203	-0.003291
546.170879	-0.003217
546.385537	-0.003632
546.600177	-0.003322
546.814799	-0.003124
547.029402	-0.003238
547.243988	-0.003213
547.458555	-0.002849
547.673103	-0.003190
547.887634	-0.002733
548.102146	-0.002255
548.316640	-0.002071
548.531116	-0.002100
548.745574	-0.002243
548.960013	-0.001881
549.174435	-0.001639
549.388838	-0.001736
549.603222	-0.001467
549.817589	-0.001806
550.031937	-0.002506
550.246267	-0.002480
550.460579	-0.002371
550.674873	-0.002490
550.889148	-0.002403
551.103405	-0.002471
551.317644	-0.002391
551.531865	-0.002262
551.746068	-0.002112
551.960252	-0.001814
552.174418	-0.001650
552.388566	-0.001804
552.602696	-0.001870
552.816807	-0.001952
553.030900	-0.002149
553.244975	-0.001888
553.459032	-0.001584
553.673070	-0.001554
553.887091	-0.001524
554.101093	-0.001465
554.315077	-0.001098
554.529042	-0.000863
554.742990	-0.000943
554.956919	-0.000866
555.170830	-0.001056
555.384722	-0.001686
555.598597	-0.001594
555.812453	-0.001644
556.026291	-0.001910
556.240111	-0.002001
556.453913	-0.002063
556.667696	-0.002276
556.881461	-0.002781
557.095208	-0.002786
557.308937	-0.001853
557.522647	-0.001928
557.736339	-0.001684
557.950013	-0.001776
558.163669	-0.001689
558.377307	-0.001471
558.590926	-0.001409
558.804527	-0.001031
559.018110	-0.000662
559.231675	-0.001456
559.445221	-0.001436
559.658749	-0.001801
559.872259	-0.001726
560.085751	-0.001963
560.299225	-0.001937
560.512680	-0.001755
560.726117	-0.002000
560.939536	-0.002407
561.152937	-0.001899
561.366319	-0.001942
561.579683	-0.001817
561.793029	-0.001921
562.006357	-0.001812
562.219667	-0.002089
562.432958	-0.001825
562.646231	-0.001563
562.859486	-0.001552
563.072723	-0.002027
563.285941	-0.001702
563.499141	-0.001553
563.712323	-0.001572
563.925487	-0.001114
564.138632	-0.000506
564.351760	-0.000826
564.564869	-0.000939
564.777960	-0.000665
564.991032	-0.000700
565.204087	-0.000761
565.417123	-0.001095
565.630141	-0.000955
565.843140	-0.001341
566.056122	-0.001811
566.269085	-0.001755
566.482030	-0.001293
566.694957	-0.001630
566.907866	-0.001356
567.120756	-0.001703
567.333628	-0.001520
567.546482	-0.001188
567.759318	-0.001518
567.972135	-0.001307
568.184935	-0.001157
568.397716	-0.001157
568.610478	-0.001004
568.823223	-0.001300
569.035949	-0.000948
569.248657	-0.000638
569.461347	-0.000695
569.674019	-0.000027
569.886672	-0.000115
570.099308	-0.000433
570.311925	-0.000343
570.524523	-0.000193
570.737104	0.000106
570.949666	0.000256
571.162210	0.000425
571.374736	0.000359
571.587244	-0.000001
571.799733	0.000042
572.012205	0.000279
572.224658	-0.000098
572.437092	0.000079
572.649509	0.000266
572.861907	-0.000248
573.074287	-0.000600
573.286649	-0.000619
573.498993	-0.000461
573.711318	-0.000621
573.923625	-0.000390
574.135914	-0.000406
574.348185	-0.001088
574.560438	-0.001210
574.772672	-0.001132
574.984888	-0.000992
575.197086	-0.000894
575.409266	-0.001080
575.621427	-0.001184
575.833570	-0.001726
576.045695	-0.001622
576.257802	-0.001240
576.469890	-0.001606
576.681961	-0.001752
576.894013	-0.001451
577.106046	-0.001425
577.318062	-0.001284
577.530059	-0.001125
577.742039	-0.001010
577.954000	-0.000938
578.165942	-0.000773
578.377867	-0.000397
578.589773	0.000009
578.801661	-0.000074
579.013531	-0.000219
579.225382	-0.000276
579.437216	-0.000011
579.649031	0.000409
579.860828	0.000487
580.072606	0.000267
580.284367	-0.000072
580.496109	-0.000348
580.707833	-0.000771
580.919539	-0.000663
581.131227	-0.000706
581.342896	-0.001116
581.554547	-0.001178
581.766180	-0.001520
581.977795	-0.001494
582.189391	-0.001108
582.400969	-0.001268
582.612529	-0.001155
582.824071	-0.001198
583.035595	-0.001060
583.247100	-0.001062
583.458587	-0.000981
583.670056	-0.001018
583.881506	-0.001044
584.092939	-0.001414
584.304353	-0.001044
584.515749	-0.000819
584.727127	-0.000654
584.938486	-0.000728
585.149828	-0.000441
585.361151	-0.000514
585.572456	-0.000440
585.783742	-0.000623
585.995011	-0.000452
586.206261	-0.000638
586.417493	-0.000628
586.628706	-0.000794
586.839902	-0.000675
587.051079	-0.000840
587.262238	-0.000739
587.473379	-0.000263
587.684502	-0.000155
587.895606	-0.000011
588.106692	0.000036
588.317760	0.000024
588.528810	-0.000075
588.739841	-0.000023
588.950855	0.000220
589.161850	-0.000028
589.372827	-0.000193
589.583785	0.000052
589.794726	-0.000200
590.005648	-0.000131
590.216552	-0.000412
590.427437	0.000081
590.638305	-0.000299
590.849154	-0.000299
591.059985	-0.000405
591.270798	-0.000427
591.481592	-0.000616
591.692369	-0.000045
591.903127	0.000338
592.113867	0.000695
592.324588	0.000187
592.535292	0.000271
592.745977	0.000053
592.956644	0.000070
593.167293	-0.000216
593.377923	-0.000271
593.588536	-0.000827
593.799130	-0.001006
594.009706	-0.000894
594.220263	-0.000892
594.430803	-0.000786
594.641324	-0.000711
594.851827	-0.000535
595.062312	-0.000398
595.272778	-0.000014
595.483227	-0.000030
595.693657	-0.000185
595.904069	-0.000275
596.114462	0.000053
596.324838	-0.000111
596.535195	0.000182
596.745534	0.000198
596.955855	0.000188
597.166157	0.000219
597.376441	0.000518
597.586707	0.000573
597.796955	0.000372
598.007185	0.000481
598.217396	0.000815
598.427589	0.000619
598.637764	0.000770
598.847921	0.000494
599.058060	-0.000040
599.268180	-0.000061
599.478282	-0.000029
599.688366	0.000048
599.898431	0.000299
600.108479	0.000464
600.318508	0.000483
600.528519	0.000233
600.738511	0.000734
600.948486	0.001092
601.158442	0.001135
601.368380	0.001191
601.578300	0.001525
601.788202	0.001119
601.998085	0.000868
602.207950	0.000772
602.417797	0.000826
602.627626	0.000614
602.837436	0.000466
603.047228	0.000464
603.257002	0.000412
603.466758	0.000148
603.676496	0.000238
603.886215	0.000461
604.095916	0.000615
604.305599	0.000704
604.515264	0.001086
604.724910	0.001208
604.934538	0.001216
605.144148	0.001068
605.353740	0.001041
605.563314	0.001060
605.772869	0.000841
605.982406	0.000898
606.191925	0.000926
606.401425	0.000724
606.610908	0.000651
606.820372	0.000620
607.029818	0.000741
607.239246	0.000692
607.448655	0.000627
607.658047	0.000821
607.867420	0.000686
608.076775	0.000599
608.286111	0.000580
608.495430	0.000810
608.704730	0.000901
608.914012	0.000859
609.123275	0.000805
609.332521	0.000905
609.541748	0.000634
609.750957	0.000815
609.960148	0.000879
610.169321	0.001000
610.378475	0.001077
610.587611	0.001298
610.796729	0.001397
611.005829	0.001614
611.214910	0.001435
611.423974	0.001476
611.633019	0.001530
611.842045	0.001632
612.051054	0.001747
612.260044	0.001724
612.469017	0.001508
612.677970	0.001506
612.886906	0.001544
613.095824	0.001645
613.304723	0.001898
613.513604	0.001928
613.722467	0.001989
613.931311	0.001690
614.140138	0.001797
614.348946	0.001879
614.557736	0.001842
614.766507	0.001716
614.975261	0.001802
615.183996	0.001935
615.392713	0.001865
615.601412	0.001844
615.810092	0.002066
616.018754	0.001838
616.227399	0.001808
616.436024	0.002056
616.644632	0.002209
616.853222	0.002411
617.061793	0.002302
617.270346	0.002381
617.478880	0.002137
617.687397	0.002070
617.895895	0.002422
618.104375	0.002374
618.312837	0.002287
618.521281	0.002446
618.729706	0.002231
618.938113	0.002148
619.146502	0.002275
619.354873	0.002685
619.563226	0.002784
619.771560	0.002684
619.979876	0.002794
620.188174	0.002948
620.396453	0.002792
620.604715	0.002889
620.812958	0.003147
621.021183	0.003046
621.229390	0.002985
621.437578	0.002957
621.645748	0.002935
621.853900	0.002958
622.062034	0.002927
622.270150	0.002930
622.478247	0.003267
622.686326	0.003209
622.894387	0.003262
623.102430	0.003025
623.310454	0.003182
623.518461	0.003389
623.726449	0.003220
623.934418	0.003290
624.142370	0.003465
624.350303	0.003174
624.558218	0.003034
624.766115	0.003040
624.973994	0.003078
625.181855	0.003004
625.389697	0.002752
625.597521	0.003034
625.805327	0.002923
626.013114	0.002801
626.220883	0.002809
626.428634	0.003045
626.636367	0.003004
626.844082	0.002943
627.051778	0.002844
627.259457	0.002788
627.467117	0.002795
627.674758	0.002712
627.882382	0.002574
628.089987	0.002695
628.297574	0.002485
628.505143	0.002348
628.712694	0.002742
628.920226	0.002884
629.127740	0.003097
629.335236	0.002775
629.542714	0.002857
629.750174	0.002996
629.957615	0.002916
630.165038	0.003030
630.372443	0.003149
630.579829	0.003168
630.787198	0.003213
630.994548	0.003140
631.201880	0.003114
631.409194	0.003291
631.616489	0.003348
631.823766	0.003245
632.031025	0.003234
632.238266	0.003174
632.445489	0.003163
632.652693	0.003041
632.859879	0.003072
633.067047	0.003349
633.274197	0.003486
633.481329	0.003690
633.688442	0.003764
633.895537	0.003861
634.102614	0.004086
634.309672	0.004054
634.516713	0.004195
634.723735	0.004182
634.930739	0.004210
635.137724	0.004067
635.344692	0.003852
635.551641	0.004007
635.758572	0.003743
635.965485	0.004004
636.172379	0.003905
636.379256	0.003835
636.586114	0.003904
636.792954	0.003907
636.999775	0.003994
637.206579	0.004150
637.413364	0.004014
637.620131	0.004253
637.826880	0.003887
638.033610	0.004028
638.240323	0.004069
638.447017	0.004130
638.653692	0.004384
638.860350	0.004521
639.066990	0.004541
639.273611	0.004638
639.480214	0.004552
639.686798	0.004954
639.893365	0.005132
640.099913	0.005276
640.306443	0.005107
640.512955	0.005043
640.719449	0.004807
640.925924	0.004766
641.132381	0.004899
641.338820	0.005158
641.545241	0.004707
641.751644	0.004521
641.958028	0.004499
642.164394	0.004664
642.370742	0.004694
642.577071	0.004877
642.783383	0.004884
642.989676	0.004894
643.195951	0.004971
643.402207	0.005192
643.608446	0.005295
643.814666	0.005614
644.020868	0.005675
644.227052	0.005581
644.433218	0.005597
644.639365	0.005788
644.845494	0.005757
645.051605	0.005768
645.257698	0.005742
645.463772	0.005797
645.669828	0.005595
645.875866	0.005761
646.081886	0.006001
646.287888	0.005838
646.493871	0.005934
646.699836	0.005815
646.905783	0.005645
647.111712	0.005561
647.317622	0.005581
647.523514	0.005577
647.729388	0.005248
647.935244	0.005194
648.141082	0.005478
648.346901	0.005480
648.552702	0.005621
648.758485	0.005690
648.964250	0.005855
649.169996	0.005778
649.375724	0.005819
649.581434	0.005999
649.787126	0.006004
649.992800	0.005953
650.198455	0.005694
650.404092	0.005832
650.609711	0.005951
650.815311	0.006063
651.020894	0.006269
651.226458	0.006268
651.432004	0.006426
651.637532	0.006578
651.843041	0.006404
652.048532	0.006590
652.254006	0.006630
652.459460	0.006664
652.664897	0.006667
652.870315	0.006502
653.075716	0.006435
653.281097	0.006498
653.486461	0.006506
653.691807	0.006766
653.897134	0.006552
654.102443	0.006336
654.307734	0.006250
654.513006	0.006217
654.718261	0.006200
654.923497	0.006373
655.128715	0.006264
655.333915	0.006321
655.539096	0.006098
655.744259	0.006450
655.949404	0.006738
656.154531	0.006931
656.359640	0.007059
656.564730	0.007108
656.769802	0.007192
656.974856	0.007253
657.179892	0.007080
657.384909	0.007394
657.589908	0.007451
657.794889	0.007452
657.999852	0.007460
658.204797	0.007419
658.409723	0.007555
658.614631	0.007477
658.819521	0.007643
659.024393	0.007642
659.229246	0.007629
659.434081	0.007550
659.638898	0.007600
659.843697	0.007462
660.048478	0.007631
660.253240	0.007401
660.457984	0.007492
660.662710	0.007497
660.867417	0.007731
661.072107	0.007674
661.276778	0.007679
661.481431	0.007559
661.686066	0.007575
661.890682	0.007505
662.095281	0.007801
662.299861	0.007788
662.504422	0.007634
662.708966	0.007618
662.913491	0.007776
663.117999	0.007811
663.322488	0.007831
663.526958	0.007853
663.731411	0.007989
663.935845	0.007806
664.140261	0.007836
664.344659	0.008100
664.549038	0.008052
664.753400	0.007986
664.957743	0.008158
665.162068	0.008371
665.366375	0.008556
665.570663	0.008263
665.774933	0.008268
665.979185	0.008232
666.183419	0.008257
666.387635	0.008216
666.591832	0.008219
666.796011	0.008182
667.000172	0.008164
667.204315	0.008211
667.408439	0.008563
667.612545	0.008933
667.816634	0.009079
668.020703	0.008781
668.224755	0.008935
668.428788	0.008959
668.632803	0.009061
668.836800	0.009030
669.040779	0.008945
669.244739	0.008768
669.448681	0.008641
669.652605	0.008492
669.856511	0.008727
670.060399	0.008668
670.264268	0.008780
670.468119	0.008781
670.671952	0.008609
670.875767	0.008720
671.079563	0.008813
671.283341	0.008804
671.487101	0.009028
671.690843	0.009098
671.894567	0.008994
672.098272	0.008934
672.301959	0.008651
672.505628	0.008899
672.709278	0.009131
672.912911	0.008998
673.116525	0.009174
673.320121	0.008966
673.523699	0.008943
673.727258	0.008959
673.930799	0.009106
674.134322	0.009352
674.337827	0.009468
674.541314	0.009316
674.744782	0.009520
674.948232	0.009674
675.151664	0.010078
675.355078	0.010157
675.558474	0.010387
675.761851	0.010405
675.965210	0.010623
676.168551	0.010708
676.371873	0.010758
676.575178	0.010843
676.778464	0.010842
676.981732	0.010765
677.184981	0.010991
677.388213	0.011149
677.591426	0.011130
677.794621	0.011216
677.997798	0.011120
678.200956	0.011239
678.404097	0.011259
678.607219	0.011154
678.810323	0.011199
679.013408	0.010949
679.216476	0.010923
679.419525	0.010941
679.622556	0.010817
679.825569	0.011055
680.028563	0.011055
680.231540	0.011211
680.434498	0.011339
680.637438	0.011269
680.840359	0.011367
681.043263	0.011247
681.246148	0.011289
681.449015	0.011178
681.651864	0.011022
681.854694	0.010918
682.057506	0.010898
682.260301	0.010928
682.463076	0.011017
682.665834	0.010952
682.868573	0.010997
683.071295	0.011094
683.273998	0.010975
683.476682	0.010957
683.679349	0.011117
683.881997	0.011055
684.084627	0.011139
684.287239	0.011094
684.489833	0.011155
684.692408	0.011109
684.894965	0.011083
685.097504	0.011414
685.300025	0.011354
685.502527	0.011385
685.705012	0.011258
685.907478	0.011102
686.109925	0.011271
686.312355	0.011396
686.514766	0.011448
686.717159	0.011521
686.919534	0.011372
687.121891	0.011541
687.324230	0.011726
687.526550	0.011740
687.728852	0.011898
687.931136	0.011605
688.133401	0.011512
688.335649	0.011570
688.537878	0.011610
688.740089	0.011817
688.942281	0.011999
689.144456	0.011816
689.346612	0.012123
689.548750	0.012104
689.750870	0.012240
689.952971	0.012427
690.155055	0.012603
690.357120	0.012728
690.559167	0.012694
690.761195	0.012682
690.963206	0.012889
691.165198	0.013109
691.367172	0.013018
691.569128	0.013201
691.771065	0.013066
691.972984	0.013155
692.174885	0.013191
692.376768	0.013144
692.578633	0.013083
692.780479	0.012697
692.982308	0.012379
693.184118	0.012455
693.385909	0.012587
693.587683	0.012747
693.789438	0.012610
693.991175	0.012458
694.192894	0.012537
694.394595	0.012623
694.596277	0.012874
694.797941	0.013026
694.999587	0.013081
695.201215	0.012924
695.402824	0.012835
695.604416	0.012854
695.805989	0.013026
696.007543	0.013109
696.209080	0.013180
696.410598	0.013151
696.612099	0.012941
696.813580	0.013005
697.015044	0.013128
697.216490	0.013384
697.417917	0.013442
697.619326	0.013327
697.820717	0.013426
698.022089	0.013326
698.223444	0.013281
698.424780	0.013454
698.626098	0.013489
698.827397	0.013409
699.028679	0.013263
699.229942	0.013404
699.431187	0.013592
699.632414	0.013590
699.833622	0.013545
700.034813	0.013587
700.235985	0.013650
700.437139	0.013416
700.638274	0.013529
700.839392	0.013366
701.040491	0.013068
701.241572	0.012757
701.442635	0.012423
701.643679	0.012348
701.844706	0.012387
702.045714	0.012391
702.246704	0.012441
702.447675	0.012210
702.648629	0.012416
702.849564	0.012603
703.050481	0.012803
703.251380	0.013033
703.452260	0.012977
703.653122	0.013035
703.853966	0.012758
704.054792	0.012836
704.255600	0.012931
704.456389	0.012869
704.657160	0.012713
704.857913	0.012731
705.058648	0.012735
705.259365	0.012920
705.460063	0.012855
705.660743	0.013049
705.861405	0.013213
706.062048	0.013153
706.262674	0.013206
706.463281	0.013363
706.663870	0.013262
706.864441	0.013078
707.064993	0.012991
707.265527	0.013026
707.466043	0.013145
707.666541	0.013182
707.867021	0.013284
708.067482	0.013316
708.267925	0.013226
708.468350	0.013319
708.668757	0.013626
708.869145	0.013693
709.069516	0.013614
709.269868	0.013435
709.470201	0.013305
709.670517	0.013292
709.870814	0.013039
710.071093	0.012988
710.271354	0.012878
710.471597	0.013021
710.671821	0.012888
710.872028	0.013060
711.072216	0.013022
711.272385	0.012819
711.472537	0.012909
711.672670	0.013009
711.872785	0.013228
712.072882	0.013221
712.272961	0.012921
712.473021	0.013070
712.673063	0.012867
712.873087	0.013065
713.073093	0.013197
713.273081	0.013132
713.473050	0.013141
713.673001	0.013021
713.872934	0.013085
714.072849	0.012996
714.272745	0.012834
714.472623	0.012926
714.672483	0.012700
714.872325	0.012432
715.072148	0.012464
715.271954	0.012433
715.471741	0.012474
715.671509	0.012395
715.871260	0.012393
716.070992	0.012601
716.270707	0.012665
716.470403	0.012655
716.670080	0.012946
716.869740	0.012977
717.069381	0.013018
717.269004	0.012787
717.468609	0.012731
717.668195	0.012832
717.867764	0.012680
718.067314	0.012505
718.266846	0.012580
718.466360	0.012505
718.665855	0.012389
718.865332	0.012525
719.064791	0.012776
719.264232	0.012784
719.463655	0.012674
719.663059	0.012618
719.862445	0.012561
720.061813	0.012348
720.261163	0.012411
720.460494	0.012333
720.659807	0.012056
720.859102	0.011939
721.058379	0.011767
721.257638	0.011801
721.456878	0.011838
721.656100	0.011914
721.855304	0.011822
722.054490	0.011664
722.253657	0.011638
722.452806	0.011776
722.651937	0.011659
722.851050	0.011684
723.050145	0.011417
723.249221	0.011272
723.448279	0.011225
723.647319	0.011391
723.846340	0.011418
724.045344	0.011366
724.244329	0.011194
724.443296	0.011206
724.642245	0.011238
724.841175	0.011377
725.040088	0.011255
725.238982	0.011123
725.437857	0.011021
725.636715	0.010960
725.835554	0.010995
726.034376	0.010900
726.233179	0.010775
726.431963	0.010637
726.630730	0.010518
726.829478	0.010470
727.028208	0.010435
727.226920	0.010487
727.425614	0.010355
727.624289	0.010166
727.822946	0.010110
728.021585	0.010163
728.220206	0.010012
728.418808	0.009991
728.617392	0.010183
728.815958	0.010029
729.014506	0.009673
729.213036	0.009624
729.411547	0.009467
729.610040	0.009445
729.808515	0.009401
730.006972	0.009454
730.205410	0.009256
730.403831	0.009151
730.602233	0.009216
730.800616	0.009456
730.998982	0.009647
731.197329	0.009699
731.395658	0.009654
731.593969	0.009412
731.792262	0.009517
731.990536	0.009630
732.188793	0.009407
732.387031	0.009085
732.585250	0.008992
732.783452	0.008590
732.981635	0.008637
733.179800	0.008530
733.377947	0.008657
733.576076	0.008526
733.774186	0.008519
733.972278	0.008576
734.170352	0.008689
734.368408	0.008903
734.566446	0.009036
734.764465	0.008812
734.962466	0.008781
735.160449	0.008772
735.358413	0.008770
735.556360	0.008583
735.754288	0.008585
735.952198	0.008640
736.150090	0.008255
736.347963	0.008105
736.545818	0.008023
736.743655	0.008102
736.941474	0.007962
737.139275	0.007835
737.337057	0.007952
737.534821	0.007809
737.732567	0.007719
737.930295	0.007945
738.128005	0.007856
738.325696	0.008060
738.523369	0.007966
738.721024	0.007972
738.918660	0.007845
739.116279	0.007756
739.313879	0.007793
739.511461	0.007955
739.709024	0.007487
739.906570	0.007569
740.104097	0.007357
740.301606	0.007567
740.499097	0.007463
740.696569	0.007593
740.894024	0.007576
741.091460	0.007468
741.288878	0.007214
741.486277	0.007448
741.683659	0.007277
741.881022	0.007115
742.078367	0.006881
742.275694	0.006700
742.473002	0.006517
742.670293	0.006524
742.867565	0.006460
743.064819	0.006279
743.262054	0.006158
743.459272	0.006270
743.656471	0.006382
743.853652	0.006302
744.050815	0.006367
744.247959	0.006496
744.445085	0.006299
744.642194	0.006171
744.839283	0.006415
745.036355	0.006293
745.233408	0.006313
745.430444	0.006543
745.627461	0.006671
745.824459	0.006777
746.021440	0.006884
746.218402	0.007006
746.415346	0.007194
746.612272	0.007219
746.809180	0.007368
747.006069	0.007409
747.202940	0.007193
747.399793	0.007129
747.596628	0.006998
747.793444	0.006867
747.990243	0.006755
748.187023	0.006845
748.383784	0.006821
748.580528	0.006861
748.777253	0.006866
748.973960	0.006719
749.170649	0.006523
749.367320	0.006805
749.563973	0.006766
749.760607	0.006846
749.957223	0.006666
750.153821	0.006613
750.350400	0.006638
750.546962	0.006477
750.743505	0.006630
750.940030	0.006980
751.136536	0.006814
751.333025	0.006709
751.529495	0.006721
751.725947	0.006641
751.922381	0.006734
752.118796	0.006826
752.315194	0.006969
752.511573	0.007134
752.707934	0.007030
752.904276	0.006879
753.100601	0.007003
753.296907	0.006980
753.493195	0.007336
753.689465	0.007099
753.885716	0.007056
754.081949	0.007070
754.278164	0.007054
754.474361	0.007051
754.670540	0.007102
754.866700	0.007229
755.062843	0.007240
755.258967	0.007034
755.455072	0.007178
755.651160	0.007086
755.847229	0.007116
756.043280	0.007116
756.239313	0.007030
756.435328	0.007135
756.631324	0.006859
756.827302	0.006869
757.023262	0.006710
757.219204	0.006885
757.415127	0.006822
757.611033	0.006698
757.806920	0.006760
758.002788	0.006668
758.198639	0.006595
758.394471	0.006647
758.590286	0.006667
758.786081	0.006793
758.981859	0.006522
759.177619	0.006585
759.373360	0.006607
759.569083	0.006414
759.764788	0.006397
759.960474	0.006580
760.156143	0.006505
760.351793	0.006407
760.547425	0.006466
760.743038	0.006587
760.938634	0.006630
761.134211	0.006695
761.329770	0.006683
761.525311	0.006914
761.720833	0.006645
761.916338	0.006830
762.111824	0.007102
762.307292	0.007122
762.502741	0.007179
762.698173	0.007166
762.893586	0.006985
763.088981	0.007050
763.284358	0.006912
763.479716	0.006984
763.675057	0.006974
763.870379	0.006740
764.065683	0.006543
764.260968	0.006410
764.456236	0.006196
764.651485	0.006553
764.846716	0.006316
765.041929	0.006398
765.237123	0.006274
765.432299	0.006254
765.627457	0.006180
765.822597	0.006407
766.017719	0.006644
766.212822	0.006819
766.407907	0.006447
766.602974	0.006657
766.798023	0.006466
766.993054	0.006557
767.188066	0.006608
767.383060	0.006851
767.578036	0.006636
767.772993	0.006572
767.967933	0.006672
768.162854	0.006913
768.357757	0.006992
768.552642	0.006880
768.747508	0.006841
768.942356	0.006775
769.137186	0.006619
769.331998	0.006816
769.526792	0.006597
769.721567	0.006606
769.916324	0.006428
770.111063	0.006264
770.305784	0.006598
770.500486	0.006754
770.695171	0.006928
770.889837	0.006907
771.084484	0.006733
771.279114	0.006730
771.473725	0.006727
771.668318	0.006713
771.862893	0.006636
772.057450	0.006401
772.251988	0.006219
772.446509	0.006108
772.641011	0.006013
772.835494	0.006234
773.029960	0.006186
773.224407	0.005933
773.418836	0.006085
773.613247	0.006133
773.807640	0.006002
774.002014	0.006005
774.196370	0.005889
774.390708	0.006106
774.585028	0.005796
774.779330	0.006047
774.973613	0.006317
775.167878	0.006184
775.362125	0.006368
775.556354	0.006567
775.750564	0.006589
775.944756	0.006801
776.138930	0.006900
776.333086	0.007060
776.527223	0.007116
776.721343	0.006885
776.915444	0.006912
777.109526	0.006637
777.303591	0.006660
777.497637	0.006713
777.691666	0.006606
777.885676	0.006282
778.079667	0.006409
778.273641	0.006379
778.467596	0.006495
778.661533	0.006549
778.855452	0.006900
779.049352	0.006999
779.243235	0.007179
779.437099	0.007199
779.630945	0.007308
779.824773	0.007179
780.018582	0.007176
780.212373	0.007110
780.406146	0.007021
780.599901	0.006880
780.793638	0.006861
780.987356	0.006986
781.181056	0.007028
781.374738	0.006975
781.568402	0.006911
781.762047	0.006953
781.955674	0.007033
782.149283	0.007097
782.342874	0.007180
782.536447	0.007139
782.730001	0.006841
782.923537	0.006773
783.117055	0.007002
783.310555	0.007068
783.504036	0.006906
783.697499	0.006738
783.890944	0.006929
784.084371	0.006942
784.277780	0.007100
784.471170	0.007242
784.664542	0.007188
784.857896	0.007181
785.051231	0.007449
785.244549	0.007435
785.437848	0.007575
785.631129	0.007342
785.824392	0.007105
786.017636	0.007095
786.210863	0.007067
786.404071	0.007189
786.597260	0.007051
786.790432	0.006999
786.983585	0.007306
787.176721	0.007351
787.369838	0.007426
787.562936	0.007648
787.756017	0.007443
787.949079	0.007538
788.142123	0.007484
788.335149	0.007593
788.528156	0.007459
788.721146	0.007099
788.914117	0.007081
789.107070	0.007192
789.300005	0.007228
789.492921	0.007245
789.685819	0.007165
789.878699	0.007157
790.071561	0.007096
790.264405	0.007064
790.457230	0.007126
790.650037	0.007162
790.842826	0.007111
791.035597	0.007141
791.228349	0.007315
791.421084	0.007373
791.613800	0.007414
791.806497	0.007468
791.999177	0.007583
792.191838	0.007708
792.384481	0.007894
792.577106	0.008009
792.769713	0.008287
792.962301	0.008322
793.154871	0.008261
793.347423	0.008356
793.539957	0.008274
793.732473	0.008340
793.924970	0.008320
794.117449	0.008226
794.309910	0.008215
794.502353	0.007857
794.694777	0.007790
794.887183	0.007764
795.079571	0.007745
795.271941	0.007857
795.464293	0.008071
795.656626	0.007869
795.848941	0.007960
796.041238	0.008016
796.233516	0.008040
796.425777	0.007928
796.618019	0.007887
796.810243	0.007982
797.002449	0.008052
797.194636	0.007913
797.386805	0.008216
797.578956	0.008072
797.771089	0.007879
797.963204	0.008013
798.155300	0.008063
798.347378	0.008277
798.539438	0.008315
798.731480	0.008241
798.923503	0.008305
799.115509	0.008272
799.307496	0.008218
799.499465	0.008408
799.691415	0.008200
799.883348	0.008489
800.075262	0.008679
800.267158	0.008723
800.459035	0.008926
800.650895	0.008671
800.842736	0.008911
801.034559	0.009251
801.226364	0.009192
801.418150	0.009494
801.609919	0.009280
801.801669	0.009251
801.993401	0.009391
802.185114	0.009569
802.376810	0.009697
802.568487	0.009753
802.760146	0.009862
802.951787	0.009994
803.143409	0.010070
803.335014	0.010325
803.526600	0.010256
803.718168	0.010269
803.909717	0.010166
804.101249	0.010329
804.292762	0.010193
804.484257	0.010170
804.675734	0.010235
804.867192	0.010175
805.058632	0.010154
805.250054	0.010227
805.441458	0.010066
805.632844	0.009932
805.824211	0.010041
806.015561	0.010197
806.206891	0.010278
806.398204	0.010219
806.589499	0.010383
806.780775	0.010506
806.972033	0.010713
807.163273	0.010861
807.354495	0.010845
807.545698	0.010700
807.736883	0.010619
807.928050	0.010542
808.119199	0.010733
808.310329	0.010694
808.501441	0.010637
808.692535	0.010533
808.883611	0.010546
809.074669	0.010616
809.265708	0.010658
809.456729	0.010581
809.647732	0.010618
809.838717	0.010521
810.029683	0.010615
810.220632	0.010663
810.411562	0.010817
810.602474	0.010594
810.793367	0.010751
810.984242	0.010799
811.175100	0.011084
811.365938	0.011084
811.556759	0.011288
811.747562	0.011375
811.938346	0.011497
812.129112	0.011451
812.319860	0.011590
812.510589	0.011592
812.701300	0.011709
812.891994	0.011706
813.082668	0.011600
813.273325	0.011580
813.463964	0.011339
813.654584	0.011409
813.845186	0.011368
814.035769	0.011678
814.226335	0.011692
814.416882	0.011727
814.607411	0.011586
814.797922	0.011708
814.988415	0.011816
815.178889	0.011941
815.369345	0.011765
815.559783	0.011876
815.750203	0.011795
815.940605	0.011838
816.130988	0.011833
816.321353	0.012135
816.511700	0.012165
816.702028	0.012221
816.892339	0.012386
817.082631	0.012400
817.272905	0.012418
817.463161	0.012368
817.653398	0.012274
817.843617	0.012540
818.033819	0.012577
818.224001	0.012740
818.414166	0.012792
818.604312	0.012930
818.794440	0.013070
818.984550	0.013213
819.174642	0.013325
819.364716	0.013747
819.554771	0.013576
819.744808	0.013454
819.934827	0.013423
820.124827	0.013175
820.314810	0.012879
820.504774	0.013024
820.694720	0.013020
820.884647	0.013190
821.074557	0.012868
821.264448	0.012723
821.454321	0.012917
821.644176	0.012995
821.834012	0.013264
822.023831	0.013433
822.213631	0.013412
822.403413	0.013280
822.593176	0.013177
822.782922	0.013293
822.972649	0.013457
823.162358	0.013292
823.352049	0.013203
823.541721	0.013068
823.731376	0.013011
823.921012	0.013104
824.110629	0.013039
824.300229	0.013083
824.489811	0.013062
824.679374	0.012960
824.868919	0.013001
825.058445	0.013224
825.247954	0.013281
825.437444	0.013265
825.626916	0.013136
825.816370	0.013267
826.005806	0.013109
826.195223	0.013143
826.384622	0.013099
826.574003	0.013171
826.763366	0.013194
826.952711	0.013281
827.142037	0.013416
827.331345	0.013431
827.520635	0.013565
827.709906	0.013847
827.899160	0.014281
828.088395	0.014848
828.277612	0.014975
828.466810	0.014905
828.655991	0.014870
828.845153	0.014931
829.034297	0.015050
829.223423	0.015012
829.412531	0.014749
829.601620	0.014457
829.790691	0.014376
829.979744	0.014237
830.168779	0.014218
830.357795	0.014080
830.546793	0.014241
830.735773	0.014137
830.924735	0.014038
831.113679	0.014324
831.302604	0.014378
831.491511	0.014191
831.680400	0.014382
831.869271	0.014668
832.058123	0.014864
832.246957	0.014882
832.435773	0.015155
832.624571	0.015188
832.813351	0.015435
833.002112	0.015258
833.190855	0.015354
833.379580	0.015253
833.568287	0.015064
833.756975	0.015145
833.945645	0.015209
834.134297	0.015139
834.322931	0.015288
834.511547	0.014977
834.700144	0.015122
834.888723	0.015001
835.077284	0.015154
835.265826	0.014979
835.454351	0.015210
835.642857	0.015190
835.831345	0.015104
836.019815	0.015140
836.208266	0.015374
836.396699	0.015660
836.585114	0.015999
836.773511	0.016163
836.961890	0.016411
837.150250	0.016223
837.338592	0.016062
837.526916	0.016267
837.715222	0.016459
837.903510	0.016327
838.091779	0.016271
838.280030	0.016195
838.468263	0.016186
838.656477	0.016322
838.844674	0.016387
839.032852	0.016422
839.221012	0.016240
839.409153	0.016098
839.597277	0.016028
839.785382	0.016109
839.973469	0.016130
840.161538	0.015896
840.349589	0.015998
840.537621	0.015907
840.725635	0.016004
840.913631	0.016113
841.101609	0.016300
841.289568	0.016292
841.477509	0.016339
841.665432	0.016461
841.853337	0.016714
842.041224	0.016906
842.229092	0.017016
842.416942	0.017174
842.604774	0.017483
842.792588	0.017365
842.980383	0.017591
843.168160	0.017315
843.355919	0.017443
843.543660	0.017490
843.731382	0.017311
843.919087	0.017488
844.106773	0.017742
844.294441	0.017625
844.482090	0.017866
844.669722	0.017920
844.857335	0.018387
845.044930	0.018221
845.232507	0.018394
845.420065	0.018332
845.607605	0.018439
845.795127	0.018112
845.982631	0.018390
846.170117	0.018255
846.357584	0.018307
846.545033	0.018336
846.732464	0.018581
846.919877	0.018804
847.107272	0.019167
847.294648	0.019232
847.482006	0.019421
847.669346	0.019343
847.856667	0.019383
848.043971	0.019434
848.231256	0.019499
848.418523	0.019428
848.605771	0.019288
848.793002	0.019275
848.980214	0.019469
849.167408	0.019516
849.354584	0.019550
849.541742	0.019950
849.728881	0.020226
849.916002	0.020417
850.103105	0.020842
850.290190	0.021080
850.477256	0.021187
850.664304	0.021044
850.851334	0.021281
851.038346	0.021548
851.225340	0.021403
851.412315	0.021704
851.599272	0.021854
851.786211	0.021689
851.973132	0.021586
852.160034	0.021693
852.346918	0.021969
852.533784	0.022400
852.720632	0.022200
852.907462	0.022477
853.094273	0.022144
853.281066	0.022106
853.467841	0.022113
853.654598	0.022140
853.841336	0.022188
854.028056	0.022005
854.214758	0.021661
854.401442	0.021882
854.588107	0.021837
854.774755	0.022105
854.961384	0.022238
855.147995	0.022256
855.334587	0.022546
855.521162	0.022585
855.707718	0.022754
855.894256	0.023049
856.080775	0.023337
856.267277	0.023429
856.453760	0.023442
856.640225	0.023315
856.826672	0.023601
857.013101	0.023402
857.199511	0.023851
857.385903	0.023994
857.572277	0.024060
857.758633	0.023915
857.944970	0.024178
858.131290	0.024411
858.317591	0.024454
858.503873	0.024616
858.690138	0.024876
858.876384	0.024820
859.062612	0.024982
859.248822	0.024601
859.435014	0.024674
859.621188	0.024727
859.807343	0.024545
859.993480	0.024553
860.179599	0.024562
860.365699	0.024520
860.551781	0.024513
860.737846	0.024565
860.923891	0.024843
861.109919	0.025253
861.295929	0.025386
861.481920	0.025510
861.667893	0.025701
861.853848	0.025703
862.039784	0.025990
862.225702	0.025485
862.411603	0.025667
862.597484	0.025707
862.783348	0.025149
862.969193	0.025056
863.155021	0.025239
863.340830	0.025386
863.526620	0.025401
863.712393	0.025177
863.898147	0.025721
864.083883	0.025513
864.269601	0.025341
864.455301	0.025642
864.640982	0.025586
864.826645	0.025662
865.012290	0.025662
865.197917	0.025738
865.383526	0.025876
865.569116	0.025955
865.754688	0.026100
865.940242	0.026388
866.125777	0.026618
866.311295	0.026850
866.496794	0.027019
866.682275	0.026877
866.867737	0.026962
867.053182	0.026959
867.238608	0.026924
867.424016	0.026846
867.609406	0.027106
867.794778	0.026860
867.980131	0.027063
868.165466	0.027057
868.350783	0.027429
868.536082	0.027521
868.721362	0.027800
868.906625	0.027780
869.091869	0.028033
869.277094	0.028082
869.462302	0.028568
869.647491	0.028231
869.832662	0.028457
870.017815	0.028344
870.202950	0.028350
870.388066	0.028307
870.573165	0.028380
870.758245	0.028580
870.943306	0.028559
871.128350	0.028514
871.313375	0.028654
871.498382	0.028531
871.683371	0.028731
871.868342	0.028904
872.053294	0.028916
872.238229	0.029103
872.423144	0.028986
872.608042	0.029332
872.792922	0.029567
872.977783	0.029617
873.162626	0.029760
873.347451	0.029559
873.532258	0.029796
873.717046	0.029860
873.901816	0.029679
874.086568	0.029970
874.271302	0.029962
874.456017	0.029684
874.640715	0.029947
874.825394	0.029872
875.010055	0.030074
875.194697	0.029809
875.379322	0.029814
875.563928	0.030335
875.748516	0.030212
875.933085	0.030054
876.117637	0.030237
876.302170	0.030144
876.486685	0.030325
876.671182	0.030752
876.855661	0.030542
877.040121	0.030830
877.224563	0.030771
877.408987	0.030824
877.593393	0.030727
877.777780	0.030627
877.962150	0.030525
878.146501	0.030486
878.330833	0.030468
878.515148	0.030721
878.699444	0.030877
878.883722	0.030794
879.067982	0.030840
879.252224	0.031434
879.436447	0.031599
879.620653	0.031851
879.804840	0.031711
879.989008	0.031596
880.173159	0.031929
880.357291	0.031559
880.541405	0.031668
880.725501	0.031524
880.909579	0.031243
881.093638	0.031154
881.277680	0.030949
881.461703	0.030898
881.645707	0.030495
881.829694	0.030465
882.013662	0.030553
882.197612	0.030161
882.381544	0.030625
882.565458	0.030611
882.749353	0.030683
882.933230	0.030666
883.117089	0.030944
883.300930	0.031353
883.484753	0.031266
883.668557	0.031370
883.852343	0.031564
884.036111	0.031362
884.219861	0.031405
884.403592	0.031543
884.587305	0.031941
884.771000	0.032047
884.954677	0.032270
885.138335	0.032299
885.321976	0.031988
885.505598	0.032018
885.689201	0.031743
885.872787	0.032145
886.056354	0.032263
886.239904	0.032504
886.423434	0.032649
886.606947	0.032573
886.790442	0.032565
886.973918	0.032983
887.157376	0.033007
887.340816	0.033126
887.524237	0.032636
887.707641	0.032640
887.891026	0.032480
888.074393	0.032453
888.257741	0.032197
888.441072	0.032182
888.624384	0.031839
888.807678	0.032151
888.990954	0.032188
889.174211	0.032123
889.357451	0.031997
889.540672	0.031645
889.723875	0.031121
889.907059	0.031133
890.090226	0.031412
890.273374	0.031600
890.456504	0.031734
890.639616	0.031761
890.822709	0.031986
891.005785	0.031761
891.188842	0.032361
891.371881	0.032686
891.554901	0.032493
891.737904	0.031922
891.920888	0.031983
892.103854	0.031552
892.286802	0.031727
892.469731	0.031561
892.652643	0.031988
892.835536	0.031334
893.018410	0.031248
893.201267	0.031938
893.384106	0.032310
893.566926	0.032121
893.749728	0.032370
893.932511	0.032101
894.115277	0.032199
894.298024	0.031856
894.480753	0.032300
894.663464	0.032791
894.846157	0.032242
895.028831	0.032290
895.211487	0.032067
895.394125	0.031769
895.576745	0.031781
895.759346	0.031676
895.941930	0.031661
896.124495	0.031364
896.307041	0.030820
896.489570	0.031036
896.672080	0.030595
896.854573	0.031208
897.037046	0.031511
897.219502	0.031341
897.401940	0.031634
897.584359	0.031652
897.766760	0.031655
897.949143	0.031820
898.131507	0.032016
898.313854	0.032392
898.496182	0.032174
898.678492	0.032060
898.860783	0.032314
899.043057	0.032256
899.225312	0.032194
899.407549	0.032295
899.589768	0.032264
899.771968	0.031999
899.954151	0.032192
900.136315	0.032126
900.318461	0.031960
900.500588	0.031749
900.682698	0.031692
900.864789	0.031763
901.046862	0.031958
901.228917	0.032227
901.410953	0.032284
901.592971	0.032103
901.774972	0.032109
901.956953	0.032473
902.138917	0.032722
902.320862	0.032425
902.502790	0.032315
902.684699	0.031811
902.866589	0.030922
903.048462	0.030920
903.230316	0.030839
903.412152	0.030710
903.593970	0.030655
903.775770	0.030613
903.957551	0.030942
904.139314	0.031172
904.321059	0.031544
904.502786	0.032095
904.684494	0.031702
904.866185	0.031305
905.047857	0.031196
905.229510	0.030513
905.411146	0.030308
905.592763	0.029986
905.774363	0.029638
905.955943	0.029229
906.137506	0.029036
906.319051	0.029117
906.500577	0.029499
906.682085	0.029383
906.863575	0.029530
907.045046	0.029482
907.226500	0.029482
907.407935	0.029637
907.589352	0.029503
907.770750	0.029603
907.952131	0.029852
908.133493	0.029389
908.314837	0.029652
908.496163	0.029526
908.677470	0.029979
908.858760	0.030296
909.040031	0.030134
909.221284	0.030423
909.402518	0.030324
909.583735	0.029992
909.764933	0.029813
909.946113	0.029960
910.127275	0.029940
910.308418	0.029009
910.489544	0.028689
910.670651	0.028403
910.851740	0.027899
911.032810	0.027892
911.213863	0.028155
911.394897	0.028522
911.575913	0.027688
911.756911	0.027685
911.937890	0.027882
912.118851	0.027583
912.299794	0.027547
912.480719	0.027855
912.661626	0.027395
912.842514	0.027008
913.023384	0.026402
913.204236	0.026454
913.385070	0.026198
913.565886	0.026392
913.746683	0.026056
913.927462	0.026079
914.108223	0.025567
914.288965	0.025470
914.469690	0.025135
914.650396	0.025069
914.831084	0.024935
915.011754	0.024970
915.192405	0.025036
915.373038	0.025004
915.553653	0.024637
915.734250	0.024381
915.914829	0.024578
916.095389	0.024462
916.275931	0.024437
916.456455	0.024768
916.636961	0.025096
916.817448	0.024234
916.997917	0.023983
917.178368	0.023720
917.358801	0.024139
917.539216	0.023753
917.719612	0.023415
917.899990	0.023481
918.080350	0.022872
918.260692	0.022158
918.441015	0.022334
918.621320	0.022473
918.801607	0.022666
918.981876	0.022337
919.162127	0.022003
919.342359	0.022256
919.522573	0.022085
919.702769	0.022232
919.882947	0.022047
920.063106	0.022010
920.243247	0.021989
920.423370	0.022054
920.603475	0.021895
920.783562	0.021968
920.963630	0.022229
921.143680	0.021992
921.323712	0.022037
921.503725	0.021986
921.683721	0.021747
921.863698	0.021188
922.043657	0.020532
922.223598	0.019986
922.403520	0.020049
922.583424	0.019057
922.763311	0.018587
922.943178	0.018216
923.123028	0.017967
923.302859	0.017574
923.482673	0.017807
923.662467	0.018127
923.842244	0.018455
924.022003	0.018155
924.201743	0.017854
924.381465	0.018065
924.561169	0.017626
924.740854	0.017711
924.920522	0.017573
925.100171	0.017317
925.279802	0.016627
925.459414	0.016059
925.639009	0.015872
925.818585	0.015516
925.998143	0.015264
926.177683	0.015021
926.357205	0.014151
926.536708	0.013931
926.716193	0.014048
926.895660	0.014051
927.075109	0.014387
927.254539	0.014317
927.433951	0.014810
927.613345	0.014675
927.792721	0.014456
927.972079	0.014670
928.151418	0.014306
928.330739	0.012700
928.510042	0.012341
928.689327	0.011856
928.868593	0.011556
929.047841	0.011742
929.227071	0.011786
929.406283	0.011730
929.585476	0.011575
929.764652	0.010990
929.943809	0.011612
930.122948	0.011322
930.302068	0.011254
930.481171	0.010539
930.660255	0.009355
930.839321	0.009067
931.018369	0.008984
931.197398	0.008478
931.376409	0.008650
931.555402	0.008390
931.734377	0.008475
931.913334	0.008162
932.092272	0.007703
932.271192	0.007839
932.450094	0.007073
932.628978	0.006399
932.807844	0.006418
932.986691	0.006074
933.165520	0.005750
933.344331	0.004525
933.523123	0.003902
933.701898	0.004210
933.880654	0.004003
934.059392	0.003440
934.238111	0.003805
934.416813	0.004047
934.595496	0.003769
934.774161	0.003561
934.952808	0.004271
935.131437	0.003933
935.310047	0.003593
935.488639	0.003681
935.667213	0.003815
935.845769	0.003450
936.024306	0.002208
936.202825	0.002666
936.381326	0.002093
936.559809	0.001964
936.738274	0.001548
936.916720	0.001794
937.095148	0.001127
937.273558	0.000292
937.451950	-0.000856
937.630323	-0.001072
937.808678	-0.002484
937.987015	-0.002467
938.165334	-0.003083
938.343635	-0.002811
938.521917	-0.003180
938.700181	-0.003905
938.878427	-0.003968
939.056655	-0.003839
939.234864	-0.004448
939.413055	-0.003922
939.591228	-0.004862
939.769383	-0.005169
939.947519	-0.006139
940.125638	-0.007446
940.303738	-0.007767
940.481820	-0.007623
940.659883	-0.007997
940.837929	-0.007636
941.015956	-0.007515
941.193965	-0.006844
941.371955	-0.006789
941.549928	-0.006360
941.727882	-0.006188
941.905818	-0.005864
942.083736	-0.006167
942.261636	-0.006379
942.439517	-0.006122
942.617380	-0.006820
942.795225	-0.007522
942.973052	-0.008976
943.150860	-0.009388
943.328651	-0.009625
943.506423	-0.009768
943.684176	-0.009736
943.861912	-0.009913
944.039629	-0.010207
944.217328	-0.010354
944.395009	-0.010271
944.572672	-0.009041
944.750317	-0.009833
944.927943	-0.010066
945.105551	-0.010544
945.283141	-0.011204
945.460712	-0.012101
945.638265	-0.012696
945.815801	-0.013214
945.993317	-0.013407
946.170816	-0.013787
946.348297	-0.013597
946.525759	-0.012865
946.703203	-0.013620
946.880629	-0.013412
947.058036	-0.012430
947.235425	-0.011618
947.412797	-0.012498
947.590149	-0.012524
947.767484	-0.012511
947.944800	-0.012167
948.122099	-0.014161
948.299379	-0.014323
948.476640	-0.015568
948.653884	-0.016395
948.831109	-0.017157
949.008316	-0.015693
949.185505	-0.016936
949.362676	-0.018356
949.539828	-0.019415
949.716962	-0.019175
949.894078	-0.019010
950.071176	-0.018815
950.248256	-0.018865
950.425317	-0.019055
950.602360	-0.020707
950.779385	-0.020899
950.956391	-0.020992
951.133380	-0.020569
951.310350	-0.021245
951.487302	-0.022569
951.664235	-0.021706
951.841151	-0.022977
952.018048	-0.024180
952.194927	-0.023487
952.371788	-0.023258
952.548631	-0.024296
952.725455	-0.024842
952.902261	-0.023467
953.079049	-0.022781
953.255819	-0.024075
953.432570	-0.023215
953.609303	-0.023522
953.786018	-0.023915
953.962715	-0.023622
954.139394	-0.022284
954.316054	-0.021950
954.492696	-0.021793
954.669320	-0.020010
954.845926	-0.020028
955.022513	-0.019627
955.199083	-0.018050
955.375634	-0.018113
955.552166	-0.017655
955.728681	-0.017589
955.905177	-0.016047
956.081655	-0.017115
956.258115	-0.018344
956.434557	-0.017984
956.610980	-0.017143
956.787385	-0.019048
956.963772	-0.017556
957.140141	-0.017676
957.316492	-0.017093
957.492824	-0.019504
957.669138	-0.019825
957.845434	-0.019652
958.021712	-0.019681
958.197971	-0.018800
958.374212	-0.019384
958.550435	-0.020607
958.726640	-0.021072
958.902826	-0.020718
959.078995	-0.019480
959.255145	-0.018570
959.431277	-0.018040
959.607390	-0.018147
959.783486	-0.019294
959.959563	-0.016584
960.135622	-0.015315
960.311662	-0.012611
960.487685	-0.014296
960.663689	-0.014942
960.839675	-0.014084
961.015643	-0.013438
961.191593	-0.011565
961.367524	-0.012574
961.543437	-0.014179
961.719332	-0.014478
961.895209	-0.017700
962.071067	-0.017034
962.246907	-0.017350
962.422730	-0.018003
962.598533	-0.021064
962.774319	-0.021396
962.950086	-0.021449
963.125835	-0.020147
963.301566	-0.022392
963.477279	-0.021776
963.652973	-0.021159
963.828650	-0.020745
964.004308	-0.020794
964.179947	-0.021758
964.355569	-0.021944
964.531172	-0.021064
964.706757	-0.023349
964.882324	-0.020714
965.057873	-0.019157
965.233403	-0.019738
965.408916	-0.018696
965.584410	-0.019603
965.759885	-0.018201
965.935343	-0.015730
966.110782	-0.014800
966.286203	-0.013179
966.461606	-0.012589
966.636991	-0.012565
966.812357	-0.009881
966.987705	-0.009490
967.163035	-0.009415
967.338347	-0.005215
967.513641	-0.009379
967.688916	-0.011542
967.864173	-0.010332
968.039412	-0.012734
968.214632	-0.013591
968.389835	-0.015771
968.565019	-0.016207
968.740185	-0.015782
968.915333	-0.016953
969.090462	-0.014225
969.265573	-0.014025
969.440667	-0.015345
969.615741	-0.015495
969.790798	-0.014184
969.965836	-0.013816
970.140856	-0.015043
970.315858	-0.013182
970.490842	-0.014794
970.665808	-0.016713
970.840755	-0.014307
971.015684	-0.012586
971.190595	-0.012779
971.365487	-0.013597
971.540362	-0.015361
971.715218	-0.015730
971.890056	-0.018105
972.064875	-0.018385
972.239677	-0.018631
972.414460	-0.021495
972.589225	-0.021616
972.763972	-0.021353
972.938700	-0.022106
973.113411	-0.019997
973.288103	-0.019037
973.462777	-0.018908
973.637432	-0.016182
973.812070	-0.016962
973.986689	-0.017109
974.161290	-0.018354
974.335873	-0.019047
974.510437	-0.018728
974.684984	-0.018316
974.859512	-0.018762
975.034022	-0.018117
975.208513	-0.018744
975.382987	-0.017650
975.557442	-0.014505
975.731879	-0.015459
975.906298	-0.015398
976.080698	-0.014754
976.255080	-0.013139
976.429445	-0.013398
976.603790	-0.013532
976.778118	-0.012020
976.952427	-0.010128
977.126719	-0.012032
977.300992	-0.010966
977.475246	-0.008097
977.649483	-0.008857
977.823701	-0.013025
977.997901	-0.012825
978.172083	-0.011898
978.346247	-0.012732
978.520392	-0.011964
978.694519	-0.009739
978.868628	-0.007838
979.042719	-0.009879
979.216791	-0.009765
979.390845	-0.007662
979.564882	-0.007395
979.738899	-0.007698
979.912899	-0.010743
980.086880	-0.010346
980.260843	-0.011187
980.434788	-0.010601
980.608715	-0.009930
980.782623	-0.008832
980.956514	-0.010303
981.130386	-0.009687
981.304240	-0.010897
981.478075	-0.007885
981.651892	-0.008373
981.825692	-0.008893
981.999472	-0.008832
982.173235	-0.008004
982.346980	-0.008436
982.520706	-0.007369
982.694414	-0.005803
982.868104	-0.003653
983.041775	-0.006430
983.215428	-0.008125
983.389064	-0.005315
983.562680	-0.008055
983.736279	-0.008920
983.909860	-0.008912
984.083422	-0.008642
984.256966	-0.009069
984.430491	-0.011062
984.603999	-0.010407
984.777488	-0.012495
984.950959	-0.014792
985.124412	-0.015367
985.297847	-0.014793
985.471263	-0.014101
985.644661	-0.012821
985.818041	-0.013661
985.991403	-0.010704
986.164747	-0.011172
986.338072	-0.009501
986.511379	-0.009284
986.684668	-0.011030
986.857938	-0.009148
987.031191	-0.010762
987.204425	-0.011711
987.377641	-0.013093
987.550839	-0.015544
987.724018	-0.014893
987.897179	-0.013046
988.070322	-0.014603
988.243447	-0.011208
988.416554	-0.009986
988.589642	-0.010694
988.762712	-0.010253
988.935764	-0.009503
989.108798	-0.009555
989.281813	-0.009442
989.454811	-0.009423
989.627790	-0.008192
989.800751	-0.009949
989.973693	-0.013221
990.146617	-0.010465
990.319524	-0.009647
990.492412	-0.010364
990.665281	-0.007694
990.838133	-0.007997
991.010966	-0.007241
991.183781	-0.008655
991.356578	-0.007864
991.529356	-0.007625
991.702117	-0.009545
991.874859	-0.009475
992.047583	-0.008652
992.220288	-0.012012
992.392976	-0.010108
992.565645	-0.011497
992.738296	-0.008791
992.910929	-0.007695
993.083543	-0.008279
993.256139	-0.008619
993.428718	-0.009514
993.601277	-0.009364
993.773819	-0.010319
993.946342	-0.013340
994.118848	-0.013027
994.291335	-0.014454
994.463803	-0.015122
994.636254	-0.015259
994.808686	-0.013355
994.981100	-0.012566
995.153496	-0.010813
995.325874	-0.008916
995.498233	-0.007554
995.670574	-0.008696
995.842897	-0.011015
996.015202	-0.011954
996.187488	-0.012945
996.359757	-0.014862
996.532007	-0.014533
996.704239	-0.016560
996.876452	-0.015437
997.048648	-0.014493
997.220825	-0.015456
997.392984	-0.013757
997.565124	-0.012692
997.737247	-0.013524
997.909351	-0.011750
998.081437	-0.013376
998.253505	-0.013041
998.425554	-0.013350
998.597586	-0.014886
998.769599	-0.014718
998.941594	-0.015496
999.113571	-0.016620
999.285529	-0.013200
999.457469	-0.015547
999.629391	-0.015640
999.801295	-0.015637
999.973181	-0.014429
1000.145048	-0.012839
1000.316897	-0.010368
1000.488728	-0.008756
1000.660541	-0.008325
1000.832335	-0.006891
1001.004111	-0.005712
1001.175869	-0.006159
1001.347609	-0.008084
1001.519331	-0.009611
1001.691034	-0.010622
1001.862719	-0.011622
1002.034386	-0.011534
1002.206035	-0.010527
1002.377665	-0.012431
1002.549277	-0.010463
1002.720871	-0.009956
1002.892447	-0.008120
1003.064004	-0.009429
1003.235544	-0.009626
1003.407065	-0.009954
1003.578568	-0.011614
1003.750052	-0.009907
1003.921519	-0.010556
1004.092967	-0.012111
1004.264397	-0.011244
1004.435809	-0.009856
1004.607202	-0.007651
1004.778577	-0.006059
1004.949934	-0.005104
1005.121273	-0.004049
1005.292594	-0.006645
1005.463896	-0.005241
1005.635180	-0.005719
1005.806446	-0.006827
1005.977694	-0.008289
1006.148923	-0.010567
1006.320135	-0.010711
1006.491328	-0.012007
1006.662503	-0.011061
1006.833659	-0.011110
1007.004798	-0.012828
1007.175918	-0.012460
1007.347020	-0.014159
1007.518103	-0.011772
1007.689169	-0.010752
1007.860216	-0.012053
1008.031245	-0.010326
1008.202256	-0.009800
1008.373248	-0.011558
1008.544223	-0.011141
1008.715179	-0.012213
1008.886117	-0.010325
1009.057036	-0.010953
1009.227938	-0.010647
1009.398821	-0.010046
1009.569686	-0.010208
1009.740533	-0.010886
1009.911361	-0.007873
1010.082172	-0.006686
1010.252964	-0.005690
1010.423738	-0.006271
1010.594493	-0.007170
1010.765231	-0.006839
1010.935950	-0.007282
1011.106651	-0.009348
1011.277334	-0.009533
1011.447998	-0.010895
1011.618645	-0.011726
1011.789273	-0.013590
1011.959882	-0.013495
1012.130474	-0.013653
1012.301048	-0.014379
1012.471603	-0.014316
1012.642140	-0.013797
1012.812658	-0.014585
1012.983159	-0.014547
1013.153641	-0.014361
1013.324105	-0.012297
1013.494551	-0.011255
1013.664979	-0.010457
1013.835388	-0.011078
1014.005779	-0.012178
1014.176152	-0.011530
1014.346507	-0.011276
1014.516843	-0.011316
1014.687162	-0.010239
1014.857462	-0.010794
1015.027744	-0.011171
1015.198007	-0.011958
1015.368252	-0.012097
1015.538480	-0.011449
1015.708689	-0.013499
1015.878879	-0.013069
1016.049052	-0.013292
1016.219206	-0.015998
1016.389342	-0.013898
1016.559460	-0.013884
1016.729559	-0.014951
1016.899641	-0.013859
1017.069704	-0.012396
1017.239749	-0.008662
1017.409775	-0.009208
1017.579784	-0.009031
1017.749774	-0.006520
1017.919746	-0.009492
1018.089700	-0.008909
1018.259635	-0.007991
1018.429553	-0.007824
1018.599452	-0.008979
1018.769333	-0.009728
1018.939195	-0.009642
1019.109040	-0.009551
1019.278866	-0.012543
1019.448674	-0.011464
1019.618464	-0.010903
1019.788235	-0.008943
1019.957989	-0.006846
1020.127724	-0.005091
1020.297441	-0.006356
1020.467139	-0.006511
1020.636820	-0.008049
1020.806482	-0.005712
1020.976126	-0.004456
1021.145752	-0.005336
1021.315359	-0.007103
1021.484948	-0.011840
1021.654519	-0.012993
1021.824072	-0.014903
1021.993607	-0.013913
1022.163123	-0.012887
1022.332621	-0.011737
1022.502101	-0.013395
1022.671563	-0.013383
1022.841007	-0.013189
1023.010432	-0.010167
1023.179839	-0.009826
1023.349228	-0.006857
1023.518598	-0.007728
1023.687951	-0.006655
1023.857285	-0.008624
1024.026601	-0.007376
1024.195899	-0.007017
1024.365178	-0.005838
1024.534439	-0.006643
1024.703682	-0.007421
1024.872907	-0.008904
1025.042114	-0.007259
1025.211302	-0.009838
1025.380472	-0.010166
1025.549624	-0.011403
1025.718758	-0.011538
1025.887873	-0.014387
1026.056970	-0.012894
1026.226049	-0.012896
1026.395110	-0.011458
1026.564153	-0.013893
1026.733177	-0.011504
1026.902183	-0.011289
1027.071171	-0.011100
1027.240141	-0.012837
1027.409092	-0.009707
1027.578026	-0.011156
1027.746940	-0.009454
1027.915837	-0.009662
1028.084716	-0.009426
1028.253576	-0.009052
1028.422418	-0.009490
1028.591242	-0.008568
1028.760048	-0.006344
1028.928835	-0.009867
1029.097604	-0.008059
1029.266355	-0.010977
1029.435088	-0.010052
1029.603803	-0.012049
1029.772499	-0.012546
1029.941177	-0.013356
1030.109837	-0.012625
1030.278478	-0.012301
1030.447102	-0.011637
1030.615707	-0.011657
1030.784294	-0.009899
1030.952863	-0.012467
1031.121413	-0.009382
1031.289945	-0.010648
1031.458460	-0.008876
1031.626955	-0.010696
1031.795433	-0.010753
1031.963892	-0.007571
1032.132334	-0.009134
1032.300756	-0.009520
1032.469161	-0.009732
1032.637548	-0.010409
1032.805916	-0.009423
1032.974266	-0.010180
1033.142598	-0.008770
1033.310911	-0.009681
1033.479207	-0.012493
1033.647484	-0.012594
1033.815743	-0.012778
1033.983983	-0.011671
1034.152206	-0.011133
1034.320410	-0.010004
1034.488596	-0.007599
1034.656764	-0.006265
1034.824914	-0.006315
1034.993045	-0.005980
1035.161158	-0.007026
1035.329253	-0.007286
1035.497330	-0.005711
1035.665388	-0.005657
1035.833428	-0.007278
1036.001450	-0.010513
1036.169454	-0.012614
1036.337440	-0.012911
1036.505407	-0.011409
1036.673356	-0.010270
1036.841287	-0.009966
1037.009200	-0.011733
1037.177094	-0.011325
1037.344970	-0.009239
1037.512828	-0.009097
1037.680668	-0.007819
1037.848489	-0.009552
1038.016293	-0.010820
1038.184078	-0.011512
1038.351845	-0.010866
1038.519593	-0.010644
1038.687324	-0.011892
1038.855036	-0.013618
1039.022730	-0.012247
1039.190406	-0.013042
1039.358063	-0.010881
1039.525702	-0.011384
1039.693323	-0.008608
1039.860926	-0.008058
1040.028511	-0.008356
1040.196077	-0.007914
1040.363625	-0.006685
1040.531155	-0.005906
1040.698667	-0.007641
1040.866161	-0.006365
1041.033636	-0.005591
1041.201093	-0.007797
1041.368532	-0.008962
1041.535952	-0.009312
1041.703355	-0.009499
1041.870739	-0.010713
1042.038105	-0.010897
1042.205452	-0.009745
1042.372782	-0.011795
1042.540093	-0.011030
1042.707386	-0.010471
1042.874661	-0.007378
1043.041918	-0.006355
1043.209156	-0.006492
1043.376376	-0.006308
1043.543578	-0.007309
1043.710762	-0.008745
1043.877927	-0.007491
1044.045074	-0.007879
1044.212203	-0.006904
1044.379314	-0.009402
1044.546407	-0.010504
1044.713481	-0.009434
1044.880537	-0.009105
1045.047575	-0.007391
1045.214595	-0.005613
1045.381596	-0.006322
1045.548579	-0.005994
1045.715544	-0.007738
1045.882491	-0.007824
1046.049420	-0.006748
1046.216330	-0.006514
1046.383222	-0.006940
1046.550096	-0.008140
1046.716951	-0.008462
1046.883789	-0.008027
1047.050608	-0.011371
1047.217409	-0.012042
1047.384192	-0.011152
1047.550956	-0.011875
1047.717703	-0.011309
1047.884431	-0.011141
1048.051140	-0.010162
1048.217832	-0.010430
1048.384505	-0.010770
1048.551161	-0.006953
1048.717798	-0.005191
1048.884416	-0.007349
1049.051017	-0.008037
1049.217599	-0.010301
1049.384163	-0.009413
1049.550709	-0.011749
1049.717237	-0.010406
1049.883746	-0.012207
1050.050237	-0.013453
1050.216710	-0.013388
1050.383165	-0.013081
1050.549601	-0.010985
1050.716019	-0.008975
1050.882420	-0.008976
1051.048801	-0.006743
1051.215165	-0.008432
1051.381510	-0.004320
1051.547837	-0.005665
1051.714146	-0.006670
1051.880437	-0.004795
1052.046709	-0.005603
1052.212964	-0.005926
1052.379200	-0.006442
1052.545417	-0.006107
1052.711617	-0.005933
1052.877798	-0.007843
1053.043961	-0.006281
1053.210106	-0.007794
1053.376233	-0.009519
1053.542341	-0.009558
1053.708432	-0.009529
1053.874504	-0.010024
1054.040557	-0.011409
1054.206593	-0.010346
1054.372610	-0.010599
1054.538609	-0.010952
1054.704590	-0.010132
1054.870553	-0.008726
1055.036497	-0.007583
1055.202424	-0.007984
1055.368331	-0.007845
1055.534221	-0.007845
1055.700093	-0.006647
1055.865946	-0.006173
1056.031781	-0.004530
1056.197598	-0.001326
1056.363397	-0.000957
1056.529177	-0.002311
1056.694939	-0.003663
1056.860683	-0.003934
1057.026409	-0.003015
1057.192116	-0.004652
1057.357806	-0.005218
1057.523477	-0.006167
1057.689130	-0.009123
1057.854764	-0.012854
1058.020381	-0.012814
1058.185979	-0.008841
1058.351559	-0.009222
1058.517120	-0.010361
1058.682664	-0.012402
1058.848189	-0.013510
1059.013696	-0.014705
1059.179185	-0.015177
1059.344656	-0.012803
1059.510108	-0.014106
1059.675542	-0.016527
1059.840958	-0.014142
1060.006356	-0.014926
1060.171735	-0.014594
1060.337096	-0.013210
1060.502439	-0.012296
1060.667764	-0.014064
1060.833071	-0.015944
1060.998359	-0.015264
1061.163629	-0.013344
1061.328881	-0.015170
1061.494115	-0.015119
1061.659330	-0.014851
1061.824527	-0.015141
1061.989706	-0.016612
1062.154867	-0.013623
1062.320010	-0.012679
1062.485134	-0.010313
1062.650240	-0.013071
1062.815328	-0.014432
1062.980398	-0.012763
1063.145449	-0.010555
1063.310482	-0.012429
1063.475497	-0.012322
1063.640494	-0.013758
1063.805473	-0.012270
1063.970433	-0.015543
1064.135375	-0.015199
1064.300299	-0.013586
1064.465204	-0.015864
1064.630092	-0.015822
1064.794961	-0.013801
1064.959812	-0.013848
1065.124645	-0.010913
1065.289459	-0.013787
1065.454256	-0.012576
1065.619034	-0.012301
1065.783793	-0.014352
1065.948535	-0.012775
1066.113258	-0.012465
1066.277964	-0.012978
1066.442651	-0.013410
1066.607319	-0.015184
1066.771970	-0.013029
1066.936602	-0.014537
1067.101216	-0.014378
1067.265812	-0.012768
1067.430389	-0.013618
1067.594949	-0.015070
1067.759490	-0.013684
1067.924013	-0.011296
1068.088518	-0.009233
1068.253004	-0.011473
1068.417472	-0.010311
1068.581922	-0.008531
1068.746354	-0.010609
1068.910768	-0.010532
1069.075163	-0.009675
1069.239540	-0.009871
1069.403899	-0.012352
1069.568240	-0.012538
1069.732562	-0.008636
1069.896866	-0.008058
1070.061152	-0.009325
1070.225420	-0.009337
1070.389670	-0.010295
1070.553901	-0.011182
1070.718114	-0.011467
1070.882309	-0.011361
1071.046486	-0.014769
1071.210644	-0.018058
1071.374784	-0.017837
1071.538906	-0.016676
1071.703010	-0.014935
1071.867096	-0.013590
1072.031163	-0.013715
1072.195212	-0.015575
1072.359243	-0.015124
1072.523256	-0.012827
1072.687250	-0.010180
1072.851226	-0.009256
1073.015184	-0.012421
1073.179124	-0.009721
1073.343045	-0.008283
1073.506949	-0.006159
1073.670834	-0.005201
1073.834701	-0.005942
1073.998549	-0.005855
1074.162380	-0.005787
1074.326192	-0.008011
1074.489986	-0.005753
1074.653761	-0.006737
1074.817519	-0.007030
1074.981258	-0.008061
1075.144979	-0.008115
1075.308682	-0.005759
1075.472367	-0.006209
1075.636033	-0.006292
1075.799681	-0.003940
1075.963311	-0.005087
1076.126923	-0.006232
1076.290516	-0.006784
1076.454092	-0.006318
1076.617649	-0.005034
1076.781187	-0.007546
1076.944708	-0.007649
1077.108210	-0.009195
1077.271695	-0.009937
1077.435160	-0.008084
1077.598608	-0.007164
1077.762038	-0.005622
1077.925449	-0.010674
1078.088842	-0.011667
1078.252217	-0.009940
1078.415573	-0.011307
1078.578912	-0.009174
1078.742232	-0.010124
1078.905534	-0.013011
1079.068817	-0.012633
1079.232083	-0.014155
1079.395330	-0.009570
1079.558559	-0.009554
1079.721770	-0.009456
1079.884962	-0.007039
1080.048136	-0.006102
1080.211293	-0.004381
1080.374430	-0.003441
1080.537550	-0.006872
1080.700651	-0.008699
1080.863735	-0.010769
1081.026800	-0.010221
1081.189846	-0.009201
1081.352875	-0.010439
1081.515885	-0.012978
1081.678877	-0.014508
1081.841851	-0.014520
1082.004807	-0.013147
1082.167744	-0.013426
1082.330663	-0.011666
1082.493564	-0.011689
1082.656447	-0.011731
1082.819312	-0.012931
1082.982158	-0.014514
1083.144986	-0.013374
1083.307796	-0.013920
1083.470587	-0.015106
1083.633361	-0.015194
1083.796116	-0.015670
1083.958853	-0.018380
1084.121571	-0.018398
1084.284272	-0.017555
1084.446954	-0.016745
1084.609618	-0.017415
1084.772264	-0.016047
1084.934892	-0.012790
1085.097501	-0.013035
1085.260092	-0.011451
1085.422665	-0.010546
1085.585220	-0.008855
1085.747756	-0.009216
1085.910274	-0.009102
1086.072774	-0.008613
1086.235256	-0.006675
1086.397720	-0.004511
1086.560165	-0.003758
1086.722592	-0.005521
1086.885001	-0.005000
1087.047392	-0.008318
1087.209764	-0.006439
1087.372119	-0.007991
1087.534455	-0.008156
1087.696772	-0.012870
1087.859072	-0.015114
1088.021353	-0.015503
1088.183616	-0.017428
1088.345861	-0.016988
1088.508088	-0.016974
1088.670296	-0.015156
1088.832486	-0.009921
1088.994658	-0.013198
1089.156812	-0.010880
1089.318948	-0.010463
1089.481065	-0.009162
1089.643164	-0.009578
1089.805245	-0.010166
1089.967308	-0.008730
1090.129352	-0.011628
1090.291378	-0.014883
1090.453386	-0.013270
1090.615376	-0.013151
1090.777347	-0.016712
1090.939301	-0.014983
1091.101236	-0.013291
1091.263153	-0.010446
1091.425051	-0.010288
1091.586932	-0.009557
1091.748794	-0.008166
1091.910638	-0.004742
1092.072463	-0.005545
1092.234271	-0.003791
1092.396060	-0.005144
1092.557831	-0.004315
1092.719584	-0.006544
1092.881319	-0.010116
1093.043035	-0.008928
1093.204733	-0.009813
1093.366413	-0.011289
1093.528075	-0.012185
1093.689718	-0.011091
1093.851343	-0.012230
1094.012950	-0.014213
1094.174539	-0.013920
1094.336110	-0.011343
1094.497662	-0.016785
1094.659196	-0.016793
1094.820712	-0.017771
1094.982210	-0.017125
1095.143689	-0.019096
1095.305151	-0.018095
1095.466594	-0.017751
1095.628018	-0.016879
1095.789425	-0.014094
1095.950813	-0.011895
1096.112183	-0.014557
1096.273535	-0.016078
1096.434869	-0.014381
1096.596184	-0.012995
1096.757482	-0.013209
1096.918761	-0.012083
1097.080021	-0.010879
1097.241264	-0.013425
1097.402488	-0.012911
1097.563694	-0.009754
1097.724882	-0.009263
1097.886052	-0.010539
1098.047203	-0.009777
1098.208336	-0.007835
1098.369451	-0.005258
1098.530548	-0.006596
1098.691627	-0.008510
1098.852687	-0.008516
1099.013729	-0.006181
1099.174753	-0.004616
1099.335758	-0.006936
1099.496746	-0.008326
1099.657715	-0.010268
1099.818666	-0.011059
1099.979599	-0.009800
1100.140513	-0.007818
1100.301409	-0.005878
1100.462287	-0.011638
1100.623147	-0.011611
1100.783989	-0.006413
1100.944812	-0.004638
1101.105617	-0.006448
1101.266404	-0.007825
1101.427173	-0.008537
1101.587923	-0.008560
1101.748656	-0.010737
1101.909370	-0.004737
1102.070066	-0.005802
1102.230743	-0.009024
1102.391403	-0.008721
1102.552044	-0.007592
1102.712667	-0.003783
1102.873271	-0.005698
1103.033858	-0.007295
1103.194426	-0.003158
1103.354976	-0.006882
1103.515508	-0.007209
1103.676021	-0.010781
1103.836517	-0.011534
1103.996994	-0.010990
1104.157453	-0.016031
1104.317893	-0.017074
1104.478316	-0.015594
1104.638720	-0.020378
1104.799106	-0.018192
1104.959474	-0.016056
1105.119823	-0.010750
1105.280155	-0.014533
1105.440468	-0.012178
1105.600763	-0.010859
1105.761039	-0.013767
1105.921298	-0.013548
1106.081538	-0.012059
1106.241760	-0.012691
1106.401964	-0.015077
1106.562149	-0.015710
1106.722316	-0.010758
1106.882465	-0.012614
1107.042596	-0.012460
1107.202709	-0.005656
1107.362803	-0.006118
1107.522879	-0.002738
1107.682937	-0.004109
1107.842977	-0.005330
1108.002999	-0.008409
1108.163002	-0.009619
1108.322987	-0.007878
1108.482954	-0.005667
1108.642902	-0.011130
1108.802833	-0.010387
1108.962745	-0.012117
1109.122639	-0.014333
1109.282515	-0.014719
1109.442372	-0.015120
1109.602211	-0.016263
1109.762032	-0.019982
1109.921835	-0.020190
1110.081620	-0.016883
1110.241386	-0.020445
1110.401134	-0.021034
1110.560864	-0.018718
1110.720576	-0.019342
1110.880269	-0.020277
1111.039945	-0.020952
1111.199602	-0.016721
1111.359240	-0.020783
1111.518861	-0.019026
1111.678463	-0.012543
1111.838047	-0.014087
1111.997613	-0.012762
1112.157161	-0.008568
1112.316690	-0.005823
1112.476202	-0.005215
1112.635695	-0.009675
1112.795169	-0.010720
1112.954626	-0.013552
1113.114064	-0.015806
1113.273484	-0.016101
1113.432886	-0.017395
1113.592270	-0.018318
1113.751635	-0.016990
1113.910983	-0.016996
1114.070312	-0.013160
1114.229622	-0.011571
1114.388915	-0.009193
1114.548189	-0.014821
1114.707445	-0.015065
1114.866683	-0.013296
1115.025903	-0.013960
1115.185104	-0.012968
1115.344287	-0.009585
1115.503452	-0.007185
1115.662599	-0.004318
1115.821727	-0.007375
1115.980838	-0.003932
1116.139930	0.000265
1116.299004	-0.002416
1116.458059	-0.000323
1116.617097	-0.001481
1116.776116	-0.008081
1116.935117	-0.009003
1117.094099	-0.011388
1117.253064	-0.011045
1117.412010	-0.012659
1117.570938	-0.012294
1117.729848	-0.010663
1117.888740	-0.009904
1118.047613	-0.007387
1118.206468	-0.004530
1118.365305	-0.013436
1118.524124	-0.010899
1118.682924	-0.005970
1118.841707	-0.005444
1119.000471	-0.008783
1119.159216	-0.013523
1119.317944	-0.014942
1119.476653	-0.016937
1119.635344	-0.018098
1119.794017	-0.015761
1119.952672	-0.014390
1120.111308	-0.019746
1120.269927	-0.017509
1120.428527	-0.017945
1120.587108	-0.017785
1120.745672	-0.021661
1120.904217	-0.017478
1121.062744	-0.017210
1121.221253	-0.013505
1121.379744	-0.020120
1121.538216	-0.016373
1121.696671	-0.015445
1121.855107	-0.018738
1122.013524	-0.016842
1122.171924	-0.015194
1122.330305	-0.020813
1122.488668	-0.016818
1122.647013	-0.019076
1122.805340	-0.009042
1122.963648	-0.014802
1123.121938	-0.015455
1123.280210	-0.010558
1123.438464	-0.007656
1123.596700	-0.001341
1123.754917	-0.007775
1123.913116	-0.012130
1124.071297	-0.007959
1124.229459	-0.016097
1124.387604	-0.010646
1124.545730	-0.009800
1124.703838	-0.007569
1124.861928	-0.007647
1125.019999	-0.015823
1125.178052	-0.009374
1125.336088	-0.007083
1125.494104	-0.013310
1125.652103	-0.009434
1125.810083	-0.013051
1125.968045	-0.017076
1126.125989	-0.021785
1126.283915	-0.018601
1126.441823	-0.014711
1126.599712	-0.015603
1126.757583	-0.011252
1126.915436	-0.007097
1127.073270	-0.007057
1127.231087	-0.005169
1127.388885	-0.004803
1127.546665	-0.006812
1127.704426	-0.014124
1127.862170	-0.013129
1128.019895	-0.010903
1128.177602	-0.014144
1128.335291	-0.015502
1128.492961	-0.015422
1128.650614	-0.018558
1128.808248	-0.018763
1128.965864	-0.017450
1129.123461	-0.014799
1129.281041	-0.016109
1129.438602	-0.020009
1129.596145	-0.020502
1129.753670	-0.021293
1129.911176	-0.024078
1130.068665	-0.016535
1130.226135	-0.013492
1130.383587	-0.009460
1130.541020	-0.010100
1130.698436	-0.007862
1130.855833	-0.003136
1131.013212	-0.003689
1131.170573	0.002534
1131.327915	0.005272
1131.485239	0.001306
1131.642545	0.000667
1131.799833	-0.004769
1131.957103	-0.002627
1132.114354	-0.000575
1132.271588	-0.006890
1132.428803	-0.009248
1132.585999	-0.012165
1132.743178	-0.015653
1132.900338	-0.015369
1133.057480	-0.020820
1133.214604	-0.015340
1133.371710	-0.015333
1133.528797	-0.020612
1133.685866	-0.018928
1133.842917	-0.018504
1133.999950	-0.018590
1134.156964	-0.019697
1134.313960	-0.020072
1134.470938	-0.018281
1134.627898	-0.019853
1134.784840	-0.024371
1134.941763	-0.021064
1135.098668	-0.015485
1135.255555	-0.015247
1135.412424	-0.016721
1135.569274	-0.009047
1135.726107	-0.012120
1135.882921	-0.006048
1136.039716	-0.001685
1136.196494	0.005114
1136.353253	0.001928
1136.509995	0.005550
1136.666717	0.006544
1136.823422	0.008472
1136.980109	0.004086
1137.136777	0.008472
1137.293427	0.006568
1137.450059	-0.001689
1137.606672	-0.005317
1137.763267	-0.006887
1137.919844	-0.015685
1138.076403	-0.017217
1138.232944	-0.011913
1138.389466	-0.014385
1138.545971	-0.009005
1138.702457	-0.010315
1138.858924	-0.006603
1139.015374	-0.010259
1139.171805	-0.004766
1139.328218	-0.002254
1139.484613	-0.000029
1139.640990	-0.014375
1139.797348	-0.016099
1139.953688	-0.022334
1140.110010	-0.013931
1140.266314	-0.014020
1140.422600	-0.005408
1140.578867	-0.005084
1140.735116	-0.003939
1140.891347	-0.008179
1141.047559	-0.004765
1141.203754	0.002569
1141.359930	0.002204
1141.516088	-0.010867
1141.672228	-0.010595
1141.828349	-0.013520
1141.984452	-0.017143
1142.140537	-0.018552
1142.296604	-0.012145
1142.452653	-0.007771
1142.608683	-0.010549
1142.764695	-0.012037
1142.920689	-0.000735
1143.076665	-0.002607
1143.232622	0.002589
1143.388562	0.005179
1143.544483	0.006220
1143.700385	0.003655
1143.856270	0.003837
1144.012136	-0.003402
1144.167985	-0.001386
1144.323814	-0.007076
1144.479626	-0.003316
1144.635420	-0.010696
1144.791195	-0.010525
1144.946952	-0.012906
1145.102691	-0.009167
1145.258411	-0.007379
1145.414113	-0.000336
1145.569798	-0.008710
1145.725463	-0.009193
1145.881111	-0.008255
1146.036741	-0.008854
1146.192352	-0.006713
1146.347945	-0.006391
1146.503519	-0.008748
1146.659076	-0.006199
1146.814614	-0.009530
1146.970134	-0.006318
1147.125636	-0.003608
1147.281120	-0.002412
1147.436585	0.004400
1147.592032	-0.003789
1147.747461	0.004138
1147.902872	0.002641
1148.058265	0.005808
1148.213639	0.005637
1148.368995	0.014891
1148.524333	0.014874
1148.679653	0.010488
1148.834954	0.008962
1148.990237	0.006960
1149.145502	0.002501
1149.300749	-0.000408
1149.455977	-0.009865
1149.611188	-0.004612
1149.766380	-0.005829
1149.921553	-0.006702
1150.076709	-0.005727
1150.231846	-0.001154
1150.386966	0.004012
1150.542066	0.003346
1150.697149	-0.000015
1150.852214	-0.000681
1151.007260	-0.007190
1151.162288	-0.010134
1151.317298	-0.008066
1151.472289	-0.008275
1151.627263	-0.012496
1151.782218	-0.016134
1151.937155	-0.025687
1152.092073	-0.019497
1152.246974	-0.020565
1152.401856	-0.019139
1152.556720	-0.018798
1152.711566	-0.025011
1152.866393	-0.025837
1153.021203	-0.027677
1153.175994	-0.027196
1153.330767	-0.018422
1153.485521	-0.024307
1153.640258	-0.009906
1153.794976	-0.010929
1153.949676	-0.011739
1154.104358	-0.008670
1154.259021	-0.009407
1154.413667	-0.007251
1154.568294	-0.006946
1154.722903	-0.006323
1154.877493	0.005368
1155.032066	-0.006469
1155.186620	-0.006639
1155.341156	-0.011990
1155.495674	-0.007594
1155.650173	-0.007430
1155.804654	-0.000296
1155.959118	0.002900
1156.113562	0.001762
1156.267989	-0.004378
1156.422397	-0.003541
1156.576788	0.005567
1156.731160	0.005810
1156.885513	0.009370
1157.039849	0.013147
1157.194166	0.001063
1157.348465	0.003654
1157.502746	0.005577
1157.657009	0.009756
1157.811253	0.003285
1157.965479	-0.003820
1158.119687	-0.002116
1158.273877	-0.009779
1158.428048	-0.015112
1158.582201	-0.021471
1158.736337	-0.023861
1158.890453	-0.024672
1159.044552	-0.021739
1159.198632	-0.022030
1159.352694	-0.013824
1159.506738	-0.005722
1159.660764	-0.001991
1159.814771	0.004060
1159.968761	0.013305
1160.122732	0.009373
1160.276685	0.013045
1160.430619	0.007619
1160.584535	0.014599
1160.738434	0.005102
1160.892313	0.003318
1161.046175	-0.000298
1161.200019	-0.012051
1161.353844	-0.015934
1161.507651	-0.014699
1161.661440	-0.019003
1161.815210	-0.012057
1161.968962	-0.007157
1162.122697	-0.014825
1162.276412	-0.022944
1162.430110	-0.025714
1162.583789	-0.014162
1162.737451	-0.010635
1162.891094	0.005641
1163.044718	0.004326
1163.198325	-0.007009
1163.351913	-0.014551
1163.505483	-0.008718
1163.659035	0.006171
1163.812569	0.012691
1163.966084	0.005967
1164.119581	0.015146
1164.273060	0.001022
1164.426521	0.006006
1164.579964	0.012166
1164.733388	0.014343
1164.886794	0.017871
1165.040182	0.010712
1165.193551	0.001122
1165.346903	0.002297
1165.500236	-0.004572
1165.653551	-0.007840
1165.806848	-0.012275
1165.960126	-0.027524
1166.113386	-0.028787
1166.266628	-0.023258
1166.419852	-0.029209
1166.573058	-0.029884
1166.726245	-0.032080
1166.879414	-0.034417
1167.032565	-0.034197
1167.185698	-0.028752
1167.338812	-0.011160
1167.491909	-0.009285
1167.644987	-0.006173
1167.798046	-0.001920
1167.951088	-0.001204
1168.104111	0.002381
1168.257117	-0.009369
1168.410103	0.001925
1168.563072	-0.003496
1168.716023	-0.005790
1168.868955	-0.005652
1169.021869	-0.020276
1169.174765	-0.027840
1169.327642	-0.008569
1169.480501	-0.004939
1169.633343	0.006408
1169.786165	-0.007477
1169.938970	-0.001466
1170.091757	-0.011698
1170.244525	0.002726
1170.397275	0.013737
1170.550007	0.004533
1170.702720	-0.012775
1170.855415	-0.006720
1171.008092	-0.003834
1171.160751	0.007909
1171.313392	0.006699
1171.466014	0.072066
1171.618619	0.037712
1171.771205	0.037712
1171.923772	0.037712
