sample name	sample
index	1308
start time	 04-29-2021  04:08:26 PM
880	-0.013954
Peak Time (s)	102.535
Peak Height 	-0.01395
calc peak height	100,103
Baseline Time (s)	11.537
Baseline Value 	-0.004825
subtract baseline	10,4
Abs	0.026536
Peak Time (s)	101.036
Peak Height 	0.02654
calc peak height	100,103
Baseline Time (s)	10.537
Baseline Value 	0.001519
subtract baseline	10,3
PK_550	0.008940
Peak Time (s)	101.537
Peak Height 	0.00894
calc peak height	100,103
Baseline Time (s)	10.537
Baseline Value 	8.6258E-4
subtract baseline	10,2
PK_880	0.018243
Peak Time (s)	100.536
Peak Height 	0.01824
calc peak height	100,103
Baseline Time (s)	10.037
Baseline Value 	0.002774
subtract baseline	10,1


Time (s)	A880-A510	A880-A775	A880-A975	A880	I510	I775	I975	I880	
0.036500	-0.002820	-0.000278	-0.003529	0.002112	6345.096108	41227.985383	3880.291071	20995.591210
0.536500	-0.003321	-0.001629	-0.002060	0.002413	6338.921435	41082.995261	3882.743551	20983.119691
1.037000	-0.002560	-0.000216	-0.000381	0.004240	6330.728031	41046.748486	3882.431827	20907.612289
1.536500	-0.000282	-0.000607	0.000154	0.000797	6374.924534	41314.740755	3890.823161	21050.151964
2.037000	-0.001341	-0.000082	-0.000535	0.000666	6367.713766	41372.665927	3889.641849	21055.614184
2.537500	0.001234	0.000430	0.007744	0.001414	6381.923785	41351.823211	3905.725104	21024.553379
3.035500	-0.000191	-0.000729	0.004285	-0.000822	6388.247523	41446.959070	3903.093807	21117.601756
3.536000	-0.001185	-0.000704	0.002772	-0.000006	6374.152231	41377.122600	3898.104482	21083.594490
4.035500	-0.000861	0.000076	0.000864	0.000458	6373.059168	41405.009708	3893.050536	21064.278788
4.536000	-0.001306	-0.000387	-0.003272	0.000064	6372.662418	41398.824745	3885.134268	21080.664877
5.036000	-0.001491	-0.000070	0.006068	0.000187	6370.275841	41416.083219	3904.757845	21075.558424
5.536000	-0.001411	-0.000694	-0.000359	-0.000068	6372.878777	41383.421619	3891.571857	21086.175802
6.037000	-0.002457	-0.001044	0.001085	-0.000753	6370.068672	41413.034564	3896.100025	21114.741447
6.537500	-0.002309	-0.000121	0.006877	-0.000205	6366.960188	41446.083141	3907.343456	21091.850754
7.035000	-0.000896	-0.000197	0.004531	-0.000007	6376.400365	41421.908267	3901.871630	21083.622137
7.538000	0.000054	-0.000123	-0.000795	0.000093	6383.024803	41419.665392	3890.306696	21079.466677
8.035500	-0.002832	-0.000679	-0.002218	0.000024	6361.134882	41376.626252	3887.442187	21082.336670
8.535500	-0.000466	-0.000671	-0.008250	-0.000550	6383.985797	41428.062376	3875.987026	21106.269992
9.036000	0.000631	0.000100	-0.003191	0.000617	6383.428865	41393.009365	3884.138693	21057.632657
9.536500	-0.002923	0.000165	0.000682	0.000052	6360.209264	41448.705212	3893.526136	21081.158175
10.036500	0.000000	0.000640	0.001702	0.001120	6374.606541	41396.348812	3893.424024	21036.744185
10.537000	0.000342	0.000000	0.000000	-0.000009	6386.064263	41439.533870	3892.207922	21083.710787
11.037000	-0.001509	-0.000323	0.004206	-0.000508	6375.531665	41455.017745	3902.249162	21104.483382
11.537500	0.000087	-0.000138	-0.004278	0.000000	6384.008525	41426.487548	3883.151070	21083.331166
12.038000	-0.001694	-0.000625	0.003130	-0.000827	6376.577642	41456.646663	3900.626454	21117.820054
12.535500	0.000306	0.000392	0.000319	0.000147	6384.565606	41460.346812	3892.553833	21077.198026
13.038000	0.000557	-0.000078	0.001331	-0.002484	6407.119230	41652.052327	3900.321719	21187.078590
13.536000	-0.002081	0.000182	0.002818	-0.000238	6368.994334	41475.914569	3898.700062	21093.260783
14.036000	-0.002593	-0.000884	-0.000327	0.000241	6361.305490	41339.371346	3890.983645	21073.311158
14.536500	-0.000543	-0.000736	0.002200	0.001842	6364.780979	41211.499620	3892.949784	21006.776691
15.037000	-0.000696	0.000072	-0.000458	0.000558	6373.569063	41395.795628	3890.035011	21060.112712
15.562500	0.000222	0.000126	0.000217	0.000160	6383.811682	41435.728123	3892.309122	21076.656456
16.037500	-0.001458	0.000264	0.000944	0.000986	6364.327261	41374.931049	3892.098976	21042.320351
16.538000	-0.001189	-0.000229	0.003101	0.000404	6370.925562	41382.786935	3897.930020	21066.500063
17.035000	0.000137	0.000145	0.003414	0.001120	6375.674653	41352.612859	3897.070502	21036.745086
17.538000	0.004385	0.000370	0.000796	-0.002968	6441.133293	41734.996771	3900.213599	21207.357267
18.035000	-0.002307	-0.000057	-0.000478	-0.000927	6372.589639	41515.742803	3893.142200	21122.002009
18.536000	-0.003376	-0.000181	-0.000949	0.000645	6352.125399	41365.790029	3888.811783	21056.483545
19.036000	-0.000934	-0.000152	0.002336	0.001288	6366.049838	41311.660148	3894.417654	21029.780673
19.536500	0.000113	0.000459	0.000619	0.001583	6371.880084	41339.434609	3890.144181	21017.504677
20.037000	-0.000458	0.000486	-0.000553	0.001746	6366.182796	41327.407917	3887.320176	21010.742791
20.537000	-0.002946	-0.000258	0.000331	0.000970	6352.934611	41330.323820	3890.831871	21042.968832
21.034500	0.000503	0.000467	0.000271	0.001629	6374.559257	41336.103000	3889.310742	21015.605985
21.537500	-0.002371	0.000103	0.002685	0.001245	6355.249298	41337.874155	3895.250491	21031.542973
22.035000	0.000338	-0.000292	0.007831	0.001754	6372.309839	41258.250884	3905.179565	21010.431245
22.535500	-0.001070	-0.000071	0.002780	0.001281	6365.050057	41319.366966	3895.378148	21030.075280
23.035500	-0.000640	0.000250	0.001831	0.001375	6367.659861	41339.439517	3893.157899	21026.163896
23.535500	-0.002537	0.000332	-0.003822	0.001393	6352.824974	41345.074957	3881.185670	21025.412001
24.036000	0.000902	0.000646	-0.001293	0.002001	6374.765538	41319.061416	3885.222248	21000.170323
24.536500	-0.000610	-0.000659	0.000089	0.000743	6372.800564	41315.018400	3890.802642	21052.427291
25.037000	-0.001831	-0.000950	-0.003162	0.000200	6367.524779	41337.116971	3885.078823	21074.988275
25.537000	-0.000295	-0.000076	0.006658	0.000945	6373.677910	41348.583356	3904.397733	21044.028149
26.037500	0.000388	0.000052	0.003447	0.001028	6378.342018	41352.505156	3897.338504	21040.562589
26.535000	-0.000062	-0.000037	-0.000797	0.000643	6377.830146	41378.632077	3889.136057	21056.555828
27.035000	-0.002477	-0.000270	-0.002260	0.000631	6359.182952	41359.163504	3886.071695	21057.070085
27.536000	-0.000860	-0.000483	-0.003973	0.000778	6370.583310	41327.388252	3882.159247	21050.971299
28.036000	0.000915	-0.000667	0.003548	-0.002727	6411.841196	41621.331935	3905.606019	21197.258118
28.536000	-0.000679	0.000024	0.000992	-0.000302	6380.391530	41467.605000	3894.939369	21095.929837
29.066500	-0.001421	-0.000179	0.001770	-0.000709	6377.779750	41485.597457	3897.465783	21112.873412
29.537000	-0.000096	-0.000264	-0.000959	-0.000598	6387.235787	41468.195648	3891.421735	21108.238890
30.037500	-0.001744	-0.000323	-0.005524	-0.000808	6376.038349	41481.632115	3882.232354	21117.026947
30.533500	0.000924	0.000479	0.005509	-0.000366	6393.400232	41513.518880	3904.744470	21098.578194
31.038500	-0.000409	-0.000221	-0.000419	0.000089	6379.445655	41411.330957	3891.111147	21079.620148
31.535000	-0.002553	-0.000708	-0.002866	0.000910	6356.440783	41296.005397	3884.209458	21045.486730
32.035500	-0.002326	-0.000526	0.001170	0.001253	6355.538683	41281.691885	3892.012133	21031.204809
32.555000	-0.001382	-0.000421	0.000287	0.000275	6370.428859	41377.248321	3892.214085	21071.873726
33.036000	-0.001161	-0.001049	-0.001849	-0.001026	6382.270286	41436.630565	3890.443356	21126.097667
33.536000	0.002087	0.000845	0.007658	-0.000200	6401.200493	41531.256305	3909.020267	21091.655918
34.036500	0.000383	0.000043	0.003190	-0.000308	6388.723623	41469.841137	3899.644099	21096.173730
34.537000	0.002148	0.000317	0.008276	-0.000984	6407.826067	41553.920458	3912.056225	21124.345441
35.037000	-0.000896	-0.000658	-0.003030	0.001466	6364.961863	41251.381962	3882.694182	21022.390584
35.540500	-0.000866	0.000364	0.003823	0.001965	6361.323919	41297.389904	3896.140580	21001.673844
36.035000	-0.003568	-0.001418	-0.000507	0.000183	6354.206780	41297.371776	3890.723751	21075.700225
36.535000	-0.003607	-0.000539	0.001866	0.001066	6347.091765	41297.099130	3893.889312	21038.990458
37.035500	-0.002016	0.000171	0.000485	0.001376	6356.979533	41332.320197	3890.298278	21026.096936
37.535500	-0.002290	-0.000724	-0.001043	0.000959	6358.093842	41290.215176	3887.947911	21043.440646
38.036000	-0.001809	0.000201	0.006387	0.001644	6356.512376	41311.299299	3902.310856	21014.972397
38.536500	0.000114	-0.000075	-0.004313	0.001320	6373.939478	41315.637575	3880.307975	21028.452672
39.037000	-0.001198	-0.000136	0.001054	0.001025	6366.039857	41336.183621	3892.250458	21040.676595
39.536500	-0.002750	-0.000495	-0.006240	0.000700	6356.536042	41333.132623	3877.573223	21054.179340
40.037000	-0.000837	-0.000097	0.007409	0.001291	6366.779798	41316.194238	3905.268595	21029.659357
40.537500	-0.001050	-0.000298	-0.001695	0.001597	6362.753305	41271.547641	3885.227360	21016.945869
41.034500	-0.001232	-0.000426	0.000099	0.001163	6364.702024	41298.414332	3889.931556	21034.945423
41.535500	-0.000729	-0.000213	0.005178	0.001492	6366.058484	41288.269410	3900.046660	21021.313304
42.035500	-0.000286	-0.001195	-0.005046	0.000436	6377.700005	41294.723833	3880.624743	21065.164272
42.536000	-0.001145	0.000179	-0.000031	0.001397	6363.564691	41331.183506	3889.162204	21025.234495
43.036000	-0.000606	-0.001162	0.001083	0.000591	6374.012553	41284.087965	3893.234845	21058.739680
43.536500	-0.002115	-0.000077	-0.001706	0.001218	6357.445454	41324.456877	3886.002875	21032.682699
44.036500	0.000109	0.000002	0.003394	0.001589	6371.802118	41298.624538	3896.026918	21017.250527
44.537000	-0.000089	-0.000049	-0.002172	0.000948	6375.253644	41350.659952	3885.588970	21043.899164
45.040500	0.000974	-0.000031	0.006469	-0.003269	6416.567954	41726.134512	3913.093579	21220.009539
45.538000	-0.000847	-0.000638	0.007034	-0.000690	6382.105905	41443.349980	3908.732659	21112.104554
46.057000	-0.000301	0.000126	0.001964	-0.000004	6381.018672	41450.241625	3896.375979	21083.517218
46.535500	-0.002566	-0.000063	0.002786	-0.000387	6366.382702	41467.378259	3898.948438	21099.458805
47.036000	-0.000224	-0.000749	0.000557	-0.000768	6387.573592	41440.424007	3895.007140	21115.362944
47.536000	-0.000797	0.000660	0.008562	0.000306	6374.734509	41470.021882	3909.881885	21070.585372
48.036500	-0.001925	0.000187	-0.000637	0.000682	6363.062652	41395.006969	3889.392180	21054.952651
48.536500	-0.002683	-0.000257	-0.002396	0.003656	6334.269432	41094.266472	3879.429676	20931.698722
49.036000	-0.000296	-0.000405	0.005423	0.002252	6363.520767	41204.512540	3898.943412	20989.770999
49.537500	-0.001117	-0.000205	-0.000576	-0.000179	6376.028418	41436.494645	3891.346460	21090.803405
50.034500	-0.000732	-0.000404	0.007054	0.001026	6369.643117	41312.424326	3905.072203	21040.633428
50.535000	-0.002892	-0.000492	0.001249	0.002461	6341.851258	41178.563196	3889.619540	20981.131722
51.035000	0.002157	-0.000239	0.001789	-0.002756	6421.848878	41661.968494	3901.887707	21198.499424
51.535500	0.001168	0.000334	-0.001827	-0.000983	6400.137964	41555.351675	3890.397757	21124.307750
52.036000	-0.001403	-0.000931	0.002850	0.000705	6366.932371	41294.326070	3896.752771	21053.987331
52.536500	0.004357	-0.014409	0.018321	0.120386	5589.513354	31192.237811	3699.102254	16704.227750
53.036500	-0.012543	-0.028675	-0.014235	0.100854	5605.265509	31535.691261	3677.568878	17334.849520
53.537000	-0.038551	-0.043512	-0.034898	-0.171010	7590.780321	54541.600760	4231.530449	29811.870741
54.034000	-0.034329	-0.169933	-0.021095	-0.381452	10527.335253	65535.000000	5084.001441	46531.115726
54.540500	-0.030834	-0.115726	-0.012199	-0.327245	9697.482504	65535.000000	4874.582592	41422.545627
55.034500	-0.033584	-0.084791	-0.010969	-0.288658	9089.171917	64443.492952	4717.626063	38155.535505
55.535000	-0.026206	-0.061847	-0.014644	-0.259814	8795.398847	63614.880005	4591.567046	35896.174350
56.035500	-0.023231	-0.045423	-0.017534	-0.237234	8539.489696	62762.316049	4499.217840	34229.303645
56.535500	-0.025367	-0.040725	-0.022225	-0.228789	8406.103774	62249.172415	4453.662855	33627.791014
57.036000	-0.021517	-0.048903	-0.019476	-0.244186	8651.180170	63241.627153	4516.956939	34733.281821
57.536000	-0.019711	-0.030716	-0.013448	-0.201771	8146.507468	59975.057421	4392.649560	31780.177489
58.036500	-0.016172	-0.023129	-0.007158	-0.174022	7867.326048	57392.143474	4324.076512	29998.482860
58.537000	-0.013152	-0.016834	-0.009137	-0.130393	7432.605782	52914.812084	4189.113914	27417.531939
59.039500	-0.009154	-0.010505	-0.006339	-0.101968	7190.050946	50440.744884	4119.273450	25870.276159
59.534500	-0.012237	-0.012330	-0.003230	-0.083762	6989.488847	48303.915226	4080.018705	24931.130113
60.034000	-0.009690	-0.008899	-0.007164	-0.066931	6860.322456	46928.600079	4028.205551	24097.253626
60.535500	-0.012148	-0.010103	-0.002971	-0.045542	6653.938856	44703.672950	3987.134856	23083.174841
61.035500	-0.009307	-0.008674	-0.002952	-0.044000	6664.893895	44692.821474	3983.576581	23011.965028
61.536000	-0.011023	-0.006821	-0.001272	-0.031985	6550.761359	43729.464676	3959.748282	22465.791914
62.036500	-0.011478	-0.005772	-0.008109	-0.022225	6468.153293	42921.399496	3922.646016	22033.071158
62.536500	-0.005458	-0.003332	-0.001772	-0.017807	6480.983433	42740.233277	3926.865076	21840.407774
63.036500	-0.009327	-0.004257	-0.002066	-0.003717	6339.869880	41391.009693	3895.699942	21238.805507
63.537000	-0.009655	-0.004942	-0.004596	-0.016447	6436.692066	42469.645890	3917.692151	21781.488880
64.037000	-0.010569	-0.006813	-0.002388	-0.013594	6406.994721	42042.997159	3916.285132	21658.470664
64.534500	-0.007358	-0.004897	-0.007815	-0.004409	6360.415693	41395.556344	3884.985730	21267.889174
65.034500	-0.015627	-0.011927	0.001358	-0.012994	6362.860720	41533.166421	3923.165097	21632.707297
65.535500	-0.012970	-0.001631	-0.003131	-0.000970	6291.057986	41380.303640	3887.613567	21123.783716
66.035500	-0.012499	0.000670	0.000511	-0.003223	6311.782460	41784.502803	3900.149736	21218.083504
66.536000	-0.013874	0.002494	-0.006549	-0.003602	6304.191444	41981.558790	3885.953884	21233.994983
67.045500	-0.009858	0.003544	-0.007609	-0.009546	6380.896682	42613.825106	3896.310910	21485.341433
67.542500	-0.007013	0.003234	0.000727	-0.012463	6426.079427	42852.054888	3920.618182	21609.920200
68.037000	-0.007631	0.004301	-0.003627	-0.012389	6420.624091	42943.231794	3910.978591	21606.779782
68.540000	-0.009571	0.004941	-0.010004	-0.009711	6384.419900	42756.404719	3891.565539	21492.342186
69.037500	-0.005683	0.006680	-0.007650	-0.019512	6492.879012	43825.919782	3917.717007	21914.545335
69.537500	-0.003579	0.006310	-0.008647	-0.023178	6539.624200	44136.609202	3923.557519	22074.915628
70.035000	-0.002920	0.006377	-0.003040	-0.026162	6569.453466	44426.352745	3942.600321	22206.441432
70.535500	-0.005381	0.007520	-0.003250	-0.023086	6524.209257	44242.673532	3935.272867	22070.893039
71.036000	-0.001171	0.007975	-0.001334	-0.029328	6610.110594	44882.843781	3953.570656	22347.003060
71.536000	0.000217	0.010576	-0.004439	-0.028825	6617.485645	45085.549986	3945.435756	22324.635072
72.036000	-0.000114	0.009891	-0.004237	-0.029393	6619.459266	45074.284231	3947.166652	22349.935560
72.537000	-0.005675	0.008512	-0.004332	-0.025652	6542.707930	44581.594760	3938.576671	22183.918590
73.037000	0.000243	0.009821	-0.003204	-0.031556	6640.538592	45277.263246	3954.383060	22446.557455
73.537500	0.000336	0.010313	-0.001826	-0.031958	6644.687024	45364.329552	3958.423545	22464.574369
74.038000	-0.000323	0.011178	0.000733	-0.031900	6638.676683	45443.144535	3964.131821	22461.989298
74.535000	-0.004534	0.010413	-0.008020	-0.027752	6569.264577	44966.128016	3935.042133	22276.941190
75.035000	0.000491	0.011474	-0.002548	-0.032725	6652.435801	45552.630196	3958.526397	22498.969581
75.535500	-0.000998	0.010870	0.000388	-0.032859	6641.056985	45506.676967	3965.537015	22504.993917
76.036000	0.001854	0.010168	-0.001172	-0.033063	6666.782929	45457.990576	3962.432683	22514.150789
76.536500	0.000299	0.010911	-0.002296	-0.031862	6643.571431	45413.223860	3957.135473	22460.248475
77.039000	0.001657	0.011419	0.001171	-0.031315	6650.389006	45409.471197	3963.794844	22435.783414
77.536500	0.001321	0.011604	0.007330	-0.030928	6644.313298	45389.782164	3977.087007	22418.463533
78.039000	0.001960	0.011986	-0.001928	-0.030264	6644.098125	45362.229939	3954.344295	22388.759063
78.537500	0.005232	0.012736	0.000119	-0.029711	6667.008330	45381.562171	3957.737507	22364.117374
79.034500	0.004766	0.012511	0.002080	-0.029126	6658.134819	45302.575196	3960.869931	22338.028354
79.535000	0.004988	0.011352	0.000813	-0.030204	6669.115847	45294.723613	3960.439501	22386.116000
80.035500	0.005195	0.010563	0.004035	-0.029602	6665.765460	45159.579051	3966.430340	22359.216909
80.536000	0.002058	0.008896	0.000208	-0.026098	6610.099774	44660.994531	3949.755413	22203.613163
81.036000	0.007171	0.009084	0.003146	-0.030744	6692.204516	45126.854903	3967.010668	22410.220779
81.536000	0.004570	0.008479	-0.002428	-0.030878	6671.279147	45081.281821	3954.605084	22416.231580
82.037000	0.006090	0.008504	0.009084	-0.030815	6683.614313	45077.590462	3980.896896	22413.376388
82.537000	0.008453	0.008486	0.006888	-0.030784	6703.464949	45072.855082	3975.728823	22412.006304
83.037000	0.007988	0.008131	0.003868	-0.030781	6699.474525	45038.267016	3968.756144	22411.894344
83.538000	0.009870	0.007832	0.009826	-0.031152	6718.736113	45045.257521	3983.414823	22428.493134
84.035000	0.008515	0.007511	0.007958	-0.030616	6702.569520	44962.405748	3977.821122	22404.524350
84.534500	0.009191	0.007720	0.009205	-0.031036	6711.925109	45023.172920	3981.693308	22423.276280
85.035000	0.011002	0.007018	0.005194	-0.031039	6727.467625	44955.557627	3972.403381	22423.401330
85.544500	0.011203	0.008077	0.009784	-0.030185	6721.858876	44975.365625	3981.061064	22385.229645
86.035500	0.010469	0.007309	0.007908	-0.030311	6716.660761	44913.553261	3976.998115	22390.895210
86.536000	0.010922	0.008303	0.012733	-0.030260	6720.097366	45004.495167	3988.123150	22388.599429
87.036000	0.011690	0.007949	0.015734	-0.029463	6719.859118	44893.481186	3993.303238	22353.059282
87.536500	0.011268	0.006990	0.011226	-0.030063	6721.377440	44858.853294	3984.139247	22379.811730
88.034000	0.011710	0.007653	0.010560	-0.028330	6710.322052	44755.908830	3978.553517	22302.588893
88.534000	0.015076	0.007745	0.012197	-0.028230	6738.349144	44755.125096	3982.129143	22298.162137
89.034500	0.012938	0.006839	0.013400	-0.028516	6722.431470	44695.663859	3985.604328	22310.886034
89.535500	0.013223	0.006793	0.012798	-0.028421	6724.064420	44682.148986	3983.975079	22306.669420
90.038500	0.012594	0.007193	0.011609	-0.026976	6706.310431	44582.045532	3977.845686	22242.511051
90.538500	0.010517	0.007568	0.011220	-0.021685	6643.921539	44114.385312	3964.753685	22009.438254
91.036500	0.013609	0.007157	0.015472	-0.026084	6707.356013	44493.343369	3984.762472	22203.002855
91.536500	0.013569	0.007383	0.017944	-0.025372	6700.934792	44446.916845	3988.880711	22171.533917
92.040000	0.015618	0.007405	0.019323	-0.024402	6710.150011	44356.655345	3989.841205	22128.743893
92.537000	0.013484	0.008112	0.014638	-0.019209	6648.047589	43932.149109	3966.913376	21901.359643
93.034500	0.017624	0.007718	0.016651	-0.023068	6715.904218	44259.653885	3980.479083	22070.073582
93.535000	0.016618	0.008792	0.019254	-0.022287	6700.637847	44287.462752	3984.727683	22035.812258
94.035500	0.015613	0.008030	0.017635	-0.022679	6695.410581	44252.350653	3981.863776	22052.987391
94.535500	0.015572	0.008845	0.018895	-0.018034	6655.718746	43890.446576	3974.010097	21850.236534
95.035500	0.014713	0.007995	0.021551	-0.023102	6691.355728	44289.221364	3992.022826	22071.596954
95.536000	0.016759	0.008898	0.018111	-0.022039	6699.720628	44274.050528	3981.482852	22024.955647
96.036500	0.016975	0.008951	0.018225	-0.020858	6691.506177	44167.092747	3979.001074	21973.269247
96.536500	0.015704	0.008066	0.016689	-0.017202	6649.830938	43739.277350	3967.014955	21814.176716
97.036500	0.017898	0.008926	0.020198	-0.020329	6694.853500	44114.638018	3982.361306	21950.152495
97.537500	0.018956	0.008499	0.017342	-0.020172	6702.542345	44059.477630	3975.365561	21943.328615
98.035000	0.020078	0.009654	0.016265	-0.019186	6703.693957	44075.387174	3970.599309	21900.325318
98.535000	0.017258	0.009041	0.019749	-0.018784	6676.302257	43979.608557	3977.723899	21882.839119
99.035500	0.018233	0.008006	0.021231	-0.019035	6686.707825	43905.761206	3981.754382	21893.785519
99.536000	0.017230	0.008535	0.023899	-0.018390	6672.725777	43894.801624	3986.474743	21865.706246
100.089000	0.018217	0.008610	0.024256	-0.018352	6680.763050	43898.252693	3987.221631	21864.055424
100.536000	0.018243	0.008675	0.020813	-0.015953	6660.697092	43679.306326	3973.633615	21760.126973
101.036000	0.017102	0.008058	0.026536	-0.017714	6665.931176	43786.510807	3991.074881	21836.381817
101.536500	0.017593	0.008940	0.020489	-0.016784	6662.220750	43781.991164	3974.805821	21796.055273
102.034000	0.017039	0.007092	0.023149	-0.017502	6663.608633	43676.100291	3982.647932	21827.152991
102.534500	0.016533	0.008414	0.021948	-0.013954	6629.547385	43468.368098	3971.640570	21673.957406
103.037500	0.018979	0.008017	0.019941	-0.016172	6668.764850	43638.196601	3972.125775	21769.586249
103.535500	0.017549	0.008078	0.026034	-0.016136	6656.390404	43640.584167	3986.197653	21768.023590
104.035500	0.020552	0.007577	0.019665	-0.015931	6680.043020	43574.622383	3970.935597	21759.185184
104.538000	0.018443	0.008136	0.020935	-0.012666	6634.750638	43322.833837	3966.347697	21618.633478
105.041500	0.019996	0.008508	0.026240	-0.014623	6664.262257	43539.385497	3983.142983	21702.725281
105.536500	0.021534	0.008583	0.027093	-0.014302	6674.549937	43516.510442	3984.385456	21688.902512
106.037000	0.020713	0.008145	0.027512	-0.014404	6668.479812	43485.239941	3985.604483	21693.317750
106.583000	0.021068	0.008995	0.022805	-0.011334	6645.592236	43278.927064	3967.583181	21561.591068
107.038000	0.021512	0.007617	0.027449	-0.014379	6675.016056	43433.707101	3985.396145	21692.217549
107.543000	0.019654	0.009078	0.028324	-0.012518	6643.672421	43396.570976	3983.096781	21612.303608
108.034500	0.019241	0.007919	0.021704	-0.013301	6646.779176	43361.625834	3969.575847	21645.903247
108.547500	0.021157	0.008574	0.023229	-0.011285	6645.928906	43235.464362	3968.445023	21559.502000
109.035500	0.019987	0.007945	0.023207	-0.012609	6647.220640	43299.773973	3971.440408	21616.171045
109.536000	0.019946	0.008101	0.025220	-0.011670	6639.000556	43227.319058	3973.920241	21575.962181
110.036500	0.018974	0.007797	0.026613	-0.011653	6630.712634	43197.591177	3977.105185	21575.235400
110.536500	0.015293	0.007336	0.024906	-0.009613	6583.179134	42967.093849	3968.456969	21488.193737
111.039500	0.018302	0.007895	0.023085	-0.010971	6619.411636	43143.645135	3967.393021	21546.108267
