sample name	sample
index	1045
start time	 04-19-2021  02:20:33 PM


Wavelength (nm)	Absorbance
494.344910	-0.200129
494.563924	-0.200129
494.782919	-0.200129
495.001897	-0.160431
495.220856	-0.098146
495.439797	-0.096833
495.658719	-0.102102
495.877624	-0.103240
496.096510	-0.066986
496.315378	-0.050127
496.534227	-0.053824
496.753059	-0.000929
496.971872	0.009171
497.190667	-0.004830
497.409444	0.002333
497.628203	0.007459
497.846943	0.009497
498.065665	0.009723
498.284369	0.009661
498.503055	0.009431
498.721723	0.008239
498.940372	0.008209
499.159003	0.009032
499.377616	0.009177
499.596210	0.008541
499.814787	0.008204
500.033345	0.007577
500.251885	0.007386
500.470406	0.006639
500.688910	0.007034
500.907395	0.006928
501.125862	0.007577
501.344311	0.008105
501.562742	0.009154
501.781154	0.009528
501.999548	0.009637
502.217924	0.009621
502.436282	0.010620
502.654621	0.010955
502.872942	0.010570
503.091245	0.010164
503.309530	0.010329
503.527797	0.009117
503.746045	0.009022
503.964275	0.009301
504.182487	0.009492
504.400681	0.008595
504.618856	0.008189
504.837013	0.008542
505.055152	0.007783
505.273273	0.007223
505.491376	0.007446
505.709460	0.005965
505.927526	0.005980
506.145574	0.005990
506.363604	0.006035
506.581615	0.005696
506.799608	0.005083
507.017583	0.005466
507.235540	0.005709
507.453478	0.005550
507.671399	0.006811
507.889301	0.006605
508.107185	0.006875
508.325050	0.007367
508.542898	0.007251
508.760727	0.007068
508.978538	0.007013
509.196330	0.007015
509.414105	0.007020
509.631861	0.006284
509.849599	0.006496
510.067319	0.005774
510.285021	0.005518
510.502704	0.005417
510.720369	0.005698
510.938016	0.005596
511.155645	0.005535
511.373255	0.004944
511.590848	0.005757
511.808422	0.004783
512.025977	0.004469
512.243515	0.004461
512.461034	0.004604
512.678536	0.004632
512.896018	0.004733
513.113483	0.004186
513.330930	0.004597
513.548358	0.003752
513.765768	0.004721
513.983160	0.005112
514.200533	0.004847
514.417889	0.005606
514.635226	0.005810
514.852545	0.005631
515.069845	0.005318
515.287128	0.005450
515.504392	0.005490
515.721638	0.004787
515.938866	0.004530
516.156075	0.004333
516.373267	0.003350
516.590440	0.002887
516.807594	0.002518
517.024731	0.002610
517.241850	0.002362
517.458950	0.002595
517.676032	0.003474
517.893095	0.003248
518.110141	0.002854
518.327168	0.002661
518.544177	0.002123
518.761168	0.002714
518.978141	0.002630
519.195095	0.003148
519.412031	0.002959
519.628949	0.002129
519.845849	0.002056
520.062731	0.002721
520.279594	0.003077
520.496439	0.003848
520.713266	0.003686
520.930074	0.004134
521.146865	0.002813
521.363637	0.002998
521.580391	0.002798
521.797127	0.003327
522.013844	0.003259
522.230543	0.002792
522.447224	0.002648
522.663887	0.002923
522.880532	0.002534
523.097158	0.003537
523.313766	0.003138
523.530356	0.003530
523.746928	0.003476
523.963481	0.003937
524.180017	0.004724
524.396534	0.005067
524.613032	0.004668
524.829513	0.004993
525.045975	0.004836
525.262420	0.005155
525.478845	0.005404
525.695253	0.005079
525.911643	0.005256
526.128014	0.005164
526.344367	0.005250
526.560702	0.004987
526.777018	0.004962
526.993316	0.005088
527.209597	0.005104
527.425858	0.005258
527.642102	0.005915
527.858328	0.005489
528.074535	0.005464
528.290724	0.005448
528.506894	0.005586
528.723047	0.005567
528.939181	0.005312
529.155297	0.005319
529.371395	0.005163
529.587475	0.005264
529.803536	0.005205
530.019579	0.005038
530.235604	0.005105
530.451611	0.005286
530.667600	0.005484
530.883570	0.005791
531.099522	0.006176
531.315456	0.006124
531.531372	0.005626
531.747269	0.006020
531.963148	0.005524
532.179009	0.005412
532.394852	0.005755
532.610676	0.005505
532.826482	0.005384
533.042271	0.005081
533.258040	0.004879
533.473792	0.005707
533.689525	0.006022
533.905240	0.007065
534.120937	0.007552
534.336616	0.007118
534.552277	0.007552
534.767919	0.007866
534.983543	0.008111
535.199149	0.008612
535.414736	0.008211
535.630306	0.007375
535.845857	0.006763
536.061390	0.006641
536.276904	0.007161
536.492401	0.007236
536.707879	0.006947
536.923339	0.006685
537.138781	0.006238
537.354204	0.006107
537.569610	0.006198
537.784997	0.006533
538.000366	0.006249
538.215716	0.006211
538.431049	0.005995
538.646363	0.006201
538.861659	0.006536
539.076937	0.006807
539.292196	0.006723
539.507438	0.007034
539.722661	0.006799
539.937866	0.006782
540.153052	0.006641
540.368221	0.006445
540.583371	0.006875
540.798503	0.006536
541.013617	0.006613
541.228712	0.007046
541.443789	0.007260
541.658848	0.007571
541.873889	0.007561
542.088912	0.007458
542.303916	0.007502
542.518902	0.007212
542.733870	0.007615
542.948820	0.007625
543.163752	0.007687
543.378665	0.007873
543.593560	0.007767
543.808437	0.007651
544.023295	0.007688
544.238136	0.007836
544.452958	0.007910
544.667762	0.008027
544.882548	0.008092
545.097315	0.007961
545.312064	0.007439
545.526795	0.007573
545.741508	0.007736
545.956203	0.008154
546.170879	0.008716
546.385537	0.008664
546.600177	0.008273
546.814799	0.008278
547.029402	0.007968
547.243988	0.008646
547.458555	0.008385
547.673103	0.008210
547.887634	0.008063
548.102146	0.007721
548.316640	0.007970
548.531116	0.008114
548.745574	0.007743
548.960013	0.007709
549.174435	0.007177
549.388838	0.007549
549.603222	0.007513
549.817589	0.007050
550.031937	0.006905
550.246267	0.006713
550.460579	0.007000
550.674873	0.007168
550.889148	0.007545
551.103405	0.007588
551.317644	0.007437
551.531865	0.007605
551.746068	0.007946
551.960252	0.007890
552.174418	0.007950
552.388566	0.007666
552.602696	0.007473
552.816807	0.007369
553.030900	0.007237
553.244975	0.007154
553.459032	0.007276
553.673070	0.007120
553.887091	0.006921
554.101093	0.006571
554.315077	0.006239
554.529042	0.006421
554.742990	0.006451
554.956919	0.006535
555.170830	0.006698
555.384722	0.006458
555.598597	0.006540
555.812453	0.006538
556.026291	0.006903
556.240111	0.007036
556.453913	0.007213
556.667696	0.007085
556.881461	0.007050
557.095208	0.006991
557.308937	0.007009
557.522647	0.006633
557.736339	0.006762
557.950013	0.006615
558.163669	0.006620
558.377307	0.006755
558.590926	0.006751
558.804527	0.006750
559.018110	0.006406
559.231675	0.006501
559.445221	0.006616
559.658749	0.006634
559.872259	0.006152
560.085751	0.006059
560.299225	0.005488
560.512680	0.005434
560.726117	0.005181
560.939536	0.005551
561.152937	0.005379
561.366319	0.005868
561.579683	0.005862
561.793029	0.006183
562.006357	0.006393
562.219667	0.006283
562.432958	0.006381
562.646231	0.006725
562.859486	0.006397
563.072723	0.006380
563.285941	0.005999
563.499141	0.005919
563.712323	0.005666
563.925487	0.005632
564.138632	0.005774
564.351760	0.005288
564.564869	0.005030
564.777960	0.005159
564.991032	0.004910
565.204087	0.004846
565.417123	0.004998
565.630141	0.005116
565.843140	0.004790
566.056122	0.004854
566.269085	0.004789
566.482030	0.004782
566.694957	0.004218
566.907866	0.004539
567.120756	0.004370
567.333628	0.004046
567.546482	0.004165
567.759318	0.004422
567.972135	0.004003
568.184935	0.003829
568.397716	0.004047
568.610478	0.004631
568.823223	0.004508
569.035949	0.004266
569.248657	0.004198
569.461347	0.003958
569.674019	0.003807
569.886672	0.003843
570.099308	0.004208
570.311925	0.003910
570.524523	0.003560
570.737104	0.003285
570.949666	0.003671
571.162210	0.003865
571.374736	0.003859
571.587244	0.003833
571.799733	0.004088
572.012205	0.004025
572.224658	0.003732
572.437092	0.004147
572.649509	0.004282
572.861907	0.003883
573.074287	0.003845
573.286649	0.003850
573.498993	0.003725
573.711318	0.003581
573.923625	0.003676
574.135914	0.004009
574.348185	0.003339
574.560438	0.003521
574.772672	0.003631
574.984888	0.003571
575.197086	0.003566
575.409266	0.003482
575.621427	0.003966
575.833570	0.003777
576.045695	0.003633
576.257802	0.003924
576.469890	0.003616
576.681961	0.003730
576.894013	0.003753
577.106046	0.003878
577.318062	0.004312
577.530059	0.003850
577.742039	0.003979
577.954000	0.003821
578.165942	0.004153
578.377867	0.004308
578.589773	0.004054
578.801661	0.003939
579.013531	0.003898
579.225382	0.003875
579.437216	0.003910
579.649031	0.003705
579.860828	0.003851
580.072606	0.003441
580.284367	0.003336
580.496109	0.003931
580.707833	0.003912
580.919539	0.004239
581.131227	0.004130
581.342896	0.003814
581.554547	0.003550
581.766180	0.003399
581.977795	0.003519
582.189391	0.003779
582.400969	0.003303
582.612529	0.003144
582.824071	0.002493
583.035595	0.002361
583.247100	0.002694
583.458587	0.003137
583.670056	0.003405
583.881506	0.003232
584.092939	0.002829
584.304353	0.002975
584.515749	0.003300
584.727127	0.003514
584.938486	0.003761
585.149828	0.003822
585.361151	0.003779
585.572456	0.003669
585.783742	0.004082
585.995011	0.004515
586.206261	0.004484
586.417493	0.004299
586.628706	0.004453
586.839902	0.004113
587.051079	0.004130
587.262238	0.003934
587.473379	0.004063
587.684502	0.003798
587.895606	0.003754
588.106692	0.003815
588.317760	0.003981
588.528810	0.004038
588.739841	0.004055
588.950855	0.004343
589.161850	0.004749
589.372827	0.004846
589.583785	0.004959
589.794726	0.005036
590.005648	0.005087
590.216552	0.004865
590.427437	0.004718
590.638305	0.004938
590.849154	0.004702
591.059985	0.004552
591.270798	0.004775
591.481592	0.005251
591.692369	0.005484
591.903127	0.005600
592.113867	0.005842
592.324588	0.006042
592.535292	0.006273
592.745977	0.006451
592.956644	0.006446
593.167293	0.006290
593.377923	0.006051
593.588536	0.005719
593.799130	0.005448
594.009706	0.005377
594.220263	0.005381
594.430803	0.005228
594.641324	0.005088
594.851827	0.005235
595.062312	0.004996
595.272778	0.004694
595.483227	0.005021
595.693657	0.005324
595.904069	0.005569
596.114462	0.005597
596.324838	0.005558
596.535195	0.005527
596.745534	0.005693
596.955855	0.005712
597.166157	0.005991
597.376441	0.005837
597.586707	0.005887
597.796955	0.005927
598.007185	0.005905
598.217396	0.005962
598.427589	0.005950
598.637764	0.006015
598.847921	0.006234
599.058060	0.006295
599.268180	0.006262
599.478282	0.006111
599.688366	0.006284
599.898431	0.006518
600.108479	0.006865
600.318508	0.006933
600.528519	0.007092
600.738511	0.007450
600.948486	0.007642
601.158442	0.008194
601.368380	0.008349
601.578300	0.008277
601.788202	0.008106
601.998085	0.007914
602.207950	0.008234
602.417797	0.008043
602.627626	0.007837
602.837436	0.007772
603.047228	0.007277
603.257002	0.007343
603.466758	0.007452
603.676496	0.007463
603.886215	0.007406
604.095916	0.007353
604.305599	0.007508
604.515264	0.007434
604.724910	0.007358
604.934538	0.007724
605.144148	0.007745
605.353740	0.007424
605.563314	0.007638
605.772869	0.007781
605.982406	0.007405
606.191925	0.007572
606.401425	0.007458
606.610908	0.007311
606.820372	0.007172
607.029818	0.007233
607.239246	0.007066
607.448655	0.007040
607.658047	0.007038
607.867420	0.007268
608.076775	0.006832
608.286111	0.006950
608.495430	0.007172
608.704730	0.007024
608.914012	0.007016
609.123275	0.007138
609.332521	0.006853
609.541748	0.006703
609.750957	0.006656
609.960148	0.006600
610.169321	0.006618
610.378475	0.006752
610.587611	0.006762
610.796729	0.006861
611.005829	0.006968
611.214910	0.007188
611.423974	0.007150
611.633019	0.007266
611.842045	0.007392
612.051054	0.007408
612.260044	0.007151
612.469017	0.007127
612.677970	0.006893
612.886906	0.007045
613.095824	0.006816
613.304723	0.006843
613.513604	0.006678
613.722467	0.006503
613.931311	0.006448
614.140138	0.006673
614.348946	0.006821
614.557736	0.006817
614.766507	0.006809
614.975261	0.006974
615.183996	0.007195
615.392713	0.007364
615.601412	0.007579
615.810092	0.007449
616.018754	0.007407
616.227399	0.007199
616.436024	0.007437
616.644632	0.007421
616.853222	0.007441
617.061793	0.007231
617.270346	0.007352
617.478880	0.007503
617.687397	0.007476
617.895895	0.007344
618.104375	0.007524
618.312837	0.007507
618.521281	0.007570
618.729706	0.007808
618.938113	0.007906
619.146502	0.007878
619.354873	0.007786
619.563226	0.008057
619.771560	0.008202
619.979876	0.008104
620.188174	0.008205
620.396453	0.008146
620.604715	0.008046
620.812958	0.008430
621.021183	0.008577
621.229390	0.008690
621.437578	0.008869
621.645748	0.008921
621.853900	0.009081
622.062034	0.008999
622.270150	0.009184
622.478247	0.009149
622.686326	0.008867
622.894387	0.008714
623.102430	0.008668
623.310454	0.008674
623.518461	0.008550
623.726449	0.008566
623.934418	0.008618
624.142370	0.008593
624.350303	0.008508
624.558218	0.008501
624.766115	0.008459
624.973994	0.008505
625.181855	0.008319
625.389697	0.008288
625.597521	0.008174
625.805327	0.007883
626.013114	0.007716
626.220883	0.007674
626.428634	0.007546
626.636367	0.007510
626.844082	0.007362
627.051778	0.007281
627.259457	0.007290
627.467117	0.007410
627.674758	0.007590
627.882382	0.007705
628.089987	0.007873
628.297574	0.008101
628.505143	0.008289
628.712694	0.008596
628.920226	0.008743
629.127740	0.008923
629.335236	0.009102
629.542714	0.009231
629.750174	0.009336
629.957615	0.009604
630.165038	0.009548
630.372443	0.009584
630.579829	0.009613
630.787198	0.009724
630.994548	0.009957
631.201880	0.009936
631.409194	0.010043
631.616489	0.010075
631.823766	0.010070
632.031025	0.010185
632.238266	0.010322
632.445489	0.010301
632.652693	0.010540
632.859879	0.010564
633.067047	0.010667
633.274197	0.010719
633.481329	0.010770
633.688442	0.010509
633.895537	0.010733
634.102614	0.010759
634.309672	0.010752
634.516713	0.010477
634.723735	0.010593
634.930739	0.010458
635.137724	0.010553
635.344692	0.010809
635.551641	0.011044
635.758572	0.011089
635.965485	0.011323
636.172379	0.011715
636.379256	0.011909
636.586114	0.011496
636.792954	0.011537
636.999775	0.011677
637.206579	0.011504
637.413364	0.011459
637.620131	0.011499
637.826880	0.011088
638.033610	0.010748
638.240323	0.010831
638.447017	0.011056
638.653692	0.011296
638.860350	0.011139
639.066990	0.011228
639.273611	0.011214
639.480214	0.011134
639.686798	0.011233
639.893365	0.011115
640.099913	0.010872
640.306443	0.010806
640.512955	0.010592
640.719449	0.010532
640.925924	0.010581
641.132381	0.010779
641.338820	0.010761
641.545241	0.010993
641.751644	0.011144
641.958028	0.011461
642.164394	0.011640
642.370742	0.011666
642.577071	0.011750
642.783383	0.011744
642.989676	0.011822
643.195951	0.011780
643.402207	0.011741
643.608446	0.011668
643.814666	0.011543
644.020868	0.011537
644.227052	0.011719
644.433218	0.011742
644.639365	0.011621
644.845494	0.011455
645.051605	0.011595
645.257698	0.011501
645.463772	0.011542
645.669828	0.011595
645.875866	0.011516
646.081886	0.011315
646.287888	0.011418
646.493871	0.011415
646.699836	0.011576
646.905783	0.011524
647.111712	0.011568
647.317622	0.011908
647.523514	0.011890
647.729388	0.012104
647.935244	0.012456
648.141082	0.012519
648.346901	0.012606
648.552702	0.012501
648.758485	0.012682
648.964250	0.012916
649.169996	0.012946
649.375724	0.013059
649.581434	0.013000
649.787126	0.012835
649.992800	0.012838
650.198455	0.012922
650.404092	0.012901
650.609711	0.012786
650.815311	0.012668
651.020894	0.012586
651.226458	0.012478
651.432004	0.012500
651.637532	0.012511
651.843041	0.012568
652.048532	0.012572
652.254006	0.012886
652.459460	0.012907
652.664897	0.013004
652.870315	0.012909
653.075716	0.013192
653.281097	0.013342
653.486461	0.013422
653.691807	0.013322
653.897134	0.013571
654.102443	0.013408
654.307734	0.013492
654.513006	0.013600
654.718261	0.013758
654.923497	0.013753
655.128715	0.013659
655.333915	0.013804
655.539096	0.014068
655.744259	0.013948
655.949404	0.014019
656.154531	0.013962
656.359640	0.013973
656.564730	0.013952
656.769802	0.014121
656.974856	0.014235
657.179892	0.014299
657.384909	0.014287
657.589908	0.014357
657.794889	0.014554
657.999852	0.014716
658.204797	0.014836
658.409723	0.015091
658.614631	0.015146
658.819521	0.015279
659.024393	0.015218
659.229246	0.015142
659.434081	0.015262
659.638898	0.015238
659.843697	0.015446
660.048478	0.015446
660.253240	0.015345
660.457984	0.015215
660.662710	0.015264
660.867417	0.015313
661.072107	0.015317
661.276778	0.015241
661.481431	0.015354
661.686066	0.015427
661.890682	0.015346
662.095281	0.015345
662.299861	0.015466
662.504422	0.015371
662.708966	0.015387
662.913491	0.015475
663.117999	0.015453
663.322488	0.015366
663.526958	0.015119
663.731411	0.015131
663.935845	0.015162
664.140261	0.014975
664.344659	0.014886
664.549038	0.015013
664.753400	0.015122
664.957743	0.015257
665.162068	0.015287
665.366375	0.015294
665.570663	0.015448
665.774933	0.015490
665.979185	0.015684
666.183419	0.015881
666.387635	0.015872
666.591832	0.015855
666.796011	0.015942
667.000172	0.016056
667.204315	0.016383
667.408439	0.016312
667.612545	0.016512
667.816634	0.016479
668.020703	0.016480
668.224755	0.016358
668.428788	0.016375
668.632803	0.016281
668.836800	0.016318
669.040779	0.016152
669.244739	0.016128
669.448681	0.016120
669.652605	0.016119
669.856511	0.016191
670.060399	0.016295
670.264268	0.016340
670.468119	0.016359
670.671952	0.016295
670.875767	0.016322
671.079563	0.016306
671.283341	0.016280
671.487101	0.016290
671.690843	0.016193
671.894567	0.016293
672.098272	0.016465
672.301959	0.016686
672.505628	0.016842
672.709278	0.016944
672.912911	0.017134
673.116525	0.017147
673.320121	0.017370
673.523699	0.017689
673.727258	0.017851
673.930799	0.017610
674.134322	0.017527
674.337827	0.017424
674.541314	0.017449
674.744782	0.017419
674.948232	0.017460
675.151664	0.017360
675.355078	0.017317
675.558474	0.017282
675.761851	0.017626
675.965210	0.017805
676.168551	0.017806
676.371873	0.018044
676.575178	0.018233
676.778464	0.018175
676.981732	0.018248
677.184981	0.018197
677.388213	0.018194
677.591426	0.017908
677.794621	0.017809
677.997798	0.017948
678.200956	0.017616
678.404097	0.017489
678.607219	0.017651
678.810323	0.017548
679.013408	0.017636
679.216476	0.017690
679.419525	0.017896
679.622556	0.017887
679.825569	0.017994
680.028563	0.018056
680.231540	0.018103
680.434498	0.018078
680.637438	0.018353
680.840359	0.018473
681.043263	0.018548
681.246148	0.018407
681.449015	0.018518
681.651864	0.018468
681.854694	0.018668
682.057506	0.018932
682.260301	0.018944
682.463076	0.018803
682.665834	0.018592
682.868573	0.018642
683.071295	0.018691
683.273998	0.018664
683.476682	0.018457
683.679349	0.018161
683.881997	0.017972
684.084627	0.017863
684.287239	0.017861
684.489833	0.017932
684.692408	0.017813
684.894965	0.017902
685.097504	0.017794
685.300025	0.018009
685.502527	0.018231
685.705012	0.018324
685.907478	0.018383
686.109925	0.018464
686.312355	0.018451
686.514766	0.018532
686.717159	0.018578
686.919534	0.018707
687.121891	0.018883
687.324230	0.018813
687.526550	0.018876
687.728852	0.018924
687.931136	0.019008
688.133401	0.019129
688.335649	0.019056
688.537878	0.019117
688.740089	0.019000
688.942281	0.018837
689.144456	0.018962
689.346612	0.018814
689.548750	0.018815
689.750870	0.018731
689.952971	0.018516
690.155055	0.018558
690.357120	0.018460
690.559167	0.018547
690.761195	0.018487
690.963206	0.018534
691.165198	0.018772
691.367172	0.018945
691.569128	0.018970
691.771065	0.019230
691.972984	0.019180
692.174885	0.019282
692.376768	0.019506
692.578633	0.019527
692.780479	0.019412
692.982308	0.019430
693.184118	0.019175
693.385909	0.019225
693.587683	0.019194
693.789438	0.019291
693.991175	0.019350
694.192894	0.019328
694.394595	0.019583
694.596277	0.019565
694.797941	0.019381
694.999587	0.019599
695.201215	0.019625
695.402824	0.019650
695.604416	0.019670
695.805989	0.019603
696.007543	0.019506
696.209080	0.019350
696.410598	0.019551
696.612099	0.019692
696.813580	0.019666
697.015044	0.019554
697.216490	0.019436
697.417917	0.019399
697.619326	0.019406
697.820717	0.019358
698.022089	0.019373
698.223444	0.019289
698.424780	0.019156
698.626098	0.019273
698.827397	0.019432
699.028679	0.019657
699.229942	0.019661
699.431187	0.019717
699.632414	0.019720
699.833622	0.019873
700.034813	0.019863
700.235985	0.019831
700.437139	0.019942
700.638274	0.020116
700.839392	0.020097
701.040491	0.020250
701.241572	0.020355
701.442635	0.020548
701.643679	0.020575
701.844706	0.020781
702.045714	0.021086
702.246704	0.020990
702.447675	0.020818
702.648629	0.020910
702.849564	0.020798
703.050481	0.020736
703.251380	0.020790
703.452260	0.020893
703.653122	0.020850
703.853966	0.020742
704.054792	0.020767
704.255600	0.020913
704.456389	0.020881
704.657160	0.021095
704.857913	0.021289
705.058648	0.021270
705.259365	0.021251
705.460063	0.021286
705.660743	0.021260
705.861405	0.021338
706.062048	0.021460
706.262674	0.021420
706.463281	0.021389
706.663870	0.021354
706.864441	0.021319
707.064993	0.021216
707.265527	0.021252
707.466043	0.021304
707.666541	0.021353
707.867021	0.021205
708.067482	0.021148
708.267925	0.021101
708.468350	0.020925
708.668757	0.020826
708.869145	0.020814
709.069516	0.020731
709.269868	0.020789
709.470201	0.020481
709.670517	0.020247
709.870814	0.020246
710.071093	0.020161
710.271354	0.020168
710.471597	0.020195
710.671821	0.020069
710.872028	0.019922
711.072216	0.019779
711.272385	0.019877
711.472537	0.020107
711.672670	0.020069
711.872785	0.020104
712.072882	0.020095
712.272961	0.020106
712.473021	0.020015
712.673063	0.020082
712.873087	0.020106
713.073093	0.020024
713.273081	0.019707
713.473050	0.019714
713.673001	0.019722
713.872934	0.019751
714.072849	0.019688
714.272745	0.019941
714.472623	0.019938
714.672483	0.019955
714.872325	0.020054
715.072148	0.020300
715.271954	0.020312
715.471741	0.020146
715.671509	0.020078
715.871260	0.019996
716.070992	0.020044
716.270707	0.020061
716.470403	0.020001
716.670080	0.020022
716.869740	0.020009
717.069381	0.020004
717.269004	0.020081
717.468609	0.020058
717.668195	0.020099
717.867764	0.019837
718.067314	0.019850
718.266846	0.019691
718.466360	0.019693
718.665855	0.019724
718.865332	0.019623
719.064791	0.019641
719.264232	0.019586
719.463655	0.019630
719.663059	0.019781
719.862445	0.019782
720.061813	0.019876
720.261163	0.019790
720.460494	0.019565
720.659807	0.019698
720.859102	0.019730
721.058379	0.019738
721.257638	0.019751
721.456878	0.019711
721.656100	0.019615
721.855304	0.019630
722.054490	0.019606
722.253657	0.019592
722.452806	0.019452
722.651937	0.019207
722.851050	0.019101
723.050145	0.018993
723.249221	0.018747
723.448279	0.018421
723.647319	0.018232
723.846340	0.017949
724.045344	0.017722
724.244329	0.017644
724.443296	0.017493
724.642245	0.017480
724.841175	0.017334
725.040088	0.017179
725.238982	0.017139
725.437857	0.016961
725.636715	0.016910
725.835554	0.017024
726.034376	0.016958
726.233179	0.016972
726.431963	0.016672
726.630730	0.016601
726.829478	0.016596
727.028208	0.016758
727.226920	0.016745
727.425614	0.016641
727.624289	0.016512
727.822946	0.016373
728.021585	0.016558
728.220206	0.016785
728.418808	0.016650
728.617392	0.016662
728.815958	0.016539
729.014506	0.016494
729.213036	0.016625
729.411547	0.016619
729.610040	0.016614
729.808515	0.016399
730.006972	0.016294
730.205410	0.016336
730.403831	0.016177
730.602233	0.016221
730.800616	0.016292
730.998982	0.016197
731.197329	0.016115
731.395658	0.016190
731.593969	0.016195
731.792262	0.016151
731.990536	0.016091
732.188793	0.016100
732.387031	0.015933
732.585250	0.015722
732.783452	0.015725
732.981635	0.015879
733.179800	0.015787
733.377947	0.015790
733.576076	0.015840
733.774186	0.015964
733.972278	0.016000
734.170352	0.016341
734.368408	0.016628
734.566446	0.016571
734.764465	0.016560
734.962466	0.016443
735.160449	0.016469
735.358413	0.016564
735.556360	0.016418
735.754288	0.016515
735.952198	0.016425
736.150090	0.016297
736.347963	0.016418
736.545818	0.016517
736.743655	0.016692
736.941474	0.016674
737.139275	0.016550
737.337057	0.016589
737.534821	0.016561
737.732567	0.016446
737.930295	0.016670
738.128005	0.016660
738.325696	0.016526
738.523369	0.016674
738.721024	0.016610
738.918660	0.016782
739.116279	0.016874
739.313879	0.016925
739.511461	0.017014
739.709024	0.016949
739.906570	0.016842
740.104097	0.016789
740.301606	0.016691
740.499097	0.016758
740.696569	0.016672
740.894024	0.016757
741.091460	0.016894
741.288878	0.016912
741.486277	0.016939
741.683659	0.017168
741.881022	0.017267
742.078367	0.017072
742.275694	0.017155
742.473002	0.017138
742.670293	0.017246
742.867565	0.017110
743.064819	0.017044
743.262054	0.017007
743.459272	0.017114
743.656471	0.017204
743.853652	0.017409
744.050815	0.017275
744.247959	0.017311
744.445085	0.017101
744.642194	0.017212
744.839283	0.017321
745.036355	0.017362
745.233408	0.017345
745.430444	0.017203
745.627461	0.017105
745.824459	0.017236
746.021440	0.017252
746.218402	0.017256
746.415346	0.017086
746.612272	0.017039
746.809180	0.016894
747.006069	0.016837
747.202940	0.016826
747.399793	0.016741
747.596628	0.016693
747.793444	0.016583
747.990243	0.016530
748.187023	0.016526
748.383784	0.016535
748.580528	0.016495
748.777253	0.016477
748.973960	0.016404
749.170649	0.016523
749.367320	0.016451
749.563973	0.016430
749.760607	0.016535
749.957223	0.016466
750.153821	0.016173
750.350400	0.016082
750.546962	0.015951
750.743505	0.016068
750.940030	0.015866
751.136536	0.015803
751.333025	0.016046
751.529495	0.016026
751.725947	0.016091
751.922381	0.016142
752.118796	0.016246
752.315194	0.016302
752.511573	0.016089
752.707934	0.016149
752.904276	0.015870
753.100601	0.015452
753.296907	0.015236
753.493195	0.015139
753.689465	0.015105
753.885716	0.014878
754.081949	0.014727
754.278164	0.014666
754.474361	0.014414
754.670540	0.014653
754.866700	0.014704
755.062843	0.014843
755.258967	0.014848
755.455072	0.014778
755.651160	0.014930
755.847229	0.014941
756.043280	0.015158
756.239313	0.015368
756.435328	0.015364
756.631324	0.015295
756.827302	0.015251
757.023262	0.015055
757.219204	0.015092
757.415127	0.014917
757.611033	0.014857
757.806920	0.014623
758.002788	0.014481
758.198639	0.014359
758.394471	0.014349
758.590286	0.014202
758.786081	0.014345
758.981859	0.014408
759.177619	0.014528
759.373360	0.014568
759.569083	0.014775
759.764788	0.014831
759.960474	0.014956
760.156143	0.014911
760.351793	0.014838
760.547425	0.014902
760.743038	0.014676
760.938634	0.014701
761.134211	0.014756
761.329770	0.014534
761.525311	0.014522
761.720833	0.014481
761.916338	0.014581
762.111824	0.014669
762.307292	0.014386
762.502741	0.014473
762.698173	0.014354
762.893586	0.014293
763.088981	0.014359
763.284358	0.014204
763.479716	0.014035
763.675057	0.013988
763.870379	0.013802
764.065683	0.013876
764.260968	0.013829
764.456236	0.013833
764.651485	0.013515
764.846716	0.013484
765.041929	0.013581
765.237123	0.013554
765.432299	0.013453
765.627457	0.013554
765.822597	0.013570
766.017719	0.013462
766.212822	0.013378
766.407907	0.013396
766.602974	0.013162
766.798023	0.012988
766.993054	0.012996
767.188066	0.012818
767.383060	0.012742
767.578036	0.012666
767.772993	0.012780
767.967933	0.012890
768.162854	0.012972
768.357757	0.013019
768.552642	0.013102
768.747508	0.013087
768.942356	0.013104
769.137186	0.013136
769.331998	0.013260
769.526792	0.013142
769.721567	0.012976
769.916324	0.012844
770.111063	0.012890
770.305784	0.012967
770.500486	0.012892
770.695171	0.013076
770.889837	0.013120
771.084484	0.013022
771.279114	0.013206
771.473725	0.013201
771.668318	0.013256
771.862893	0.013185
772.057450	0.013191
772.251988	0.013185
772.446509	0.013163
772.641011	0.013193
772.835494	0.013274
773.029960	0.013360
773.224407	0.013567
773.418836	0.013622
773.613247	0.013986
773.807640	0.014039
774.002014	0.014263
774.196370	0.014082
774.390708	0.014152
774.585028	0.014156
774.779330	0.014005
774.973613	0.013819
775.167878	0.013974
775.362125	0.013834
775.556354	0.013764
775.750564	0.013773
775.944756	0.014029
776.138930	0.013805
776.333086	0.013784
776.527223	0.013760
776.721343	0.013919
776.915444	0.013612
777.109526	0.013662
777.303591	0.013634
777.497637	0.013495
777.691666	0.013390
777.885676	0.013732
778.079667	0.013650
778.273641	0.013817
778.467596	0.013910
778.661533	0.014334
778.855452	0.014240
779.049352	0.014450
779.243235	0.014675
779.437099	0.014857
779.630945	0.014756
779.824773	0.015096
780.018582	0.015117
780.212373	0.015060
780.406146	0.015086
780.599901	0.015337
780.793638	0.015418
780.987356	0.015573
781.181056	0.015726
781.374738	0.015801
781.568402	0.015763
781.762047	0.016001
781.955674	0.015972
782.149283	0.015961
782.342874	0.016085
782.536447	0.016061
782.730001	0.015884
782.923537	0.015895
783.117055	0.015842
783.310555	0.015786
783.504036	0.015677
783.697499	0.015820
783.890944	0.015676
784.084371	0.015543
784.277780	0.015532
784.471170	0.015500
784.664542	0.015396
784.857896	0.015503
785.051231	0.015573
785.244549	0.015472
785.437848	0.015571
785.631129	0.015660
785.824392	0.015586
786.017636	0.015551
786.210863	0.015432
786.404071	0.015307
786.597260	0.015110
786.790432	0.014845
786.983585	0.014784
787.176721	0.014538
787.369838	0.014484
787.562936	0.014423
787.756017	0.014275
787.949079	0.014533
788.142123	0.014551
788.335149	0.014659
788.528156	0.014859
788.721146	0.014608
788.914117	0.014700
789.107070	0.014739
789.300005	0.014776
789.492921	0.014989
789.685819	0.014847
789.878699	0.014895
790.071561	0.014781
790.264405	0.014748
790.457230	0.015057
790.650037	0.014953
790.842826	0.014784
791.035597	0.014647
791.228349	0.014438
791.421084	0.014554
791.613800	0.014417
791.806497	0.014596
791.999177	0.014419
792.191838	0.014229
792.384481	0.014216
792.577106	0.014255
792.769713	0.014296
792.962301	0.014270
793.154871	0.014126
793.347423	0.014140
793.539957	0.013979
793.732473	0.013986
793.924970	0.014084
794.117449	0.014076
794.309910	0.014337
794.502353	0.014383
794.694777	0.014583
794.887183	0.014737
795.079571	0.014956
795.271941	0.015169
795.464293	0.015426
795.656626	0.015548
795.848941	0.015755
796.041238	0.015689
796.233516	0.015781
796.425777	0.015856
796.618019	0.015832
796.810243	0.015823
797.002449	0.015559
797.194636	0.015611
797.386805	0.015506
797.578956	0.015605
797.771089	0.015687
797.963204	0.015770
798.155300	0.015601
798.347378	0.015572
798.539438	0.015761
798.731480	0.015941
798.923503	0.015883
799.115509	0.016070
799.307496	0.015807
799.499465	0.015844
799.691415	0.015764
799.883348	0.015894
800.075262	0.015973
800.267158	0.015776
800.459035	0.015731
800.650895	0.015914
800.842736	0.015917
801.034559	0.016133
801.226364	0.016015
801.418150	0.015991
801.609919	0.016052
801.801669	0.015984
801.993401	0.016027
802.185114	0.016014
802.376810	0.015899
802.568487	0.015987
802.760146	0.015955
802.951787	0.015878
803.143409	0.015886
803.335014	0.015955
803.526600	0.016112
803.718168	0.016180
803.909717	0.016448
804.101249	0.016342
804.292762	0.016272
804.484257	0.016326
804.675734	0.016573
804.867192	0.016604
805.058632	0.016705
805.250054	0.016821
805.441458	0.016888
805.632844	0.016941
805.824211	0.017086
806.015561	0.017139
806.206891	0.017154
806.398204	0.017243
806.589499	0.017377
806.780775	0.017288
806.972033	0.017357
807.163273	0.017492
807.354495	0.017482
807.545698	0.017590
807.736883	0.017603
807.928050	0.017696
808.119199	0.017712
808.310329	0.017841
808.501441	0.018028
808.692535	0.018017
808.883611	0.018137
809.074669	0.018179
809.265708	0.018372
809.456729	0.018482
809.647732	0.018668
809.838717	0.018653
810.029683	0.018697
810.220632	0.018503
810.411562	0.018698
810.602474	0.018498
810.793367	0.018792
810.984242	0.018643
811.175100	0.018782
811.365938	0.018672
811.556759	0.018689
811.747562	0.018749
811.938346	0.019017
812.129112	0.018902
812.319860	0.019223
812.510589	0.018980
812.701300	0.019144
812.891994	0.019228
813.082668	0.019370
813.273325	0.019503
813.463964	0.019547
813.654584	0.019522
813.845186	0.019431
814.035769	0.019385
814.226335	0.019613
814.416882	0.019601
814.607411	0.019517
814.797922	0.019629
814.988415	0.019427
815.178889	0.019376
815.369345	0.019487
815.559783	0.019454
815.750203	0.019404
815.940605	0.019426
816.130988	0.019530
816.321353	0.019632
816.511700	0.019565
816.702028	0.019941
816.892339	0.020134
817.082631	0.020117
817.272905	0.020411
817.463161	0.020500
817.653398	0.020399
817.843617	0.020415
818.033819	0.020382
818.224001	0.020418
818.414166	0.020156
818.604312	0.020195
818.794440	0.020205
818.984550	0.020266
819.174642	0.020406
819.364716	0.020421
819.554771	0.020395
819.744808	0.020276
819.934827	0.020287
820.124827	0.020573
820.314810	0.020410
820.504774	0.020494
820.694720	0.020469
820.884647	0.020467
821.074557	0.020598
821.264448	0.020552
821.454321	0.020593
821.644176	0.020494
821.834012	0.020407
822.023831	0.020413
822.213631	0.020235
822.403413	0.020270
822.593176	0.020003
822.782922	0.019670
822.972649	0.019651
823.162358	0.019777
823.352049	0.019963
823.541721	0.020051
823.731376	0.020295
823.921012	0.020516
824.110629	0.020521
824.300229	0.020585
824.489811	0.021055
824.679374	0.021398
824.868919	0.021417
825.058445	0.021380
825.247954	0.021279
825.437444	0.021287
825.626916	0.021373
825.816370	0.021431
826.005806	0.021406
826.195223	0.021362
826.384622	0.021317
826.574003	0.021564
826.763366	0.021630
826.952711	0.021685
827.142037	0.021766
827.331345	0.021869
827.520635	0.021691
827.709906	0.022012
827.899160	0.022225
828.088395	0.022283
828.277612	0.022180
828.466810	0.022475
828.655991	0.022684
828.845153	0.022696
829.034297	0.022739
829.223423	0.022949
829.412531	0.022964
829.601620	0.022788
829.790691	0.022744
829.979744	0.022933
830.168779	0.023037
830.357795	0.023102
830.546793	0.023268
830.735773	0.023419
830.924735	0.023768
831.113679	0.024142
831.302604	0.024483
831.491511	0.024756
831.680400	0.024865
831.869271	0.024559
832.058123	0.024857
832.246957	0.024876
832.435773	0.025064
832.624571	0.025042
832.813351	0.024925
833.002112	0.024857
833.190855	0.025049
833.379580	0.025154
833.568287	0.025581
833.756975	0.025432
833.945645	0.025492
834.134297	0.025333
834.322931	0.025280
834.511547	0.025300
834.700144	0.025179
834.888723	0.024929
835.077284	0.025036
835.265826	0.025146
835.454351	0.025119
835.642857	0.025182
835.831345	0.025237
836.019815	0.025321
836.208266	0.025113
836.396699	0.025358
836.585114	0.025354
836.773511	0.025291
836.961890	0.025131
837.150250	0.025134
837.338592	0.025105
837.526916	0.025113
837.715222	0.025188
837.903510	0.025387
838.091779	0.025566
838.280030	0.025842
838.468263	0.025990
838.656477	0.025986
838.844674	0.026099
839.032852	0.026216
839.221012	0.026712
839.409153	0.026706
839.597277	0.026989
839.785382	0.027129
839.973469	0.027117
840.161538	0.027207
840.349589	0.027342
840.537621	0.027799
840.725635	0.028018
840.913631	0.027963
841.101609	0.028464
841.289568	0.028753
841.477509	0.028708
841.665432	0.029132
841.853337	0.029134
842.041224	0.029329
842.229092	0.029256
842.416942	0.029291
842.604774	0.029221
842.792588	0.029094
842.980383	0.029080
843.168160	0.029245
843.355919	0.029313
843.543660	0.029524
843.731382	0.029758
843.919087	0.029836
844.106773	0.029951
844.294441	0.029909
844.482090	0.029891
844.669722	0.029863
844.857335	0.030085
845.044930	0.030031
845.232507	0.030089
845.420065	0.029918
845.607605	0.029862
845.795127	0.030082
845.982631	0.030126
846.170117	0.030278
846.357584	0.030358
846.545033	0.030056
846.732464	0.030098
846.919877	0.030253
847.107272	0.030519
847.294648	0.030959
847.482006	0.031080
847.669346	0.031266
847.856667	0.031287
848.043971	0.031074
848.231256	0.031342
848.418523	0.031178
848.605771	0.031113
848.793002	0.031145
848.980214	0.031232
849.167408	0.031115
849.354584	0.031408
849.541742	0.031563
849.728881	0.031987
849.916002	0.032177
850.103105	0.032599
850.290190	0.032726
850.477256	0.032805
850.664304	0.032910
850.851334	0.033349
851.038346	0.033283
851.225340	0.033339
851.412315	0.033506
851.599272	0.033592
851.786211	0.033776
851.973132	0.033799
852.160034	0.033901
852.346918	0.033900
852.533784	0.033820
852.720632	0.034152
852.907462	0.034276
853.094273	0.034532
853.281066	0.034546
853.467841	0.034386
853.654598	0.034829
853.841336	0.035091
854.028056	0.034965
854.214758	0.034988
854.401442	0.034877
854.588107	0.035156
854.774755	0.034955
854.961384	0.035266
855.147995	0.035572
855.334587	0.035525
855.521162	0.035621
855.707718	0.035901
855.894256	0.035954
856.080775	0.036277
856.267277	0.036089
856.453760	0.036474
856.640225	0.036280
856.826672	0.036328
857.013101	0.036371
857.199511	0.036281
857.385903	0.036570
857.572277	0.036580
857.758633	0.036314
857.944970	0.036684
858.131290	0.036497
858.317591	0.036745
858.503873	0.036978
858.690138	0.037212
858.876384	0.037533
859.062612	0.037600
859.248822	0.037716
859.435014	0.037913
859.621188	0.037956
859.807343	0.038264
859.993480	0.038376
860.179599	0.038330
860.365699	0.038363
860.551781	0.038281
860.737846	0.038314
860.923891	0.038416
861.109919	0.038646
861.295929	0.038783
861.481920	0.038968
861.667893	0.038960
861.853848	0.039095
862.039784	0.039293
862.225702	0.039280
862.411603	0.039192
862.597484	0.039321
862.783348	0.039209
862.969193	0.039459
863.155021	0.039520
863.340830	0.039905
863.526620	0.040163
863.712393	0.040053
863.898147	0.040322
864.083883	0.040365
864.269601	0.040461
864.455301	0.040759
864.640982	0.040639
864.826645	0.040377
865.012290	0.040379
865.197917	0.040388
865.383526	0.040672
865.569116	0.040891
865.754688	0.040891
865.940242	0.041109
866.125777	0.041143
866.311295	0.041245
866.496794	0.041874
866.682275	0.042078
866.867737	0.042242
867.053182	0.042007
867.238608	0.041805
867.424016	0.042002
867.609406	0.041973
867.794778	0.042367
867.980131	0.042504
868.165466	0.042283
868.350783	0.042116
868.536082	0.041725
868.721362	0.041978
868.906625	0.042031
869.091869	0.042206
869.277094	0.042198
869.462302	0.042146
869.647491	0.042256
869.832662	0.042109
870.017815	0.042163
870.202950	0.042597
870.388066	0.042488
870.573165	0.042814
870.758245	0.042760
870.943306	0.042919
871.128350	0.042808
871.313375	0.042645
871.498382	0.042551
871.683371	0.042542
871.868342	0.042203
872.053294	0.042364
872.238229	0.042049
872.423144	0.041940
872.608042	0.041953
872.792922	0.041932
872.977783	0.042005
873.162626	0.042258
873.347451	0.042434
873.532258	0.042623
873.717046	0.042461
873.901816	0.042814
874.086568	0.042900
874.271302	0.042812
874.456017	0.042656
874.640715	0.042649
874.825394	0.042762
875.010055	0.042388
875.194697	0.042595
875.379322	0.042541
875.563928	0.042483
875.748516	0.042575
875.933085	0.042649
876.117637	0.042969
876.302170	0.042926
876.486685	0.042846
876.671182	0.042843
876.855661	0.042524
877.040121	0.042720
877.224563	0.042875
877.408987	0.043108
877.593393	0.043299
877.777780	0.043281
877.962150	0.043310
878.146501	0.043668
878.330833	0.044075
878.515148	0.044534
878.699444	0.044864
878.883722	0.044772
879.067982	0.044754
879.252224	0.045048
879.436447	0.045168
879.620653	0.045344
879.804840	0.045045
879.989008	0.044875
880.173159	0.044757
880.357291	0.044621
880.541405	0.044472
880.725501	0.044498
880.909579	0.044191
881.093638	0.044179
881.277680	0.044250
881.461703	0.044508
881.645707	0.044749
881.829694	0.044769
882.013662	0.044639
882.197612	0.044951
882.381544	0.044983
882.565458	0.044970
882.749353	0.045060
882.933230	0.045272
883.117089	0.045005
883.300930	0.045032
883.484753	0.045056
883.668557	0.045220
883.852343	0.044958
884.036111	0.044844
884.219861	0.044832
884.403592	0.044410
884.587305	0.044141
884.771000	0.044014
884.954677	0.043810
885.138335	0.043653
885.321976	0.043311
885.505598	0.043413
885.689201	0.043179
885.872787	0.043029
886.056354	0.043291
886.239904	0.043252
886.423434	0.043305
886.606947	0.043366
886.790442	0.043297
886.973918	0.043280
887.157376	0.043152
887.340816	0.043663
887.524237	0.043679
887.707641	0.043800
887.891026	0.043545
888.074393	0.043794
888.257741	0.043675
888.441072	0.043574
888.624384	0.044111
888.807678	0.044449
888.990954	0.044207
889.174211	0.044271
889.357451	0.043748
889.540672	0.043932
889.723875	0.043894
889.907059	0.044077
890.090226	0.044467
890.273374	0.044049
890.456504	0.043917
890.639616	0.043781
890.822709	0.043699
891.005785	0.044010
891.188842	0.043967
891.371881	0.043847
891.554901	0.043861
891.737904	0.043871
891.920888	0.044032
892.103854	0.043999
892.286802	0.044190
892.469731	0.044431
892.652643	0.044209
892.835536	0.043917
893.018410	0.043633
893.201267	0.043650
893.384106	0.043228
893.566926	0.042989
893.749728	0.042681
893.932511	0.042144
894.115277	0.042007
894.298024	0.042327
894.480753	0.042695
894.663464	0.042910
894.846157	0.042443
895.028831	0.042660
895.211487	0.042854
895.394125	0.043121
895.576745	0.043196
895.759346	0.043059
895.941930	0.042941
896.124495	0.042987
896.307041	0.042971
896.489570	0.042994
896.672080	0.042567
896.854573	0.042511
897.037046	0.042475
897.219502	0.042644
897.401940	0.042660
897.584359	0.042205
897.766760	0.041834
897.949143	0.041823
898.131507	0.042014
898.313854	0.042143
898.496182	0.041885
898.678492	0.041683
898.860783	0.041658
899.043057	0.041383
899.225312	0.041491
899.407549	0.041573
899.589768	0.041600
899.771968	0.040926
899.954151	0.040985
900.136315	0.041025
900.318461	0.040858
900.500588	0.040952
900.682698	0.041000
900.864789	0.040818
901.046862	0.040551
901.228917	0.040205
901.410953	0.040483
901.592971	0.040101
901.774972	0.040226
901.956953	0.040390
902.138917	0.040098
902.320862	0.040310
902.502790	0.040568
902.684699	0.040874
902.866589	0.040593
903.048462	0.040616
903.230316	0.040626
903.412152	0.040232
903.593970	0.039988
903.775770	0.039988
903.957551	0.039846
904.139314	0.039559
904.321059	0.039580
904.502786	0.039844
904.684494	0.039902
904.866185	0.040133
905.047857	0.040391
905.229510	0.040385
905.411146	0.040369
905.592763	0.040432
905.774363	0.040475
905.955943	0.040173
906.137506	0.039889
906.319051	0.039793
906.500577	0.039733
906.682085	0.039518
906.863575	0.039047
907.045046	0.038696
907.226500	0.038711
907.407935	0.038475
907.589352	0.038280
907.770750	0.038553
907.952131	0.038320
908.133493	0.038053
908.314837	0.037878
908.496163	0.037964
908.677470	0.038046
908.858760	0.037537
909.040031	0.037445
909.221284	0.037251
909.402518	0.036437
909.583735	0.036209
909.764933	0.036038
909.946113	0.035709
910.127275	0.035916
910.308418	0.035609
910.489544	0.035126
910.670651	0.034871
910.851740	0.034605
911.032810	0.034561
911.213863	0.034327
911.394897	0.034052
911.575913	0.033986
911.756911	0.033443
911.937890	0.033484
912.118851	0.033452
912.299794	0.033457
912.480719	0.033295
912.661626	0.033284
912.842514	0.033229
913.023384	0.033165
913.204236	0.032809
913.385070	0.032698
913.565886	0.032126
913.746683	0.032144
913.927462	0.032445
914.108223	0.032172
914.288965	0.032087
914.469690	0.032395
914.650396	0.032092
914.831084	0.032375
915.011754	0.032200
915.192405	0.032956
915.373038	0.032738
915.553653	0.032232
915.734250	0.032361
915.914829	0.032561
916.095389	0.032108
916.275931	0.032206
916.456455	0.031421
916.636961	0.031214
916.817448	0.030845
916.997917	0.031004
917.178368	0.030765
917.358801	0.030730
917.539216	0.030863
917.719612	0.030827
917.899990	0.030577
918.080350	0.030722
918.260692	0.030612
918.441015	0.029778
918.621320	0.029229
918.801607	0.028943
918.981876	0.028663
919.162127	0.027625
919.342359	0.027231
919.522573	0.027222
919.702769	0.027068
919.882947	0.027212
920.063106	0.027428
920.243247	0.027376
920.423370	0.027129
920.603475	0.026880
920.783562	0.026687
920.963630	0.026500
921.143680	0.026213
921.323712	0.025851
921.503725	0.024958
921.683721	0.024375
921.863698	0.023939
922.043657	0.024055
922.223598	0.023620
922.403520	0.023551
922.583424	0.022670
922.763311	0.022405
922.943178	0.022327
923.123028	0.021919
923.302859	0.021599
923.482673	0.021327
923.662467	0.020940
923.842244	0.020809
924.022003	0.020427
924.201743	0.020606
924.381465	0.019885
924.561169	0.019561
924.740854	0.019974
924.920522	0.019671
925.100171	0.019316
925.279802	0.018808
925.459414	0.018474
925.639009	0.018071
925.818585	0.017352
925.998143	0.017310
926.177683	0.016835
926.357205	0.016241
926.536708	0.016083
926.716193	0.016212
926.895660	0.016168
927.075109	0.015504
927.254539	0.015773
927.433951	0.016401
927.613345	0.016105
927.792721	0.015904
927.972079	0.015726
928.151418	0.015729
928.330739	0.015173
928.510042	0.014740
928.689327	0.014599
928.868593	0.014056
929.047841	0.013391
929.227071	0.013341
929.406283	0.012803
929.585476	0.012449
929.764652	0.011562
929.943809	0.010902
930.122948	0.010397
930.302068	0.009784
930.481171	0.009311
930.660255	0.009084
930.839321	0.008648
931.018369	0.008775
931.197398	0.007961
931.376409	0.007690
931.555402	0.007639
931.734377	0.006533
931.913334	0.006331
932.092272	0.006092
932.271192	0.005761
932.450094	0.005170
932.628978	0.004354
932.807844	0.004381
932.986691	0.003996
933.165520	0.003644
933.344331	0.003954
933.523123	0.004075
933.701898	0.003700
933.880654	0.003187
934.059392	0.002788
934.238111	0.002776
934.416813	0.002878
934.595496	0.002580
934.774161	0.001838
934.952808	0.001074
935.131437	0.000838
935.310047	-0.000183
935.488639	-0.000920
935.667213	-0.001285
935.845769	-0.001694
936.024306	-0.002679
936.202825	-0.002746
936.381326	-0.002665
936.559809	-0.002700
936.738274	-0.003143
936.916720	-0.002891
937.095148	-0.002640
937.273558	-0.003281
937.451950	-0.003678
937.630323	-0.004001
937.808678	-0.004776
937.987015	-0.005549
938.165334	-0.005957
938.343635	-0.006702
938.521917	-0.007111
938.700181	-0.007847
938.878427	-0.007290
939.056655	-0.007501
939.234864	-0.008395
939.413055	-0.007925
939.591228	-0.007323
939.769383	-0.007143
939.947519	-0.007137
940.125638	-0.006975
940.303738	-0.007401
940.481820	-0.007762
940.659883	-0.008645
940.837929	-0.008133
941.015956	-0.009274
941.193965	-0.009780
941.371955	-0.009677
941.549928	-0.009800
941.727882	-0.010667
941.905818	-0.010121
942.083736	-0.010782
942.261636	-0.009892
942.439517	-0.010116
942.617380	-0.010365
942.795225	-0.011080
942.973052	-0.011922
943.150860	-0.011539
943.328651	-0.011319
943.506423	-0.012238
943.684176	-0.012620
943.861912	-0.013670
944.039629	-0.014065
944.217328	-0.014113
944.395009	-0.013935
944.572672	-0.014034
944.750317	-0.014755
944.927943	-0.014937
945.105551	-0.014668
945.283141	-0.015546
945.460712	-0.015173
945.638265	-0.014724
945.815801	-0.014859
945.993317	-0.014785
946.170816	-0.015385
946.348297	-0.015963
946.525759	-0.016411
946.703203	-0.016758
946.880629	-0.016711
947.058036	-0.016486
947.235425	-0.017556
947.412797	-0.017014
947.590149	-0.017727
947.767484	-0.017663
947.944800	-0.018067
948.122099	-0.018536
948.299379	-0.019290
948.476640	-0.018277
948.653884	-0.019305
948.831109	-0.018907
949.008316	-0.019532
949.185505	-0.020054
949.362676	-0.020602
949.539828	-0.020257
949.716962	-0.020150
949.894078	-0.020296
950.071176	-0.021908
950.248256	-0.022182
950.425317	-0.022385
950.602360	-0.022462
950.779385	-0.021815
950.956391	-0.021822
951.133380	-0.020511
951.310350	-0.020074
951.487302	-0.018887
951.664235	-0.017344
951.841151	-0.016868
952.018048	-0.015243
952.194927	-0.014630
952.371788	-0.014095
952.548631	-0.013690
952.725455	-0.014739
952.902261	-0.014642
953.079049	-0.015475
953.255819	-0.015559
953.432570	-0.014975
953.609303	-0.016247
953.786018	-0.015750
953.962715	-0.016535
954.139394	-0.015388
954.316054	-0.015454
954.492696	-0.016447
954.669320	-0.015452
954.845926	-0.014485
955.022513	-0.014360
955.199083	-0.014377
955.375634	-0.014909
955.552166	-0.015556
955.728681	-0.015647
955.905177	-0.016014
956.081655	-0.015519
956.258115	-0.016261
956.434557	-0.017718
956.610980	-0.016585
956.787385	-0.015391
956.963772	-0.014526
957.140141	-0.013663
957.316492	-0.014149
957.492824	-0.013028
957.669138	-0.011335
957.845434	-0.012118
958.021712	-0.009356
958.197971	-0.010258
958.374212	-0.010547
958.550435	-0.011202
958.726640	-0.009926
958.902826	-0.009232
959.078995	-0.010721
959.255145	-0.010427
959.431277	-0.008885
959.607390	-0.010078
959.783486	-0.008668
959.959563	-0.008152
960.135622	-0.006136
960.311662	-0.006766
960.487685	-0.004714
960.663689	-0.004087
960.839675	-0.003721
961.015643	-0.001195
961.191593	-0.002235
961.367524	-0.003612
961.543437	-0.003792
961.719332	-0.003632
961.895209	-0.003103
962.071067	-0.004186
962.246907	-0.002804
962.422730	-0.003163
962.598533	-0.004512
962.774319	-0.002379
962.950086	-0.001457
963.125835	-0.001115
963.301566	-0.000897
963.477279	-0.000450
963.652973	0.000049
963.828650	0.000718
964.004308	0.003433
964.179947	0.003507
964.355569	0.002432
964.531172	0.000404
964.706757	-0.000380
964.882324	-0.002312
965.057873	-0.000017
965.233403	0.000357
965.408916	0.000684
965.584410	-0.001054
965.759885	-0.000995
965.935343	0.000599
966.110782	0.003506
966.286203	0.004412
966.461606	0.004701
966.636991	0.001726
966.812357	0.001498
966.987705	0.002415
967.163035	0.002397
967.338347	0.002557
967.513641	0.001963
967.688916	0.001603
967.864173	0.003527
968.039412	0.004977
968.214632	0.007218
968.389835	0.010348
968.565019	0.010506
968.740185	0.010390
968.915333	0.010532
969.090462	0.009841
969.265573	0.009506
969.440667	0.008234
969.615741	0.006605
969.790798	0.006342
969.965836	0.004116
970.140856	0.003870
970.315858	0.004826
970.490842	0.005954
970.665808	0.007209
970.840755	0.007889
971.015684	0.009096
971.190595	0.009954
971.365487	0.008737
971.540362	0.008067
971.715218	0.008450
971.890056	0.008691
972.064875	0.007751
972.239677	0.006515
972.414460	0.005558
972.589225	0.004487
972.763972	0.004526
972.938700	0.004439
973.113411	0.003663
973.288103	0.002578
973.462777	0.001452
973.637432	0.002949
973.812070	0.003185
973.986689	0.001830
974.161290	-0.000896
974.335873	-0.000597
974.510437	0.000387
974.684984	0.002220
974.859512	0.003237
975.034022	0.003601
975.208513	0.003675
975.382987	0.005346
975.557442	0.006809
975.731879	0.008248
975.906298	0.006183
976.080698	0.006962
976.255080	0.006237
976.429445	0.004305
976.603790	0.004985
976.778118	0.003175
976.952427	0.001557
977.126719	0.001393
977.300992	0.004252
977.475246	0.009448
977.649483	0.008352
977.823701	0.007620
977.997901	0.007907
978.172083	0.006492
978.346247	0.007293
978.520392	0.007787
978.694519	0.007827
978.868628	0.006949
979.042719	0.004041
979.216791	0.003697
979.390845	0.003926
979.564882	0.004910
979.738899	0.006137
979.912899	0.005377
980.086880	0.004168
980.260843	0.005381
980.434788	0.004903
980.608715	0.004639
980.782623	0.005753
980.956514	0.007050
981.130386	0.006396
981.304240	0.005692
981.478075	0.006232
981.651892	0.007470
981.825692	0.006168
981.999472	0.007012
982.173235	0.007922
982.346980	0.007640
982.520706	0.006990
982.694414	0.008548
982.868104	0.009490
983.041775	0.010566
983.215428	0.009478
983.389064	0.011343
983.562680	0.012246
983.736279	0.012110
983.909860	0.012912
984.083422	0.012373
984.256966	0.010473
984.430491	0.010448
984.603999	0.009862
984.777488	0.010849
984.950959	0.009258
985.124412	0.007561
985.297847	0.006957
985.471263	0.006281
985.644661	0.005657
985.818041	0.005937
985.991403	0.004758
986.164747	0.003340
986.338072	0.003712
986.511379	0.004547
986.684668	0.004226
986.857938	0.004360
987.031191	0.003513
987.204425	0.004893
987.377641	0.004595
987.550839	0.004302
987.724018	0.005061
987.897179	0.004116
988.070322	0.003026
988.243447	0.003494
988.416554	0.002747
988.589642	0.003581
988.762712	0.003488
988.935764	0.003548
989.108798	0.003777
989.281813	0.003909
989.454811	0.003483
989.627790	0.003874
989.800751	0.002170
989.973693	0.002880
990.146617	0.003560
990.319524	0.004094
990.492412	0.004044
990.665281	0.003920
990.838133	0.005222
991.010966	0.005391
991.183781	0.005503
991.356578	0.006976
991.529356	0.006642
991.702117	0.005942
991.874859	0.005017
992.047583	0.005380
992.220288	0.006985
992.392976	0.005511
992.565645	0.007709
992.738296	0.007674
992.910929	0.008066
993.083543	0.008777
993.256139	0.008229
993.428718	0.007709
993.601277	0.008124
993.773819	0.006305
993.946342	0.005698
994.118848	0.003305
994.291335	0.002303
994.463803	0.000227
994.636254	0.000072
994.808686	-0.000287
994.981100	-0.000935
995.153496	-0.000842
995.325874	-0.000561
995.498233	0.000389
995.670574	0.001146
995.842897	0.001437
996.015202	0.003161
996.187488	0.003111
996.359757	0.004004
996.532007	0.005263
996.704239	0.003996
996.876452	0.004248
997.048648	0.004043
997.220825	0.003724
997.392984	0.004061
997.565124	0.003299
997.737247	0.003868
997.909351	0.003317
998.081437	0.003165
998.253505	0.003776
998.425554	0.003004
998.597586	0.002808
998.769599	0.003707
998.941594	0.004084
999.113571	0.003394
999.285529	0.001853
999.457469	0.003940
999.629391	0.004188
999.801295	0.003855
999.973181	0.005185
1000.145048	0.004981
1000.316897	0.004905
1000.488728	0.004614
1000.660541	0.006212
1000.832335	0.007194
1001.004111	0.005302
1001.175869	0.004806
1001.347609	0.005162
1001.519331	0.003056
1001.691034	0.002987
1001.862719	0.002167
1002.034386	0.001868
1002.206035	0.001746
1002.377665	0.001431
1002.549277	0.001974
1002.720871	0.002931
1002.892447	0.001962
1003.064004	0.002770
1003.235544	0.001781
1003.407065	0.001041
1003.578568	0.001215
1003.750052	0.000365
1003.921519	-0.000490
1004.092967	-0.000149
1004.264397	-0.000466
1004.435809	-0.000404
1004.607202	0.000395
1004.778577	-0.000042
1004.949934	-0.000680
1005.121273	-0.000733
1005.292594	-0.000775
1005.463896	-0.000261
1005.635180	-0.002321
1005.806446	-0.004352
1005.977694	-0.003983
1006.148923	-0.003583
1006.320135	-0.001077
1006.491328	0.001532
1006.662503	0.001606
1006.833659	0.002967
1007.004798	0.002132
1007.175918	0.002778
1007.347020	0.003542
1007.518103	0.004666
1007.689169	0.004026
1007.860216	0.002562
1008.031245	0.000186
1008.202256	-0.000453
1008.373248	-0.001784
1008.544223	-0.000269
1008.715179	-0.000651
1008.886117	0.000388
1009.057036	0.001059
1009.227938	0.001121
1009.398821	-0.000060
1009.569686	0.000854
1009.740533	0.000996
1009.911361	0.000714
1010.082172	0.001183
1010.252964	0.001110
1010.423738	0.000413
1010.594493	-0.000871
1010.765231	-0.000475
1010.935950	0.001456
1011.106651	0.000519
1011.277334	-0.000510
1011.447998	0.000689
1011.618645	-0.000264
1011.789273	0.000509
1011.959882	0.000429
1012.130474	-0.000420
1012.301048	-0.000786
1012.471603	-0.001213
1012.642140	-0.000165
1012.812658	0.000834
1012.983159	-0.000507
1013.153641	-0.000557
1013.324105	-0.001060
1013.494551	-0.000693
1013.664979	0.000876
1013.835388	0.001302
1014.005779	0.001149
1014.176152	0.001195
1014.346507	0.001779
1014.516843	0.002503
1014.687162	0.002733
1014.857462	0.001611
1015.027744	0.000805
1015.198007	-0.000616
1015.368252	-0.001759
1015.538480	-0.000689
1015.708689	-0.000264
1015.878879	-0.000928
1016.049052	-0.001997
1016.219206	-0.002819
1016.389342	-0.002542
1016.559460	-0.002707
1016.729559	-0.002240
1016.899641	-0.002877
1017.069704	-0.004579
1017.239749	-0.006425
1017.409775	-0.007967
1017.579784	-0.007305
1017.749774	-0.008503
1017.919746	-0.007380
1018.089700	-0.006788
1018.259635	-0.006719
1018.429553	-0.005346
1018.599452	-0.004456
1018.769333	-0.003053
1018.939195	-0.002143
1019.109040	-0.001761
1019.278866	0.000768
1019.448674	-0.000413
1019.618464	-0.000438
1019.788235	-0.001360
1019.957989	-0.000897
1020.127724	-0.002351
1020.297441	-0.004123
1020.467139	-0.003013
1020.636820	-0.003757
1020.806482	-0.004144
1020.976126	-0.002697
1021.145752	-0.003603
1021.315359	-0.002424
1021.484948	-0.004009
1021.654519	-0.002726
1021.824072	-0.001165
1021.993607	-0.001619
1022.163123	-0.001432
1022.332621	-0.001874
1022.502101	-0.001578
1022.671563	0.000284
1022.841007	-0.002180
1023.010432	-0.000857
1023.179839	-0.000779
1023.349228	-0.000902
1023.518598	-0.001355
1023.687951	-0.002214
1023.857285	-0.002787
1024.026601	-0.003247
1024.195899	-0.005206
1024.365178	-0.002138
1024.534439	-0.003025
1024.703682	-0.002753
1024.872907	-0.001856
1025.042114	-0.000884
1025.211302	0.000539
1025.380472	0.000954
1025.549624	0.001383
1025.718758	0.001223
1025.887873	-0.000657
1026.056970	-0.001115
1026.226049	-0.003166
1026.395110	-0.003969
1026.564153	-0.003822
1026.733177	-0.003854
1026.902183	-0.003675
1027.071171	-0.004339
1027.240141	-0.003463
1027.409092	-0.002048
1027.578026	-0.001767
1027.746940	-0.000348
1027.915837	-0.000422
1028.084716	0.000029
1028.253576	0.000024
1028.422418	0.000163
1028.591242	-0.001179
1028.760048	-0.000719
1028.928835	-0.000698
1029.097604	-0.000192
1029.266355	-0.000032
1029.435088	-0.000084
1029.603803	-0.000277
1029.772499	-0.000780
1029.941177	-0.001724
1030.109837	-0.001381
1030.278478	-0.001414
1030.447102	-0.001688
1030.615707	-0.002808
1030.784294	-0.002178
1030.952863	-0.001485
1031.121413	-0.001692
1031.289945	-0.000434
1031.458460	-0.000359
1031.626955	0.000858
1031.795433	0.001190
1031.963892	0.001509
1032.132334	0.003466
1032.300756	0.003015
1032.469161	0.002813
1032.637548	0.001986
1032.805916	0.000827
1032.974266	0.001009
1033.142598	0.000918
1033.310911	0.000760
1033.479207	-0.000753
1033.647484	-0.001528
1033.815743	-0.002523
1033.983983	-0.004245
1034.152206	-0.004345
1034.320410	-0.004932
1034.488596	-0.004375
1034.656764	-0.004537
1034.824914	-0.004541
1034.993045	-0.003747
1035.161158	-0.003855
1035.329253	-0.003656
1035.497330	-0.002690
1035.665388	-0.001052
1035.833428	-0.001158
1036.001450	-0.000465
1036.169454	-0.000990
1036.337440	-0.000796
1036.505407	0.000036
1036.673356	-0.000535
1036.841287	-0.000773
1037.009200	-0.001048
1037.177094	-0.002334
1037.344970	-0.002430
1037.512828	-0.002028
1037.680668	-0.002680
1037.848489	-0.002228
1038.016293	-0.003181
1038.184078	-0.002473
1038.351845	-0.001160
1038.519593	-0.000038
1038.687324	-0.000176
1038.855036	0.000897
1039.022730	0.000403
1039.190406	0.001503
1039.358063	-0.000168
1039.525702	-0.000726
1039.693323	0.000427
1039.860926	0.000013
1040.028511	-0.000602
1040.196077	0.000641
1040.363625	-0.000163
1040.531155	-0.001717
1040.698667	-0.001903
1040.866161	-0.002086
1041.033636	-0.001974
1041.201093	-0.004084
1041.368532	-0.004487
1041.535952	-0.004055
1041.703355	-0.005049
1041.870739	-0.004124
1042.038105	-0.004175
1042.205452	-0.002212
1042.372782	-0.001553
1042.540093	-0.000521
1042.707386	-0.001245
1042.874661	-0.001011
1043.041918	-0.001442
1043.209156	-0.001244
1043.376376	-0.001610
1043.543578	-0.000717
1043.710762	-0.001143
1043.877927	0.000605
1044.045074	-0.000576
1044.212203	0.000883
1044.379314	0.001573
1044.546407	0.001398
1044.713481	0.001123
1044.880537	0.001461
1045.047575	0.001035
1045.214595	0.000546
1045.381596	-0.000605
1045.548579	-0.000461
1045.715544	-0.001221
1045.882491	-0.003204
1046.049420	-0.003463
1046.216330	-0.004226
1046.383222	-0.004085
1046.550096	-0.003823
1046.716951	-0.004605
1046.883789	-0.004992
1047.050608	-0.004014
1047.217409	-0.002745
1047.384192	-0.000634
1047.550956	-0.001335
1047.717703	-0.000963
1047.884431	-0.002961
1048.051140	-0.003349
1048.217832	-0.004206
1048.384505	-0.005573
1048.551161	-0.007673
1048.717798	-0.008615
1048.884416	-0.009768
1049.051017	-0.008121
1049.217599	-0.007355
1049.384163	-0.006561
1049.550709	-0.006497
1049.717237	-0.005609
1049.883746	-0.004275
1050.050237	-0.003040
1050.216710	-0.001467
1050.383165	-0.002163
1050.549601	-0.001935
1050.716019	-0.003213
1050.882420	-0.004363
1051.048801	-0.003944
1051.215165	-0.004007
1051.381510	-0.004500
1051.547837	-0.004734
1051.714146	-0.006008
1051.880437	-0.005868
1052.046709	-0.006952
1052.212964	-0.007198
1052.379200	-0.005964
1052.545417	-0.006915
1052.711617	-0.007105
1052.877798	-0.007029
1053.043961	-0.006272
1053.210106	-0.005328
1053.376233	-0.004056
1053.542341	-0.003123
1053.708432	-0.001694
1053.874504	0.001285
1054.040557	0.001164
1054.206593	0.001605
1054.372610	0.000204
1054.538609	-0.000922
1054.704590	-0.001742
1054.870553	-0.002728
1055.036497	-0.004235
1055.202424	-0.004654
1055.368331	-0.008491
1055.534221	-0.008696
1055.700093	-0.008787
1055.865946	-0.007346
1056.031781	-0.006997
1056.197598	-0.008798
1056.363397	-0.008322
1056.529177	-0.007964
1056.694939	-0.008302
1056.860683	-0.005979
1057.026409	-0.003538
1057.192116	-0.004324
1057.357806	-0.003101
1057.523477	-0.002552
1057.689130	-0.001845
1057.854764	-0.001699
1058.020381	0.000334
1058.185979	0.001021
1058.351559	-0.000388
1058.517120	-0.002082
1058.682664	-0.001172
1058.848189	-0.002882
1059.013696	-0.003785
1059.179185	-0.003315
1059.344656	-0.004967
1059.510108	-0.006966
1059.675542	-0.008311
1059.840958	-0.008747
1060.006356	-0.009373
1060.171735	-0.009433
1060.337096	-0.008351
1060.502439	-0.006864
1060.667764	-0.007662
1060.833071	-0.005722
1060.998359	-0.004256
1061.163629	-0.004300
1061.328881	-0.004059
1061.494115	-0.004293
1061.659330	-0.005589
1061.824527	-0.006191
1061.989706	-0.007251
1062.154867	-0.006712
1062.320010	-0.007824
1062.485134	-0.009417
1062.650240	-0.007130
1062.815328	-0.006976
1062.980398	-0.005865
1063.145449	-0.005078
1063.310482	-0.006848
1063.475497	-0.005782
1063.640494	-0.005928
1063.805473	-0.004646
1063.970433	-0.004895
1064.135375	-0.006124
1064.300299	-0.005237
1064.465204	-0.004407
1064.630092	-0.006082
1064.794961	-0.003081
1064.959812	-0.003190
1065.124645	-0.001847
1065.289459	-0.004586
1065.454256	-0.004227
1065.619034	-0.005174
1065.783793	-0.004023
1065.948535	-0.006454
1066.113258	-0.005057
1066.277964	-0.006358
1066.442651	-0.007979
1066.607319	-0.008982
1066.771970	-0.007868
1066.936602	-0.005607
1067.101216	-0.005385
1067.265812	-0.008448
1067.430389	-0.005675
1067.594949	-0.005689
1067.759490	-0.005877
1067.924013	-0.005485
1068.088518	-0.005161
1068.253004	-0.003806
1068.417472	-0.006646
1068.581922	-0.007288
1068.746354	-0.004936
1068.910768	-0.005359
1069.075163	-0.005465
1069.239540	-0.005628
1069.403899	-0.004306
1069.568240	-0.004346
1069.732562	-0.006248
1069.896866	-0.005403
1070.061152	-0.005862
1070.225420	-0.007495
1070.389670	-0.007736
1070.553901	-0.009069
1070.718114	-0.010292
1070.882309	-0.012048
1071.046486	-0.012045
1071.210644	-0.010420
1071.374784	-0.010206
1071.538906	-0.009220
1071.703010	-0.009887
1071.867096	-0.010869
1072.031163	-0.009296
1072.195212	-0.008776
1072.359243	-0.009603
1072.523256	-0.009108
1072.687250	-0.010536
1072.851226	-0.012959
1073.015184	-0.014088
1073.179124	-0.014171
1073.343045	-0.014357
1073.506949	-0.015310
1073.670834	-0.014459
1073.834701	-0.010781
1073.998549	-0.011819
1074.162380	-0.010407
1074.326192	-0.007849
1074.489986	-0.006373
1074.653761	-0.004691
1074.817519	-0.005352
1074.981258	-0.005767
1075.144979	-0.006801
1075.308682	-0.009219
1075.472367	-0.008328
1075.636033	-0.010038
1075.799681	-0.010925
1075.963311	-0.011344
1076.126923	-0.012121
1076.290516	-0.011634
1076.454092	-0.009755
1076.617649	-0.010009
1076.781187	-0.008235
1076.944708	-0.007309
1077.108210	-0.006493
1077.271695	-0.006757
1077.435160	-0.006255
1077.598608	-0.005477
1077.762038	-0.005139
1077.925449	-0.007577
1078.088842	-0.006237
1078.252217	-0.008537
1078.415573	-0.010126
1078.578912	-0.010612
1078.742232	-0.010506
1078.905534	-0.010421
1079.068817	-0.010414
1079.232083	-0.011315
1079.395330	-0.011936
1079.558559	-0.012251
1079.721770	-0.011994
1079.884962	-0.010011
1080.048136	-0.008450
1080.211293	-0.007759
1080.374430	-0.009634
1080.537550	-0.009461
1080.700651	-0.009407
1080.863735	-0.005420
1081.026800	-0.003743
1081.189846	-0.003923
1081.352875	-0.004875
1081.515885	-0.005368
1081.678877	-0.006721
1081.841851	-0.006467
1082.004807	-0.006025
1082.167744	-0.004860
1082.330663	-0.006123
1082.493564	-0.007230
1082.656447	-0.007269
1082.819312	-0.009058
1082.982158	-0.010146
1083.144986	-0.011534
1083.307796	-0.010360
1083.470587	-0.010241
1083.633361	-0.010186
1083.796116	-0.010699
1083.958853	-0.011804
1084.121571	-0.012019
1084.284272	-0.012918
1084.446954	-0.013299
1084.609618	-0.011010
1084.772264	-0.011749
1084.934892	-0.013786
1085.097501	-0.015441
1085.260092	-0.013871
1085.422665	-0.013340
1085.585220	-0.011661
1085.747756	-0.009842
1085.910274	-0.008122
1086.072774	-0.010350
1086.235256	-0.008059
1086.397720	-0.007621
1086.560165	-0.005636
1086.722592	-0.009017
1086.885001	-0.008585
1087.047392	-0.010831
1087.209764	-0.009718
1087.372119	-0.012086
1087.534455	-0.009561
1087.696772	-0.012427
1087.859072	-0.011903
1088.021353	-0.012965
1088.183616	-0.013298
1088.345861	-0.015075
1088.508088	-0.013697
1088.670296	-0.016502
1088.832486	-0.014597
1088.994658	-0.014663
1089.156812	-0.013606
1089.318948	-0.014796
1089.481065	-0.015006
1089.643164	-0.013730
1089.805245	-0.012083
1089.967308	-0.013852
1090.129352	-0.013450
1090.291378	-0.013138
1090.453386	-0.014277
1090.615376	-0.015151
1090.777347	-0.015587
1090.939301	-0.015884
1091.101236	-0.015851
1091.263153	-0.016851
1091.425051	-0.014942
1091.586932	-0.013336
1091.748794	-0.014919
1091.910638	-0.014329
1092.072463	-0.011880
1092.234271	-0.012750
1092.396060	-0.012856
1092.557831	-0.012991
1092.719584	-0.013448
1092.881319	-0.016404
1093.043035	-0.018762
1093.204733	-0.020376
1093.366413	-0.021277
1093.528075	-0.023030
1093.689718	-0.021772
1093.851343	-0.023008
1094.012950	-0.021459
1094.174539	-0.019286
1094.336110	-0.015563
1094.497662	-0.013020
1094.659196	-0.010325
1094.820712	-0.007299
1094.982210	-0.009107
1095.143689	-0.009884
1095.305151	-0.007077
1095.466594	-0.009062
1095.628018	-0.010226
1095.789425	-0.011545
1095.950813	-0.014534
1096.112183	-0.015540
1096.273535	-0.014788
1096.434869	-0.013504
1096.596184	-0.011026
1096.757482	-0.011110
1096.918761	-0.011466
1097.080021	-0.011991
1097.241264	-0.012194
1097.402488	-0.008700
1097.563694	-0.008300
1097.724882	-0.013120
1097.886052	-0.011276
1098.047203	-0.013360
1098.208336	-0.014314
1098.369451	-0.016726
1098.530548	-0.017287
1098.691627	-0.019113
1098.852687	-0.018981
1099.013729	-0.019444
1099.174753	-0.016661
1099.335758	-0.015789
1099.496746	-0.014098
1099.657715	-0.011963
1099.818666	-0.007892
1099.979599	-0.009351
1100.140513	-0.009351
1100.301409	-0.011158
1100.462287	-0.011084
1100.623147	-0.012521
1100.783989	-0.014169
1100.944812	-0.013206
1101.105617	-0.014715
1101.266404	-0.015179
1101.427173	-0.012376
1101.587923	-0.011602
1101.748656	-0.009422
1101.909370	-0.009319
1102.070066	-0.010334
1102.230743	-0.012425
1102.391403	-0.013611
1102.552044	-0.010819
1102.712667	-0.010905
1102.873271	-0.009234
1103.033858	-0.010780
1103.194426	-0.013690
1103.354976	-0.012401
1103.515508	-0.011151
1103.676021	-0.009244
1103.836517	-0.011347
1103.996994	-0.012753
1104.157453	-0.013921
1104.317893	-0.017334
1104.478316	-0.015950
1104.638720	-0.016477
1104.799106	-0.015599
1104.959474	-0.015654
1105.119823	-0.013485
1105.280155	-0.015840
1105.440468	-0.017674
1105.600763	-0.017368
1105.761039	-0.015569
1105.921298	-0.017129
1106.081538	-0.013905
1106.241760	-0.019347
1106.401964	-0.016338
1106.562149	-0.017402
1106.722316	-0.016160
1106.882465	-0.018634
1107.042596	-0.017077
1107.202709	-0.019216
1107.362803	-0.016100
1107.522879	-0.019679
1107.682937	-0.017163
1107.842977	-0.018647
1108.002999	-0.021814
1108.163002	-0.018383
1108.322987	-0.015910
1108.482954	-0.013881
1108.642902	-0.011241
1108.802833	-0.011175
1108.962745	-0.011854
1109.122639	-0.008858
1109.282515	-0.010568
1109.442372	-0.011392
1109.602211	-0.014219
1109.762032	-0.015989
1109.921835	-0.018622
1110.081620	-0.017391
1110.241386	-0.021916
1110.401134	-0.020081
1110.560864	-0.025212
1110.720576	-0.025928
1110.880269	-0.024700
1111.039945	-0.022949
1111.199602	-0.019960
1111.359240	-0.020105
1111.518861	-0.021986
1111.678463	-0.019886
1111.838047	-0.020333
1111.997613	-0.016289
1112.157161	-0.016206
1112.316690	-0.017439
1112.476202	-0.014789
1112.635695	-0.018480
1112.795169	-0.020089
1112.954626	-0.021234
1113.114064	-0.021166
1113.273484	-0.024057
1113.432886	-0.025237
1113.592270	-0.022215
1113.751635	-0.018674
1113.910983	-0.016609
1114.070312	-0.015646
1114.229622	-0.014232
1114.388915	-0.009484
1114.548189	-0.009327
1114.707445	-0.006755
1114.866683	-0.010918
1115.025903	-0.010658
1115.185104	-0.012178
1115.344287	-0.018468
1115.503452	-0.018417
1115.662599	-0.015425
1115.821727	-0.019338
1115.980838	-0.016145
1116.139930	-0.014925
1116.299004	-0.008972
1116.458059	-0.012244
1116.617097	-0.010406
1116.776116	-0.008970
1116.935117	-0.007495
1117.094099	-0.007584
1117.253064	-0.005636
1117.412010	-0.008701
1117.570938	-0.009619
1117.729848	-0.012246
1117.888740	-0.013554
1118.047613	-0.016094
1118.206468	-0.016870
1118.365305	-0.018910
1118.524124	-0.025392
1118.682924	-0.027148
1118.841707	-0.025173
1119.000471	-0.023428
1119.159216	-0.021632
1119.317944	-0.020200
1119.476653	-0.018587
1119.635344	-0.017069
1119.794017	-0.017819
1119.952672	-0.008662
1120.111308	-0.005927
1120.269927	-0.005780
1120.428527	-0.006241
1120.587108	-0.006359
1120.745672	-0.006262
1120.904217	-0.007823
1121.062744	-0.009253
1121.221253	-0.005641
1121.379744	-0.013869
1121.538216	-0.019800
1121.696671	-0.020893
1121.855107	-0.022374
1122.013524	-0.022276
1122.171924	-0.027132
1122.330305	-0.030267
1122.488668	-0.033239
1122.647013	-0.032196
1122.805340	-0.030793
1122.963648	-0.029768
1123.121938	-0.030640
1123.280210	-0.025607
1123.438464	-0.025909
1123.596700	-0.016867
1123.754917	-0.012999
1123.913116	-0.004123
1124.071297	-0.005459
1124.229459	-0.005613
1124.387604	-0.005718
1124.545730	-0.003361
1124.703838	-0.001675
1124.861928	-0.004619
1125.019999	-0.011306
1125.178052	-0.009696
1125.336088	-0.012656
1125.494104	-0.012078
1125.652103	-0.011659
1125.810083	-0.007285
1125.968045	-0.010062
1126.125989	-0.013829
1126.283915	-0.009586
1126.441823	-0.005166
1126.599712	-0.012196
1126.757583	-0.012445
1126.915436	-0.017221
1127.073270	-0.013521
1127.231087	-0.017264
1127.388885	-0.015612
1127.546665	-0.014349
1127.704426	-0.017510
1127.862170	-0.019141
1128.019895	-0.011471
1128.177602	-0.015204
1128.335291	-0.004437
1128.492961	-0.005739
1128.650614	-0.005152
1128.808248	-0.004658
1128.965864	-0.005619
1129.123461	-0.003490
1129.281041	-0.006326
1129.438602	-0.005515
1129.596145	-0.003947
1129.753670	-0.010997
1129.911176	-0.009980
1130.068665	-0.006919
1130.226135	-0.005624
1130.383587	-0.005828
1130.541020	-0.004888
1130.698436	-0.006708
1130.855833	-0.011996
1131.013212	-0.009267
1131.170573	-0.005934
1131.327915	-0.004004
1131.485239	-0.008383
1131.642545	-0.006144
1131.799833	-0.005426
1131.957103	-0.004962
1132.114354	-0.001199
1132.271588	-0.001179
1132.428803	-0.006803
1132.585999	-0.013938
1132.743178	-0.011911
1132.900338	-0.005315
1133.057480	-0.004605
1133.214604	-0.009434
1133.371710	-0.012505
1133.528797	-0.008595
1133.685866	-0.004103
1133.842917	-0.000331
1133.999950	0.001491
1134.156964	-0.007261
1134.313960	-0.009465
1134.470938	-0.015799
1134.627898	-0.014298
1134.784840	-0.012550
1134.941763	-0.014535
1135.098668	-0.014172
1135.255555	-0.014642
1135.412424	-0.013238
1135.569274	-0.005808
1135.726107	-0.013038
1135.882921	-0.005666
1136.039716	-0.011651
1136.196494	-0.008813
1136.353253	-0.002963
1136.509995	-0.006382
1136.666717	-0.005036
1136.823422	-0.004250
1136.980109	-0.009568
1137.136777	-0.000919
1137.293427	-0.010315
1137.450059	-0.007147
1137.606672	-0.004373
1137.763267	-0.007208
1137.919844	-0.009979
1138.076403	-0.010174
1138.232944	-0.014139
1138.389466	-0.017384
1138.545971	-0.021695
1138.702457	-0.020648
1138.858924	-0.014162
1139.015374	-0.021291
1139.171805	-0.023612
1139.328218	-0.021295
1139.484613	-0.022022
1139.640990	-0.020078
1139.797348	-0.016453
1139.953688	-0.016184
1140.110010	-0.011021
1140.266314	-0.012936
1140.422600	-0.007244
1140.578867	-0.011729
1140.735116	-0.006365
1140.891347	-0.007719
1141.047559	-0.005067
1141.203754	-0.004906
1141.359930	-0.009887
1141.516088	-0.014673
1141.672228	-0.016167
1141.828349	-0.019789
1141.984452	-0.013192
1142.140537	-0.015316
1142.296604	-0.022652
1142.452653	-0.022892
1142.608683	-0.025209
1142.764695	-0.021312
1142.920689	-0.023698
1143.076665	-0.017133
1143.232622	-0.015556
1143.388562	-0.018799
1143.544483	-0.015932
1143.700385	-0.008899
1143.856270	-0.010188
1144.012136	-0.002262
1144.167985	-0.001196
1144.323814	0.009315
1144.479626	0.003087
1144.635420	0.000941
1144.791195	0.002215
1144.946952	0.001587
1145.102691	-0.000587
1145.258411	0.002040
1145.414113	0.004554
1145.569798	0.005281
1145.725463	-0.004582
1145.881111	0.002092
1146.036741	0.004841
1146.192352	0.004987
1146.347945	0.002232
1146.503519	0.005229
1146.659076	0.003685
1146.814614	-0.006328
1146.970134	-0.006641
1147.125636	-0.001956
1147.281120	-0.008331
1147.436585	-0.007060
1147.592032	-0.011804
1147.747461	-0.011932
1147.902872	-0.009171
1148.058265	-0.011679
1148.213639	-0.007959
1148.368995	-0.007936
1148.524333	-0.010169
1148.679653	-0.007820
1148.834954	-0.014549
1148.990237	-0.007928
1149.145502	-0.010459
1149.300749	-0.013062
1149.455977	-0.013396
1149.611188	-0.016181
1149.766380	-0.015989
1149.921553	-0.014099
1150.076709	-0.018840
1150.231846	-0.017795
1150.386966	-0.023999
1150.542066	-0.022405
1150.697149	-0.015640
1150.852214	-0.007726
1151.007260	-0.005027
1151.162288	-0.001341
1151.317298	-0.006168
1151.472289	-0.008194
1151.627263	-0.007223
1151.782218	-0.003195
1151.937155	0.001675
1152.092073	-0.007184
1152.246974	-0.014181
1152.401856	-0.016013
1152.556720	-0.016264
1152.711566	-0.006695
1152.866393	0.003327
1153.021203	0.003318
1153.175994	0.008576
1153.330767	0.011880
1153.485521	0.023550
1153.640258	0.020563
1153.794976	0.026389
1153.949676	0.018768
1154.104358	0.010247
1154.259021	0.005442
1154.413667	0.008267
1154.568294	0.001766
1154.722903	0.002388
1154.877493	-0.010897
1155.032066	-0.007167
1155.186620	-0.011469
1155.341156	-0.001114
1155.495674	0.002589
1155.650173	-0.001798
1155.804654	-0.000822
1155.959118	-0.009741
1156.113562	-0.021297
1156.267989	-0.019284
1156.422397	-0.026487
1156.576788	-0.027381
1156.731160	-0.039013
1156.885513	-0.036843
1157.039849	-0.035613
1157.194166	-0.035237
1157.348465	-0.032122
1157.502746	-0.036983
1157.657009	-0.029621
1157.811253	-0.028243
1157.965479	-0.023747
1158.119687	-0.019851
1158.273877	-0.014572
1158.428048	-0.008900
1158.582201	-0.002025
1158.736337	0.003017
1158.890453	0.019578
1159.044552	0.012520
1159.198632	0.013358
1159.352694	0.010920
1159.506738	0.010810
1159.660764	0.000100
1159.814771	-0.002165
1159.968761	-0.003957
1160.122732	-0.004031
1160.276685	-0.014491
1160.430619	-0.019767
1160.584535	0.000420
1160.738434	-0.005678
1160.892313	-0.010406
1161.046175	-0.006737
1161.200019	-0.000195
1161.353844	-0.006019
1161.507651	0.001773
1161.661440	0.004985
1161.815210	0.008868
1161.968962	0.000372
1162.122697	0.004466
1162.276412	0.010729
1162.430110	0.008968
1162.583789	0.003543
1162.737451	-0.002157
1162.891094	-0.012000
1163.044718	-0.004750
1163.198325	0.012386
1163.351913	0.010552
1163.505483	0.014278
1163.659035	0.012867
1163.812569	0.013136
1163.966084	0.017121
1164.119581	0.013404
1164.273060	0.012518
1164.426521	0.002861
1164.579964	-0.013048
1164.733388	-0.014141
1164.886794	-0.021852
1165.040182	-0.022172
1165.193551	-0.019574
1165.346903	-0.019009
1165.500236	-0.017880
1165.653551	-0.013147
1165.806848	-0.011429
1165.960126	-0.004253
1166.113386	-0.012330
1166.266628	-0.010822
1166.419852	-0.019409
1166.573058	-0.019983
1166.726245	-0.031091
1166.879414	-0.013649
1167.032565	0.002569
1167.185698	0.003745
1167.338812	-0.001398
1167.491909	-0.002405
1167.644987	-0.007438
1167.798046	0.005606
1167.951088	0.004566
1168.104111	0.012123
1168.257117	-0.006006
1168.410103	-0.030383
1168.563072	-0.023194
1168.716023	-0.018191
1168.868955	-0.027726
1169.021869	-0.017025
1169.174765	-0.023892
1169.327642	-0.025402
1169.480501	-0.032048
1169.633343	-0.025965
1169.786165	-0.017743
1169.938970	-0.024274
1170.091757	-0.040072
1170.244525	-0.021255
1170.397275	-0.021380
1170.550007	-0.012432
1170.702720	-0.009197
1170.855415	-0.007583
1171.008092	-0.024052
1171.160751	-0.038137
1171.313392	-0.053971
1171.466014	-0.022272
1171.618619	-0.127070
1171.771205	-0.127070
1171.923772	-0.127070
