sample name	sample
index	1
start time	 02-11-2021  11:05:15 AM
880	-0.029657
Peak Time (s)	80.54
Peak Height 	-0.02966
calc peak height	80,83
Baseline Time (s)	8.537
Baseline Value 	-0.006613
subtract baseline	10,4
Abs	-0.006823
Peak Time (s)	80.54
Peak Height 	-0.006823
calc peak height	80,83
Baseline Time (s)	11.036
Baseline Value 	0.00888
subtract baseline	10,3
PK_550	0.001778
Peak Time (s)	81.535
Peak Height 	0.001778
calc peak height	80,83
Baseline Time (s)	9.037
Baseline Value 	0.001474
subtract baseline	10,2
PK_880	-0.006033
Peak Time (s)	81.037
Peak Height 	-0.006033
calc peak height	80,83
Baseline Time (s)	9.037
Baseline Value 	0.004294
subtract baseline	10,1


Time (s)	A880-A510	A880-A775	A880-A975	A880	I510	I775	I975	I880	
0.035000	-0.002771	-0.000565	-0.014154	0.002527	4205.146731	17315.953999	3081.829073	9426.699091
0.538000	-0.006730	-0.001062	-0.006032	0.004410	4186.538520	17236.970101	3086.484365	9398.022540
1.035500	-0.007561	-0.002358	-0.015446	0.005074	4181.813441	17172.228248	3078.997253	9387.926156
1.536000	0.001869	-0.000395	0.009983	0.000516	4226.638419	17388.702032	3101.793827	9457.465107
2.035500	-0.000472	-0.001302	0.005763	-0.000906	4223.651679	17405.938697	3099.600259	9479.319917
2.536500	-0.005561	-0.000851	0.003950	0.003501	4193.128026	17274.066436	3094.772761	9411.847624
3.036500	-0.002007	-0.000020	-0.004128	0.003786	4203.560374	17292.234822	3088.389878	9407.515292
3.537000	-0.001758	0.000290	-0.007981	0.003643	4204.816485	17307.239288	3085.596755	9409.680675
4.037500	-0.001996	0.000026	0.003132	0.003233	4205.368278	17312.129466	3094.349164	9415.937568
4.534500	0.000392	-0.000589	-0.009920	0.004828	4207.913061	17238.793954	3083.264478	9391.670474
5.038000	-0.003573	0.000629	-0.012292	0.003665	4198.936533	17317.806912	3082.365368	9409.343053
5.535500	-0.002376	0.000289	0.016808	0.003207	4204.233959	17321.732044	3105.062395	9416.328104
6.034500	0.000193	-0.000868	0.000158	-0.000677	4225.069652	17412.842061	3095.070060	9475.801687
6.555000	0.000388	0.001208	0.000006	0.000379	4222.268934	17447.018723	3094.139242	9459.571353
7.036000	-0.002934	-0.000482	0.001607	0.003092	4202.814010	17299.884951	3093.285440	9418.074646
7.566500	-0.002148	-0.000743	0.005399	-0.000961	4218.392890	17426.518087	3099.358182	9480.162897
8.036000	-0.002230	0.001859	-0.000123	0.000246	4214.227807	17473.399137	3094.142926	9461.617138
8.537000	0.002699	0.000349	-0.006666	0.000000	4231.030534	17430.924533	3089.334294	9465.390991
9.037500	0.000000	0.000000	0.004716	-0.000153	4222.737474	17424.345525	3098.196029	9467.740861
9.534500	0.002149	0.000320	-0.011213	-0.001114	4232.872136	17467.369467	3086.742296	9482.518480
10.034500	-0.000946	0.000334	0.003132	-0.001778	4224.942524	17490.159798	3098.227581	9492.741894
10.535000	-0.000682	-0.000983	-0.002090	0.001025	4216.708704	17352.062840	3092.037114	9449.663847
11.036000	-0.001771	-0.000461	0.000000	0.000837	4213.798892	17375.760923	3093.782590	9452.544670
11.536000	0.001369	-0.000192	0.001148	0.001128	4223.023005	17375.030437	3094.441878	9448.089487
12.036000	-0.002718	0.000407	-0.012420	0.001834	4207.543288	17371.493290	3083.632560	9437.295565
12.536500	0.001917	0.000237	-0.010905	0.001331	4224.141761	17382.565592	3085.138438	9444.978519
13.037000	-0.004651	-0.001143	-0.006920	0.000540	4205.492442	17362.937442	3088.733310	9457.110607
13.537500	-0.000080	-0.000600	-0.004692	0.000974	4218.823583	17366.540416	3090.092681	9450.447567
14.034500	-0.002209	0.000318	-0.002359	0.001735	4209.492451	17371.781207	3091.289469	9438.796138
14.540000	-0.002892	-0.000295	-0.000057	0.000866	4210.093357	17380.365216	3093.717230	9452.110967
15.035500	0.000770	-0.000255	0.009960	0.001309	4220.490723	17366.885389	3101.152717	9445.319302
15.535500	0.000043	0.000450	-0.008349	0.001483	4217.571623	17384.628016	3086.942751	9442.653135
16.036000	-0.000258	0.001485	-0.004504	0.002953	4211.856399	17370.110174	3088.735410	9420.201827
16.536000	-0.000271	-0.000929	-0.007819	0.001047	4217.967977	17353.122992	3087.670033	9449.325920
17.036500	-0.000328	-0.000248	-0.006484	0.001112	4217.575773	17373.696888	3088.630010	9448.340451
17.536500	-0.001193	-0.001211	0.005521	0.001045	4214.994577	17343.801502	3097.890244	9449.363642
18.037000	-0.006445	-0.002443	0.010386	-0.000045	4201.614471	17339.054220	3102.553196	9466.077492
18.537500	-0.001701	0.000950	0.004203	0.001687	4211.284101	17394.501701	3096.368960	9439.529053
19.034500	0.003154	0.000356	-0.015371	0.001342	4228.137719	17386.225238	3081.805404	9444.820266
19.538000	0.000323	0.000106	-0.006949	0.002002	4216.801592	17355.830592	3087.606772	9434.725746
20.035000	-0.002873	0.000608	-0.000014	-0.000340	4214.039610	17451.027699	3094.677121	9470.608838
20.536000	-0.001890	-0.000743	-0.009611	-0.001859	4222.138742	17456.649462	3088.511510	9493.991112
21.061000	-0.000230	-0.001605	-0.003423	-0.002478	4229.557915	17448.505879	3093.700326	9503.552962
21.536000	0.000251	0.000676	-0.005370	-0.000422	4224.429022	17456.062202	3090.639270	9471.876166
22.036500	0.000929	0.001109	0.013086	-0.000594	4227.192041	17476.426203	3105.125140	9474.518809
22.537000	-0.002147	-0.000562	-0.003535	-0.000020	4215.350367	17401.054488	3091.731329	9465.692762
23.037000	0.000005	-0.000575	-0.012981	-0.001426	4226.895294	17447.754043	3085.649119	9487.323979
23.534500	0.000371	0.001177	-0.000394	0.000530	4221.723859	17440.904402	3093.715646	9457.250933
24.040500	0.000511	0.000244	0.012912	0.002286	4216.492394	17350.933126	3102.708119	9430.388060
24.535000	-0.004895	0.000125	0.003924	0.006068	4187.096341	17221.369109	3092.780026	9372.864303
25.058000	0.002743	-0.001172	0.001617	-0.001647	4236.563194	17435.146134	3096.948306	9490.725589
25.536000	0.000439	-0.001077	-0.008252	-0.001510	4228.582988	17433.749505	3089.276817	9488.625661
26.036000	0.005593	0.000404	-0.003100	-0.001003	4243.815811	17466.438680	3092.816089	9480.809660
26.536500	-0.003607	0.000076	-0.009182	0.005124	4194.180624	17251.017229	3083.593192	9387.175705
27.037000	0.000758	-0.000041	0.005875	-0.001646	4230.066378	17473.120723	3100.266983	9490.719090
27.536500	0.000787	-0.000846	0.000821	0.001777	4219.031692	17331.587840	3093.691908	9438.165346
28.037000	0.000609	0.001105	0.005084	0.002295	4216.780247	17379.398339	3096.580534	9430.250201
28.537000	0.001139	-0.001259	-0.000333	0.002609	4217.476758	17290.121898	3092.169195	9425.441991
29.035000	-0.002004	0.000350	-0.002820	0.002535	4207.582024	17346.138054	3090.328975	9426.572513
29.535500	-0.001737	0.000761	-0.005320	0.002747	4207.756584	17352.772086	3088.273272	9423.335417
30.035500	-0.003929	-0.000364	0.001634	0.002510	4201.490901	17323.202666	3093.753069	9426.957907
30.536000	-0.001009	0.001064	0.010809	0.002907	4209.584697	17357.556025	3100.564885	9420.897141
31.036000	0.001120	-0.000628	-0.002497	0.001687	4220.401739	17341.804594	3091.221319	9439.532902
31.536500	-0.002637	-0.000130	-0.013135	0.002195	4206.641040	17341.495729	3082.830743	9431.765484
32.037000	-0.000815	-0.000266	0.015647	0.001639	4214.297127	17355.489134	3105.385687	9440.271683
32.537000	0.000870	0.001477	0.001428	0.003700	4213.085730	17344.911202	3092.682579	9408.822114
33.037500	0.001602	0.000341	0.002438	0.002450	4219.490598	17348.691936	3094.417159	9427.871063
33.537500	0.002180	0.001810	-0.006760	0.003080	4219.324585	17376.729631	3086.937346	9418.269628
34.035000	-0.000725	0.001666	0.005254	0.002931	4210.423751	17376.890893	3096.219819	9420.539120
34.535500	0.002378	-0.001164	0.009126	0.001658	4224.578383	17324.939397	3100.224913	9439.979482
35.035500	-0.002988	-0.001244	0.010395	0.001193	4208.732451	17337.756964	3101.585713	9447.092767
35.536000	0.003358	0.002421	0.007077	0.004210	4219.475627	17359.370742	3096.640937	9401.053764
36.036000	-0.002421	-0.000669	-0.004733	0.001785	4208.653496	17337.208833	3089.446545	9438.042739
36.536500	0.000440	0.000869	0.008496	0.002994	4213.975330	17348.148109	3098.688825	9419.574105
37.037000	-0.001127	0.000431	0.004044	-0.001703	4224.114339	17490.939064	3098.880638	9491.598197
37.537000	0.003948	0.000085	0.014650	-0.000687	4237.369787	17445.111647	3106.444006	9475.950705
38.040000	-0.000205	-0.002314	0.005308	-0.002345	4229.204941	17420.283301	3100.370593	9501.502968
38.535000	0.000156	0.000310	-0.005671	0.005941	4203.585127	17231.664563	3085.606067	9374.778064
39.035500	0.004416	0.001468	0.009627	0.000384	4235.390583	17455.612254	3101.618402	9459.497115
39.535500	-0.000775	0.000570	0.009167	0.000146	4219.252597	17433.428940	3101.443338	9463.147277
40.036000	0.000135	-0.000596	0.019848	-0.000970	4225.830740	17431.753458	3110.842572	9480.301146
40.557500	-0.000353	0.000131	-0.012527	0.004581	4206.315686	17270.819916	3081.512615	9395.417825
41.036500	-0.000311	0.000261	0.003467	0.004102	4207.986926	17291.031683	3093.937962	9402.701728
41.536500	-0.003400	0.000900	-0.007995	0.003374	4200.422443	17336.518686	3085.788636	9413.784879
42.034000	0.000164	0.001383	-0.015434	0.000915	4219.803896	17434.920143	3082.074990	9451.352061
42.543000	-0.000736	-0.000714	0.013766	0.001548	4214.845857	17343.587322	3103.965689	9441.659632
43.037500	0.000407	0.000534	-0.001187	-0.000273	4224.451354	17446.303141	3093.724064	9469.591330
43.535000	0.004568	-0.000948	-0.001948	-0.001003	4240.439831	17421.046563	3093.699947	9480.805780
44.035000	0.002669	0.000137	-0.009809	-0.002008	4237.506945	17491.310514	3088.475000	9496.297937
44.536000	0.006178	-0.000484	0.002709	-0.008999	4272.382790	17707.452106	3103.562301	9605.023341
45.036000	-0.032179	-0.020619	0.015412	0.188754	3660.091463	11851.040637	2984.401358	7114.705709
45.536000	-0.040425	-0.027880	0.012469	0.185430	3650.537252	11769.894668	2984.598128	7147.874654
46.036500	-0.047067	-0.023464	-0.008505	0.012648	4041.125789	16257.759019	3078.533463	9273.979774
46.537000	-0.031384	-0.016178	-0.012762	-0.158318	4700.843251	23055.667120	3227.539089	12398.681244
47.034000	-0.026019	-0.010964	0.004306	-0.190210	4870.000696	24856.835218	3283.321342	13130.343905
47.540000	-0.042472	-0.012898	-0.004915	-0.143653	4592.117038	22533.194489	3220.258818	12079.854925
48.035000	-0.037519	-0.013874	-0.014506	-0.146751	4625.414925	22629.495510	3213.429272	12146.305829
48.535000	-0.035571	-0.010702	-0.018909	-0.129361	4562.084159	21992.870392	3191.243219	11779.331374
49.036000	-0.036165	-0.010557	-0.013220	-0.126882	4549.749389	21890.299483	3194.441314	11728.193586
49.536000	-0.037170	-0.009123	-0.020936	-0.126291	4543.376440	21927.291283	3186.213321	11716.053074
50.036000	-0.031604	-0.006915	-0.015995	-0.118605	4534.943949	21688.319663	3183.527405	11559.581380
50.536000	-0.029985	-0.006217	-0.028697	-0.117605	4537.400932	21675.213209	3170.377479	11539.426907
51.036500	-0.026229	-0.005987	-0.015781	-0.104355	4500.101207	21119.586311	3170.062071	11276.721053
51.537000	-0.023457	-0.004904	-0.006628	-0.076669	4406.009381	20034.819112	3152.936350	10752.995244
52.037000	-0.016175	-0.004106	0.003043	-0.066838	4396.680769	19681.333169	3152.790360	10574.900720
52.538500	-0.025615	-0.003640	-0.012660	-0.059983	4338.339961	19435.729274	3132.914791	10453.095054
53.035000	-0.025676	-0.004365	-0.017934	-0.060424	4339.676756	19424.867545	3128.788891	10460.868278
53.535500	-0.020009	-0.005362	-0.025822	-0.064017	4372.590542	19524.153078	3125.160969	10524.540786
54.038000	-0.020982	-0.003240	-0.024984	-0.063981	4368.972213	19604.389226	3125.835353	10523.906718
54.536000	-0.017015	-0.003300	-0.014079	-0.061273	4373.491011	19498.051810	3132.804950	10475.881731
55.035500	-0.015495	-0.001511	-0.017729	-0.063374	4386.558361	19647.689055	3131.477355	10513.107533
55.536500	-0.013258	-0.001675	0.000944	-0.062682	4392.173088	19614.675103	3147.176158	10500.833401
56.040000	-0.013481	-0.000065	-0.001662	-0.061446	4386.871314	19629.097271	3143.766868	10478.927214
56.537000	-0.015021	0.000704	-0.021204	-0.056851	4364.788849	19482.049413	3123.025394	10398.084444
57.040500	-0.010719	0.000873	-0.006658	-0.056917	4380.477712	19491.012252	3135.443907	10399.233977
57.535000	-0.014137	0.000692	-0.011055	-0.056412	4366.377182	19464.789969	3131.230699	10390.394632
58.035000	-0.011786	0.001716	-0.002160	-0.053919	4365.869214	19408.733768	3136.742720	10346.931435
58.535500	-0.010894	0.001198	-0.007569	-0.051274	4359.613560	19288.676655	3129.822337	10301.093400
59.036000	-0.013394	0.002813	-0.010275	-0.049691	4345.134166	19289.865842	3126.188855	10273.783618
59.538500	-0.010906	0.000660	-0.002443	-0.049536	4353.390022	19202.816767	3132.718244	10271.122927
60.039000	-0.011505	0.000667	-0.013501	-0.047467	4343.951229	19125.383545	3121.623126	10235.591448
60.536500	-0.015750	-0.001000	-0.017283	-0.045252	4321.343206	18980.677568	3116.665870	10197.757330
61.037000	-0.012866	0.000627	-0.012529	-0.042673	4322.400893	18945.372108	3118.455379	10153.924861
61.537500	-0.013165	-0.000064	-0.009684	-0.041663	4317.855118	18882.488880	3119.972979	10136.833200
62.034500	-0.012509	0.001127	-0.006816	-0.039156	4311.452721	18834.046753	3120.272689	10094.584867
62.535000	-0.017179	-0.001268	-0.021034	-0.037637	4290.243303	18690.749526	3107.455075	10069.108232
63.035500	-0.013840	-0.000481	-0.006797	-0.037656	4301.715452	18720.137506	3119.046672	10069.428257
63.536000	-0.016862	-0.001065	-0.007818	-0.036519	4287.520354	18657.440077	3117.267233	10050.411615
64.038000	-0.016414	-0.000061	-0.019072	-0.035743	4286.403920	18665.703869	3107.509247	10037.453692
64.536000	-0.017609	-0.000887	-0.011140	-0.034636	4278.612801	18595.569924	3113.012626	10019.033190
65.036000	-0.011938	0.000173	-0.002890	-0.033522	4294.078733	18593.577850	3118.859214	10000.526773
65.537000	-0.012485	0.000994	-0.006418	-0.032747	4289.574362	18595.238061	3115.321750	9987.672210
66.037000	-0.017919	-0.001252	-0.008507	-0.032972	4271.963411	18522.226447	3113.800690	9991.410059
66.537500	-0.016070	-0.001021	-0.005322	-0.032142	4275.390875	18500.613273	3115.723709	9977.663994
67.034000	-0.013074	-0.001477	-0.023871	-0.032846	4287.909297	18509.536286	3101.407654	9989.315003
67.535000	-0.013586	-0.002979	-0.007481	-0.033639	4288.862090	18484.021344	3115.181562	10002.458673
68.035500	-0.009618	0.000081	-0.019701	-0.031440	4294.891897	18515.039432	3103.586641	9966.072184
68.535500	-0.018106	-0.000784	-0.005797	-0.031192	4265.365900	18474.959701	3114.558474	9961.975924
69.036000	-0.014053	-0.002206	-0.006297	-0.034047	4288.661492	18526.540204	3116.485401	10009.230213
69.536500	-0.012833	-0.001161	-0.008432	-0.032089	4286.156335	18493.678213	3113.142900	9976.793159
70.037000	-0.012544	-0.000098	-0.007503	-0.031601	4285.482255	18514.393193	3113.502117	9968.735190
70.536000	-0.009274	0.000460	-0.010693	-0.029796	4290.461837	18469.515753	3109.460582	9938.986232
71.040000	-0.016431	-0.000064	-0.009894	-0.031540	4272.149137	18513.398191	3111.511482	9967.714527
71.535000	-0.013256	-0.000018	-0.012504	-0.030668	4279.911947	18483.667747	3108.705724	9953.334753
72.035000	-0.012257	-0.000097	-0.009702	-0.031115	4284.805952	18496.911568	3111.323198	9960.703602
72.535500	-0.012047	-0.001663	-0.011020	-0.030318	4282.821067	18412.078671	3109.617537	9947.578132
73.035500	-0.013138	-0.000785	-0.007786	-0.030665	4280.301779	18456.021461	3112.511189	9953.294533
73.536000	-0.009756	-0.001586	0.000303	-0.031376	4294.200327	18452.769850	3119.724516	9965.012020
74.036000	-0.013265	-0.001222	-0.003331	-0.031528	4282.789791	18471.291980	3116.852949	9967.521738
74.535500	-0.016612	-0.000374	-0.002755	-0.030279	4267.312396	18456.881294	3116.299974	9946.923908
75.039000	-0.008479	-0.000485	-0.005363	-0.030911	4296.975452	18475.624672	3114.683877	9957.341913
75.536500	-0.011397	0.001250	-0.016734	-0.030470	4285.534431	18522.186401	3105.169757	9950.070972
76.037500	-0.011479	-0.000319	-0.008589	-0.031249	4287.902232	18493.722525	3112.333199	9962.915673
76.535000	-0.009955	0.001159	-0.001477	-0.029424	4286.880910	18481.255645	3116.648140	9932.871712
77.035500	-0.011323	0.001010	-0.006734	-0.030514	4285.938493	18515.153288	3113.243136	9950.805482
77.535500	-0.012599	0.000233	-0.003931	-0.031342	4284.418837	18516.975622	3116.208087	9964.453725
78.035500	-0.010574	-0.000586	0.000039	-0.031186	4290.765501	18481.863907	3119.349376	9961.879636
78.536000	-0.010087	0.000370	-0.010340	-0.029970	4288.284900	18472.521177	3109.884712	9941.839681
79.036500	-0.010141	0.000963	-0.019238	-0.030647	4290.406252	18518.250246	3103.326231	9952.999866
79.537000	-0.012223	0.000566	-0.005613	-0.031448	4286.050057	18532.811447	3114.917915	9966.199244
80.036000	-0.012670	0.000840	-0.010848	-0.031276	4283.953113	18536.478160	3110.527836	9963.362490
80.540000	-0.012433	0.001337	-0.006823	-0.029657	4279.279815	18496.053181	3112.475126	9936.703924
81.037000	-0.006033	0.000855	-0.015914	-0.031091	4305.977128	18530.347526	3106.316435	9960.305849
81.535500	-0.010831	0.001778	-0.008862	-0.030769	4288.472652	18552.034601	3111.723126	9954.995113
82.035000	-0.015630	-0.001195	-0.010782	-0.032387	4277.700721	18503.176749	3111.478793	9981.720937
82.535500	-0.012153	0.000247	-0.012460	-0.031158	4285.305274	18510.872599	3109.135035	9961.420966
83.038500	-0.011568	0.000718	-0.010820	-0.031463	4288.329071	18538.848917	3110.701402	9966.452462
83.536000	-0.014650	-0.000318	-0.008172	-0.032702	4282.078803	18546.190035	3113.853588	9986.942365
84.105000	-0.017909	-0.000110	-0.017727	-0.027685	4254.336649	18373.480932	3102.181361	9904.354076
84.559000	-0.009416	0.002203	0.005075	-0.030007	4290.693463	18539.873619	3122.553565	9942.450829
85.036500	-0.012626	0.001038	-0.014305	-0.031779	4285.809586	18561.829331	3108.152525	9971.674250
85.534500	-0.013363	0.001468	-0.002684	-0.031678	4282.965043	18573.709648	3117.508329	9969.995690
86.034500	-0.008187	0.000433	-0.008960	-0.031722	4300.752728	18537.909598	3112.416152	9970.734890
86.535000	-0.009985	0.000939	-0.004247	-0.031099	4292.475577	18533.678769	3115.749857	9960.442081
87.035000	-0.008658	0.000651	-0.018488	-0.032256	4300.964789	18565.052725	3105.195302	9979.555523
